Sun Feb 26 14:03:58 2017

Number of Points = 3602
Depth (nm)	Load (µN)	Time (s)	Depth (V)	Load (V)
0.723209	0.055077	0.000000	0.000020	0.290672

0.773824	0.023227	0.005005	0.000008	0.290587
0.589899	0.006043	0.010010	0.000053	0.290381
0.649522	-0.002159	0.015014	0.000039	0.290394
0.708039	-0.015063	0.020019	0.000024	0.290389
0.518772	0.020744	0.025024	0.000071	0.290383
0.519213	0.023607	0.030029	0.000071	0.290394
0.544436	0.015573	0.035034	0.000065	0.290382
0.682488	-0.016765	0.040038	0.000031	0.290361
0.517938	-0.053353	0.045043	0.000072	0.290095
0.475072	-0.044992	0.050048	0.000082	0.290094
0.508878	-0.048941	0.055053	0.000074	0.290104
0.598723	-0.151561	0.060058	0.000052	0.289775
0.504036	-0.131947	0.065062	0.000075	0.289779
0.423133	-0.177810	0.070067	0.000095	0.289539
0.415757	-0.197927	0.075072	0.000097	0.289455
0.493188	-0.266606	0.080077	0.000078	0.289248
0.412360	-0.276462	0.085082	0.000098	0.289147
0.354736	-0.317771	0.090086	0.000113	0.288943
0.520983	-0.385945	0.095091	0.000072	0.288805
0.596537	-0.465809	0.100096	0.000054	0.288551
0.441469	-0.503350	0.105101	0.000092	0.288287
0.422563	-0.571487	0.110106	0.000097	0.288007
0.485678	-0.643559	0.115110	0.000081	0.287774
0.495321	-0.714734	0.120115	0.000079	0.287503
0.395080	-0.775565	0.125120	0.000104	0.287188
0.417399	-0.850989	0.130125	0.000098	0.286910
0.285507	-0.906390	0.135130	0.000131	0.286592
0.290283	-0.982753	0.140134	0.000130	0.286296
0.125664	-1.033233	0.145139	0.000170	0.285971
-0.080010	-1.072888	0.150144	0.000221	0.285657
0.116270	-1.188352	0.155149	0.000173	0.285354
-0.065391	-1.235112	0.160154	0.000217	0.285029
0.031788	-1.340033	0.165158	0.000194	0.284691
-0.078661	-1.404937	0.170163	0.000221	0.284349
-0.145877	-1.468985	0.175168	0.000237	0.284044
-0.165788	-1.546937	0.180173	0.000242	0.283720
-0.247425	-1.629779	0.185178	0.000263	0.283329
-0.401412	-1.696822	0.190182	0.000300	0.282943
-0.437031	-1.778945	0.195187	0.000309	0.282589
-0.740544	-1.812203	0.200192	0.000384	0.282219
-0.706552	-1.900175	0.205197	0.000375	0.281896
-1.023086	-1.927081	0.210202	0.000453	0.281541
-1.534629	-1.902495	0.215206	0.000578	0.281238
-1.946705	-1.884402	0.220211	0.000679	0.280987
-2.269723	-1.875073	0.225216	0.000758	0.280770
-2.371019	-1.919012	0.230221	0.000783	0.280514
-2.352784	-1.959067	0.235226	0.000778	0.280368
-2.640540	-1.953342	0.240230	0.000849	0.280165
-3.140643	-1.914710	0.245235	0.000971	0.279925
-3.242100	-1.918599	0.250240	0.000996	0.279830
-2.906303	-2.020623	0.255245	0.000914	0.279685
-3.343929	-1.975403	0.260250	0.001021	0.279521
-3.653498	-1.964396	0.265254	0.001097	0.279320
-3.767063	-1.967709	0.270259	0.001125	0.279217
-3.681579	-1.999228	0.275264	0.001104	0.279158
-4.172789	-1.943000	0.280269	0.001224	0.278995
-4.478234	-1.886687	0.285274	0.001299	0.278980
-4.368698	-1.905915	0.290278	0.001272	0.278989
-4.505586	-1.938967	0.295283	0.001306	0.278748
-4.709751	-1.924246	0.300288	0.001356	0.278645
-4.708823	-1.920471	0.305293	0.001355	0.278661
-4.780342	-1.915617	0.310298	0.001373	0.278623
-4.989994	-1.945342	0.315302	0.001424	0.278337
-4.996536	-1.944616	0.320307	0.001426	0.278335
-4.726906	-1.998994	0.325312	0.001360	0.278329
-4.630908	-2.093267	0.330317	0.001337	0.278024
-4.823802	-2.064128	0.335322	0.001384	0.277988
-4.818736	-2.132638	0.340326	0.001383	0.277715
-4.823455	-2.153243	0.345331	0.001384	0.277628
-5.328289	-2.114846	0.350336	0.001508	0.277382
-5.637376	-2.051652	0.355341	0.001583	0.277392
-5.816316	-2.071778	0.360346	0.001627	0.277168
-6.111732	-2.035747	0.365350	0.001700	0.277078
-6.548656	-1.950328	0.370355	0.001806	0.277076
-7.042117	-1.855225	0.375360	0.001927	0.277068
-7.335101	-1.794797	0.380365	0.001999	0.277080
-7.266778	-1.811418	0.385370	0.001982	0.277066
-7.140091	-1.772297	0.390374	0.001951	0.277325
-7.019365	-1.830580	0.395379	0.001922	0.277185
-7.126121	-1.838600	0.400384	0.001948	0.277067
-6.918390	-1.876690	0.405389	0.001897	0.277078
-6.961508	-1.870380	0.410394	0.001908	0.277069
-6.935398	-1.873839	0.415398	0.001902	0.277075
-6.527527	-1.985892	0.420403	0.001802	0.276945
-6.460881	-2.045957	0.425408	0.001786	0.276755
-6.412366	-2.109707	0.430413	0.001774	0.276534
-6.685027	-2.079626	0.435418	0.001841	0.276439
-6.830986	-2.126909	0.440422	0.001877	0.276130
-7.008585	-2.105113	0.445427	0.001920	0.276076
-7.702491	-2.035751	0.450432	0.002090	0.275804
-7.760263	-2.020945	0.455437	0.002104	0.275817
-7.696157	-2.036153	0.460442	0.002089	0.275806
-7.790115	-2.084621	0.465446	0.002112	0.275534
-8.095237	-2.033787	0.470451	0.002186	0.275496
-8.289399	-1.997695	0.475456	0.002234	0.275488
-8.463080	-1.959763	0.480461	0.002276	0.275503
-8.738702	-1.968595	0.485466	0.002344	0.275246
-9.067446	-1.916068	0.490470	0.002424	0.275196
-8.990503	-1.930213	0.495475	0.002406	0.275200
-8.964086	-1.937686	0.500480	0.002399	0.275190
-8.843559	-1.957661	0.505485	0.002370	0.275205
-9.044610	-1.921509	0.510490	0.002419	0.275191
-9.105626	-1.908451	0.515494	0.002434	0.275195
-9.001089	-1.984160	0.520499	0.002409	0.274970
-8.874945	-2.033469	0.525504	0.002378	0.274869
-8.959170	-2.019031	0.530509	0.002399	0.274860
-9.771143	-1.933291	0.535514	0.002597	0.274558
-9.574580	-1.970671	0.540518	0.002549	0.274563
-9.443683	-1.996087	0.545523	0.002517	0.274564
-9.645845	-1.956929	0.550528	0.002567	0.274561
-9.939088	-1.952551	0.555533	0.002639	0.274343
-10.059595	-1.951964	0.560538	0.002668	0.274248
-9.804892	-1.999886	0.565542	0.002606	0.274257
-9.711169	-2.028312	0.570547	0.002583	0.274215
-10.047328	-2.009879	0.575552	0.002666	0.274020
-9.828444	-2.049751	0.580557	0.002612	0.274033
-9.707073	-2.134679	0.585562	0.002583	0.273782
-9.921752	-2.113920	0.590566	0.002635	0.273694
-10.149832	-2.134002	0.595571	0.002691	0.273427
-10.321955	-2.114190	0.600576	0.002733	0.273369
-10.320543	-2.155269	0.605581	0.002733	0.273202
-10.882398	-2.081552	0.610586	0.002870	0.273051
-11.081807	-2.041734	0.615590	0.002919	0.273053
-11.133032	-2.035881	0.620595	0.002932	0.273035
-11.688911	-1.997001	0.625600	0.003068	0.272746
-11.777686	-1.976500	0.630605	0.003089	0.272758
-11.954496	-1.943626	0.635610	0.003133	0.272750
-11.894504	-1.953369	0.640614	0.003118	0.272758
-12.180565	-1.897261	0.645619	0.003188	0.272757
-12.196724	-1.896178	0.650624	0.003192	0.272748
-12.173775	-1.897320	0.655629	0.003187	0.272762
-12.204982	-1.894162	0.660634	0.003194	0.272749
-11.805210	-1.971794	0.665638	0.003097	0.272752
-11.621810	-2.052747	0.670643	0.003052	0.272567
-11.903581	-2.033355	0.675648	0.003121	0.272419
-11.824845	-2.067875	0.680653	0.003102	0.272340
-12.105486	-2.069166	0.685658	0.003171	0.272107
-12.031699	-2.082660	0.690662	0.003153	0.272111
-12.469183	-2.070678	0.695667	0.003260	0.271805
-12.485163	-2.069702	0.700672	0.003264	0.271796
-12.245445	-2.134457	0.705677	0.003205	0.271722
-12.472719	-2.145102	0.710682	0.003261	0.271494
-12.584901	-2.135549	0.715686	0.003289	0.271442
-13.080064	-2.104298	0.720691	0.003410	0.271168
-13.264262	-2.069468	0.725696	0.003455	0.271162
-13.314407	-2.057461	0.730701	0.003467	0.271171
-13.610436	-2.006268	0.735706	0.003540	0.271141
-13.944828	-2.011056	0.740710	0.003621	0.270849
-14.114821	-1.976430	0.745715	0.003663	0.270854
-14.146538	-1.972919	0.750720	0.003671	0.270842
-14.136860	-1.971533	0.755725	0.003669	0.270856
-14.544246	-1.894360	0.760730	0.003768	0.270843
-14.292795	-1.943469	0.765734	0.003707	0.270844
-14.173242	-1.965692	0.770739	0.003678	0.270849
-14.140956	-1.973235	0.775744	0.003670	0.270844
-14.295280	-2.010012	0.780749	0.003708	0.270565
-14.602611	-1.959183	0.785754	0.003783	0.270525
-14.376594	-2.002561	0.790758	0.003728	0.270529
-14.183872	-2.063262	0.795763	0.003681	0.270434
-14.339861	-2.082967	0.800768	0.003719	0.270225
-14.360330	-2.084408	0.805773	0.003724	0.270201
-14.973841	-2.035735	0.810778	0.003874	0.269902
-14.877954	-2.053913	0.815782	0.003851	0.269905
-14.930903	-2.042045	0.820787	0.003864	0.269911
-15.486171	-1.998198	0.825792	0.004000	0.269639
-15.850496	-1.935862	0.830797	0.004089	0.269600
-15.730652	-1.961481	0.835802	0.004060	0.269591
-15.583639	-1.988904	0.840806	0.004024	0.269597
-15.700608	-1.965578	0.845811	0.004053	0.269598
-15.732829	-1.961303	0.850816	0.004061	0.269589
-15.533912	-2.063531	0.855821	0.004012	0.269325
-15.658886	-2.049198	0.860826	0.004043	0.269282
-15.560780	-2.087959	0.865830	0.004019	0.269201
-15.710451	-2.092632	0.870835	0.004056	0.269058
-15.723342	-2.105143	0.875840	0.004059	0.268995
-16.049526	-2.104836	0.880845	0.004139	0.268729
-16.156767	-2.085696	0.885850	0.004165	0.268720
-16.398605	-2.079189	0.890854	0.004224	0.268548
-16.838741	-2.026421	0.895859	0.004332	0.268407
-16.897170	-2.017337	0.900864	0.004346	0.268397
-16.785021	-2.035710	0.905869	0.004319	0.268412
-17.187667	-1.959547	0.910874	0.004417	0.268399
-17.286706	-1.993493	0.915878	0.004442	0.268175
-17.711629	-1.930944	0.920883	0.004545	0.268087
-17.943079	-1.888039	0.925888	0.004602	0.268076
-17.709400	-1.930624	0.930893	0.004545	0.268089
-17.642193	-1.946611	0.935898	0.004529	0.268077
-17.550563	-1.964074	0.940902	0.004507	0.268079
-17.630012	-1.946680	0.945907	0.004526	0.268086
-17.601221	-1.983119	0.950912	0.004519	0.267957
-17.535644	-2.036491	0.955917	0.004503	0.267787
-17.713984	-2.003535	0.960922	0.004547	0.267778
-17.681087	-2.064100	0.965926	0.004539	0.267551
-17.707786	-2.080242	0.970931	0.004546	0.267461
-17.619040	-2.136680	0.975936	0.004524	0.267297
-17.707347	-2.154707	0.980941	0.004546	0.267148
-18.055085	-2.131182	0.985946	0.004631	0.266959
-18.540339	-2.066972	0.990950	0.004750	0.266828
-18.474532	-2.079090	0.995955	0.004734	0.266831
-18.446216	-2.133820	1.000960	0.004727	0.266623

-19.123672	-2.024939	1.010957	0.004892	0.266521
-19.070139	-2.034778	1.020954	0.004880	0.266523
-19.655575	-1.905621	1.030950	0.005023	0.266581
-18.959205	-1.983366	1.040947	0.004853	0.266829
-19.214246	-1.933862	1.050944	0.004915	0.266826
-18.947400	-1.986966	1.060941	0.004850	0.266823
-18.969012	-1.981229	1.070938	0.004856	0.266828
-18.909249	-1.993118	1.080934	0.004842	0.266827
-18.900941	-1.993763	1.090931	0.004840	0.266830
-18.847935	-1.970041	1.100928	0.004827	0.266973
-18.469943	-2.027927	1.110925	0.004735	0.267041
-18.692551	-1.987934	1.120922	0.004789	0.267025
-18.352684	-2.069137	1.130918	0.004707	0.266964
-18.746510	-1.985610	1.140915	0.004803	0.266989
-18.578343	-1.982090	1.150912	0.004762	0.267142
-19.158868	-1.868780	1.160909	0.004904	0.267138
-18.820658	-1.863643	1.170906	0.004822	0.267438
-18.961563	-1.829704	1.180902	0.004856	0.267463
-18.359676	-1.871743	1.190899	0.004709	0.267782
-17.934592	-1.957630	1.200896	0.004606	0.267772
-17.989733	-2.023896	1.210893	0.004620	0.267447
-18.151783	-1.991072	1.220890	0.004659	0.267451
-18.120342	-1.977423	1.230886	0.004652	0.267533
-18.148264	-1.927211	1.240883	0.004659	0.267720
-18.230402	-1.897171	1.250880	0.004679	0.267778
-17.981839	-1.946053	1.260877	0.004619	0.267777
-17.861155	-1.969439	1.270874	0.004589	0.267778
-18.039180	-1.934132	1.280870	0.004633	0.267778
-17.665416	-2.006415	1.290867	0.004542	0.267782
-17.919395	-1.951787	1.300864	0.004604	0.267801
-17.865369	-1.897023	1.310861	0.004591	0.268075
-18.076133	-1.855049	1.320858	0.004643	0.268076
-17.696350	-1.929166	1.330854	0.004550	0.268078
-17.886358	-1.844258	1.340851	0.004597	0.268276
-17.239417	-1.942152	1.350848	0.004439	0.268398
-17.462873	-1.898595	1.360845	0.004494	0.268395
-17.271590	-1.935162	1.370842	0.004447	0.268399
-17.381391	-1.912527	1.380838	0.004475	0.268403
-17.121247	-1.963620	1.390835	0.004411	0.268402
-17.309382	-1.927139	1.400832	0.004457	0.268399
-17.532728	-1.883450	1.410829	0.004512	0.268398
-17.577138	-1.857584	1.420826	0.004523	0.268469
-16.958918	-1.918112	1.430822	0.004372	0.268723
-17.055594	-1.899066	1.440819	0.004396	0.268722
-16.864131	-1.936607	1.450816	0.004350	0.268722
-17.010545	-1.907895	1.460813	0.004386	0.268721
-16.810501	-1.946944	1.470810	0.004337	0.268721
-16.964948	-1.915545	1.480806	0.004375	0.268725
-17.090239	-1.890956	1.490803	0.004406	0.268724
-17.033047	-1.869962	1.500800	0.004392	0.268858
-16.849724	-1.858747	1.510797	0.004347	0.269055
-16.951284	-1.838438	1.520794	0.004372	0.269055
-17.181134	-1.775445	1.530790	0.004429	0.269129
-16.311720	-1.908323	1.540787	0.004217	0.269286
-16.481792	-1.874875	1.550784	0.004258	0.269286
-16.221883	-1.937778	1.560781	0.004195	0.269236
-16.430002	-1.890288	1.570778	0.004246	0.269263
-16.377279	-1.894065	1.580774	0.004233	0.269289
-16.557065	-1.858699	1.590771	0.004278	0.269289
-16.607533	-1.849821	1.600768	0.004290	0.269284
-16.684487	-1.774549	1.610765	0.004309	0.269534
-16.581092	-1.780628	1.620762	0.004284	0.269592
-16.288475	-1.815449	1.630758	0.004213	0.269686
-15.931264	-1.831373	1.640755	0.004126	0.269911
-16.045655	-1.809524	1.650752	0.004154	0.269908
-15.898329	-1.838245	1.660749	0.004118	0.269908
-15.617320	-1.908697	1.670746	0.004050	0.269844
-15.722944	-1.883940	1.680742	0.004076	0.269860
-15.851696	-1.883493	1.690739	0.004107	0.269756
-15.616798	-1.892420	1.700736	0.004050	0.269910
-15.758563	-1.869510	1.710733	0.004085	0.269889
-16.080715	-1.800435	1.720730	0.004164	0.269912
-16.025573	-1.795255	1.730726	0.004151	0.269978
-15.806599	-1.776083	1.740723	0.004097	0.270235
-15.908357	-1.756346	1.750720	0.004122	0.270234
-15.576190	-1.779358	1.760717	0.004041	0.270408
-15.294554	-1.805642	1.770714	0.003973	0.270528
-15.288442	-1.846084	1.780710	0.003972	0.270365
-14.984961	-1.897744	1.790707	0.003898	0.270397
-15.150518	-1.903820	1.800704	0.003938	0.270236
-15.306606	-1.869057	1.810701	0.003977	0.270252
-15.133516	-1.835771	1.820698	0.003935	0.270531
-14.947747	-1.871060	1.830694	0.003889	0.270535
-15.146706	-1.832080	1.840691	0.003938	0.270534
-15.160602	-1.829428	1.850688	0.003942	0.270533
-15.541161	-1.754719	1.860685	0.004035	0.270532
-15.133933	-1.761645	1.870682	0.003936	0.270835
-15.101323	-1.764629	1.880678	0.003928	0.270848
-14.841884	-1.814806	1.890675	0.003865	0.270851
-14.839398	-1.815704	1.900672	0.003864	0.270848
-14.794828	-1.825266	1.910669	0.003854	0.270844
-14.480790	-1.842764	1.920666	0.003777	0.271027
-14.579439	-1.844762	1.930662	0.003802	0.270937
-14.447383	-1.885600	1.940659	0.003770	0.270875
-14.700267	-1.767744	1.950656	0.003831	0.271157
-14.165074	-1.871978	1.960653	0.003701	0.271160
-14.149770	-1.878104	1.970650	0.003697	0.271146
-14.221034	-1.935681	1.980646	0.003715	0.270849
-14.789712	-1.759927	1.990643	0.003854	0.271113
-14.795956	-1.745961	2.000640	0.003856	0.271165
-14.860780	-1.657574	2.010637	0.003872	0.271478
-14.655296	-1.682487	2.020634	0.003822	0.271541
-14.175102	-1.713703	2.030630	0.003705	0.271801
-13.583215	-1.829611	2.040627	0.003560	0.271802
-13.497768	-1.920124	2.050624	0.003540	0.271497
-13.854693	-1.850383	2.060621	0.003627	0.271494
-13.709145	-1.879135	2.070618	0.003592	0.271493
-13.949912	-1.830213	2.080614	0.003651	0.271499
-14.183003	-1.772533	2.090611	0.003708	0.271547
-14.350017	-1.678709	2.100608	0.003749	0.271799
-14.424998	-1.618424	2.110605	0.003767	0.271986
-14.378841	-1.587592	2.120602	0.003756	0.272150
-13.699547	-1.653689	2.130598	0.003591	0.272427
-13.191610	-1.752247	2.140595	0.003467	0.272431
-13.115260	-1.830329	2.150592	0.003448	0.272171
-13.152359	-1.836702	2.160589	0.003458	0.272113
-13.103839	-1.846306	2.170586	0.003446	0.272112
-13.055011	-1.854478	2.180582	0.003434	0.272118
-13.501770	-1.766512	2.190579	0.003544	0.272118
-13.378601	-1.791630	2.200576	0.003514	0.272113
-13.682757	-1.698242	2.210573	0.003588	0.272251
-13.530984	-1.685437	2.220570	0.003551	0.272426
-13.538846	-1.670447	2.230566	0.003554	0.272481
-13.011266	-1.707037	2.240563	0.003425	0.272756
-12.870416	-1.736063	2.250560	0.003391	0.272750
-12.922563	-1.725799	2.260557	0.003404	0.272749
-12.924816	-1.725114	2.270554	0.003404	0.272750
-12.913196	-1.726505	2.280550	0.003402	0.272753
-12.608637	-1.786228	2.290547	0.003328	0.272752
-12.729218	-1.763003	2.300544	0.003357	0.272750
-12.290666	-1.849085	2.310541	0.003250	0.272749
-12.565418	-1.812660	2.320538	0.003318	0.272676
-12.777484	-1.752975	2.330534	0.003370	0.272750
-12.992973	-1.710363	2.340531	0.003423	0.272750
-12.886142	-1.683034	2.350528	0.003397	0.272948
-12.919539	-1.652084	2.360525	0.003405	0.273048
-12.718672	-1.663908	2.370522	0.003356	0.273161
-11.884000	-1.833966	2.380518	0.003153	0.273135
-11.786776	-1.873287	2.390515	0.003129	0.273051
-11.814863	-1.868544	2.400512	0.003136	0.273047
-12.011675	-1.829374	2.410509	0.003184	0.273049
-12.197126	-1.792330	2.420506	0.003230	0.273051
-12.268524	-1.777928	2.430502	0.003247	0.273051
-12.698477	-1.693342	2.440499	0.003353	0.273051
-12.213961	-1.711492	2.450496	0.003235	0.273367
-12.359420	-1.682401	2.460493	0.003270	0.273368
-12.263908	-1.676616	2.470490	0.003247	0.273469
-12.003236	-1.673180	2.480486	0.003184	0.273692
-11.917970	-1.689761	2.490483	0.003163	0.273692
-11.567686	-1.758461	2.500480	0.003078	0.273692
-11.456848	-1.780766	2.510477	0.003051	0.273689
-11.325579	-1.805951	2.520474	0.003019	0.273691
-11.792768	-1.713543	2.530470	0.003133	0.273693
-11.381665	-1.794034	2.540467	0.003033	0.273693
-12.009942	-1.672055	2.550464	0.003187	0.273686
-11.873316	-1.641295	2.560461	0.003154	0.273922
-12.172174	-1.557691	2.570458	0.003227	0.274023
-11.795769	-1.576083	2.580454	0.003135	0.274250
-11.368747	-1.659576	2.590451	0.003031	0.274251
-11.066495	-1.719645	2.600448	0.002957	0.274247
-10.882684	-1.756240	2.610445	0.002913	0.274244
-10.772015	-1.778207	2.620442	0.002886	0.274243
-10.827221	-1.768294	2.630438	0.002900	0.274238
-11.069544	-1.744325	2.640435	0.002959	0.274141
-11.207823	-1.691714	2.650432	0.002993	0.274244
-11.148215	-1.703640	2.660429	0.002979	0.274243
-11.295821	-1.673841	2.670426	0.003015	0.274245
-11.108556	-1.634292	2.680422	0.002969	0.274557
-11.264673	-1.603346	2.690419	0.003008	0.274557
-10.936579	-1.626199	2.700416	0.002928	0.274727
-10.767306	-1.624858	2.710413	0.002887	0.274867
-10.107972	-1.786657	2.720410	0.002726	0.274735
-10.245078	-1.802320	2.730406	0.002759	0.274560
-10.092013	-1.832311	2.740403	0.002722	0.274560
-10.265767	-1.798125	2.750400	0.002765	0.274559
-10.632676	-1.726589	2.760397	0.002855	0.274556
-10.731538	-1.706776	2.770394	0.002879	0.274557
-11.133654	-1.577359	2.780390	0.002977	0.274762
-10.789641	-1.607845	2.790387	0.002894	0.274913
-10.768530	-1.542783	2.800384	0.002889	0.275195
-10.507093	-1.594768	2.810381	0.002825	0.275192
-10.340432	-1.572486	2.820378	0.002785	0.275415
-9.742631	-1.690291	2.830374	0.002639	0.275413
-9.789053	-1.733875	2.840371	0.002650	0.275197
-9.423356	-1.805312	2.850368	0.002561	0.275198
-9.629590	-1.765685	2.860365	0.002612	0.275194
-9.712483	-1.749206	2.870362	0.002632	0.275194
-9.743078	-1.743441	2.880358	0.002640	0.275193
-10.225832	-1.647570	2.890355	0.002758	0.275196
-10.379878	-1.587566	2.900352	0.002796	0.275317
-10.137624	-1.593289	2.910349	0.002737	0.275487
-10.225229	-1.552351	2.920346	0.002758	0.275582
-9.996475	-1.541540	2.930342	0.002703	0.275809
-9.593912	-1.620149	2.940339	0.002605	0.275810
-9.130549	-1.711159	2.950336	0.002492	0.275809
-8.896877	-1.757950	2.960333	0.002435	0.275805
-8.757713	-1.831140	2.970330	0.002401	0.275618
-9.060648	-1.802856	2.980326	0.002475	0.275490
-9.232769	-1.768656	2.990323	0.002518	0.275491
-9.347510	-1.746070	3.000320	0.002546	0.275490
-9.709027	-1.639398	3.010317	0.002634	0.275635
-9.717158	-1.595586	3.020314	0.002637	0.275806
-9.618811	-1.557039	3.030310	0.002613	0.276040
-9.448530	-1.569455	3.040307	0.002571	0.276125
-9.524929	-1.498750	3.050304	0.002590	0.276351
-9.178489	-1.540814	3.060301	0.002506	0.276456
-8.796404	-1.616429	3.070298	0.002413	0.276453
-8.592709	-1.655638	3.080294	0.002363	0.276455
-8.007378	-1.784162	3.090291	0.002220	0.276400
-8.190348	-1.815683	3.100288	0.002265	0.276125
-8.366986	-1.780009	3.110285	0.002309	0.276128
-8.608049	-1.732882	3.120282	0.002368	0.276127
-8.917689	-1.670951	3.130278	0.002444	0.276130
-9.251289	-1.562737	3.140275	0.002525	0.276303
-9.284018	-1.508204	3.150272	0.002533	0.276498
-9.019590	-1.495633	3.160269	0.002469	0.276759
-8.786096	-1.508731	3.170266	0.002412	0.276891
-8.070647	-1.605135	3.180262	0.002238	0.277069
-7.931189	-1.708012	3.190259	0.002204	0.276762
-7.561581	-1.780395	3.200256	0.002114	0.276763
-7.599402	-1.801291	3.210253	0.002123	0.276647
-7.684544	-1.831315	3.220250	0.002144	0.276457
-8.121530	-1.744540	3.230246	0.002251	0.276460
-8.483847	-1.667347	3.240243	0.002340	0.276484
-8.448073	-1.605273	3.250240	0.002331	0.276763
-8.621155	-1.549551	3.260237	0.002374	0.276851
-8.437752	-1.531418	3.270234	0.002329	0.277069
-8.350877	-1.500517	3.280230	0.002308	0.277263
-7.706279	-1.595494	3.290227	0.002151	0.277390
-7.659672	-1.605126	3.300224	0.002140	0.277388
-7.448483	-1.647344	3.310221	0.002088	0.277384
-7.541662	-1.629444	3.320218	0.002111	0.277382
-7.277417	-1.713974	3.330214	0.002047	0.277249
-7.150408	-1.782510	3.340211	0.002016	0.277072
-7.107364	-1.791268	3.350208	0.002006	0.277070
-7.284466	-1.756361	3.360205	0.002049	0.277070
-7.836352	-1.648405	3.370202	0.002184	0.277067
-7.937681	-1.569874	3.380198	0.002209	0.277304
-8.336338	-1.439377	3.390195	0.002307	0.277514
-7.958721	-1.444553	3.400192	0.002215	0.277792
-7.270289	-1.525841	3.410189	0.002047	0.278009
-6.822832	-1.613294	3.420186	0.001938	0.278011
-6.462004	-1.738072	3.430182	0.001850	0.277792
-6.198692	-1.808161	3.440179	0.001786	0.277717
-6.236303	-1.881266	3.450176	0.001795	0.277391
-6.693442	-1.792392	3.460173	0.001907	0.277387
-6.724273	-1.786967	3.470170	0.001915	0.277384
-7.272496	-1.678342	3.480166	0.002049	0.277387
-7.531913	-1.585053	3.490163	0.002113	0.277557
-7.558317	-1.526641	3.500160	0.002119	0.277772
-7.265874	-1.524426	3.510157	0.002048	0.278012
-7.016172	-1.535264	3.520154	0.001987	0.278165
-6.406654	-1.613202	3.530150	0.001838	0.278333
-6.237883	-1.694404	3.540147	0.001798	0.278139
-6.378951	-1.697508	3.550144	0.001832	0.278014
-6.164587	-1.740918	3.560141	0.001780	0.278008
-6.698290	-1.628751	3.570138	0.001911	0.278037
-6.465547	-1.600746	3.580134	0.001854	0.278333
-6.678034	-1.559176	3.590131	0.001906	0.278332
-6.615854	-1.560591	3.600128	0.001891	0.278375
-6.467742	-1.520254	3.610125	0.001855	0.278654
-6.216033	-1.570259	3.620122	0.001794	0.278651
-5.913669	-1.629180	3.630118	0.001720	0.278652
-5.882255	-1.635360	3.640115	0.001713	0.278651
-6.115799	-1.589489	3.650112	0.001770	0.278651
-6.329414	-1.547800	3.660109	0.001822	0.278649
-6.090490	-1.511958	3.670106	0.001764	0.278981
-5.801086	-1.566773	3.680102	0.001694	0.278989
-5.284301	-1.669730	3.690099	0.001568	0.278982
-5.300782	-1.748117	3.700096	0.001572	0.278653
-5.303071	-1.747593	3.710093	0.001573	0.278653
-5.370659	-1.734142	3.720090	0.001589	0.278653
-5.908484	-1.627711	3.730086	0.001721	0.278655
-6.138929	-1.553406	3.740083	0.001777	0.278771
-6.212957	-1.484919	3.750080	0.001796	0.278988
-6.176919	-1.443746	3.760077	0.001787	0.279181
-5.999971	-1.435428	3.770074	0.001744	0.279354
-4.974698	-1.592913	3.780070	0.001494	0.279529
-4.652560	-1.730171	3.790067	0.001416	0.279231
-4.491419	-1.765304	3.800064	0.001376	0.279217
-4.916554	-1.738984	3.810061	0.001480	0.278986
-5.190142	-1.685375	3.820058	0.001547	0.278985
-5.525991	-1.572981	3.830054	0.001630	0.279171
-5.846654	-1.484783	3.840051	0.001708	0.279271
-6.001116	-1.384165	3.850048	0.001746	0.279553
-5.984232	-1.311832	3.860045	0.001742	0.279856
-5.230569	-1.383596	3.870042	0.001558	0.280161
-4.400814	-1.546511	3.880038	0.001356	0.280160
-3.505033	-1.783813	3.890035	0.001137	0.279914
-3.266713	-1.914381	3.900032	0.001079	0.279577
-3.745805	-1.909256	3.910029	0.001197	0.279219
-4.827123	-1.697778	3.920026	0.001461	0.279215
-5.550057	-1.535165	3.930022	0.001638	0.279297
-5.960571	-1.360965	3.940019	0.001738	0.279672
-5.598413	-1.332610	3.950016	0.001650	0.280070
-5.204009	-1.336225	3.960013	0.001554	0.280365
-4.133686	-1.523779	3.970010	0.001292	0.280455
-3.641190	-1.641069	3.980006	0.001172	0.280372
-3.294636	-1.760955	3.990003	0.001088	0.280164
-3.534524	-1.787314	4.000000	0.001147	0.279869
-4.112195	-1.681966	4.009997	0.001288	0.279836
-4.687170	-1.563631	4.019994	0.001429	0.279857
-4.820979	-1.460848	4.029990	0.001462	0.280163
-4.424325	-1.493601	4.039987	0.001365	0.280343
-4.192369	-1.509687	4.049984	0.001308	0.280460
-3.781114	-1.590757	4.059981	0.001208	0.280458
-3.863843	-1.574518	4.069978	0.001229	0.280457
-3.805905	-1.584970	4.079974	0.001215	0.280461
-3.849318	-1.575589	4.089971	0.001226	0.280463
-3.818682	-1.582031	4.099968	0.001218	0.280461
-3.995775	-1.512440	4.109965	0.001262	0.280599
-3.739848	-1.518439	4.119962	0.001199	0.280776
-3.727996	-1.520088	4.129958	0.001197	0.280778
-3.646508	-1.536005	4.139955	0.001177	0.280777
-3.555427	-1.554018	4.149952	0.001155	0.280776
-3.420981	-1.580591	4.159949	0.001122	0.280775
-3.079294	-1.647151	4.169946	0.001039	0.280776
-2.968592	-1.668259	4.179942	0.001012	0.280778
-3.290664	-1.604111	4.189939	0.001091	0.280781
-3.495620	-1.564535	4.199936	0.001141	0.280778
-3.542883	-1.501864	4.209933	0.001153	0.280990
-3.567053	-1.471764	4.219930	0.001159	0.281091
-3.587833	-1.431500	4.229926	0.001164	0.281235
-2.950558	-1.508617	4.239923	0.001009	0.281426
-2.856592	-1.528367	4.249920	0.000986	0.281420
-2.594027	-1.581922	4.259917	0.000922	0.281411
-2.684614	-1.622051	4.269914	0.000945	0.281179
-2.613394	-1.657560	4.279910	0.000928	0.281093
-2.912503	-1.598783	4.289907	0.001001	0.281092
-2.600113	-1.626747	4.299904	0.000925	0.281225
-2.708051	-1.635333	4.309901	0.000951	0.281105
-3.046426	-1.489530	4.319898	0.001034	0.281421
-2.726142	-1.551687	4.329894	0.000956	0.281423
-3.006111	-1.469302	4.339891	0.001025	0.281532
-2.649128	-1.489701	4.349888	0.000938	0.281729
-2.912983	-1.438576	4.359885	0.001002	0.281726
-2.366192	-1.546304	4.369882	0.000869	0.281724
-2.356923	-1.490127	4.379878	0.000867	0.281954
-2.106742	-1.559068	4.389875	0.000806	0.281875
-1.945184	-1.627303	4.399872	0.000767	0.281729
-1.907901	-1.634833	4.409869	0.000758	0.281727
-1.917343	-1.634221	4.419866	0.000761	0.281721
-1.896037	-1.636866	4.429862	0.000756	0.281727
-2.220064	-1.572922	4.439859	0.000835	0.281727
-2.597227	-1.459291	4.449856	0.000927	0.281884
-2.296404	-1.480109	4.459853	0.000854	0.282036
-2.097381	-1.519666	4.469850	0.000805	0.282033
-1.918048	-1.499913	4.479846	0.000762	0.282251
-1.730053	-1.510827	4.489843	0.000716	0.282354
-1.772526	-1.501990	4.499840	0.000727	0.282355
-1.732125	-1.511756	4.509837	0.000717	0.282347
-1.648429	-1.527566	4.519834	0.000697	0.282349
-1.658296	-1.525221	4.529830	0.000699	0.282350
-1.673237	-1.521713	4.539827	0.000703	0.282352
-1.611423	-1.534386	4.549824	0.000688	0.282349
-1.566088	-1.464213	4.559821	0.000678	0.282662
-1.651016	-1.443440	4.569818	0.000698	0.282678
-1.520175	-1.468248	4.579814	0.000667	0.282681
-1.498173	-1.471808	4.589811	0.000662	0.282683
-1.429343	-1.412261	4.599808	0.000645	0.282972
-1.469850	-1.403425	4.609805	0.000655	0.282975
-1.423229	-1.412465	4.619802	0.000644	0.282975
-1.325177	-1.377910	4.629798	0.000620	0.283187
-1.306623	-1.353956	4.639795	0.000616	0.283296
-1.203675	-1.373678	4.649792	0.000591	0.283297
-1.175670	-1.358709	4.659789	0.000584	0.283378
-1.112664	-1.310750	4.669786	0.000569	0.283616
-1.180480	-1.297814	4.679782	0.000586	0.283614
-1.118931	-1.296702	4.689779	0.000571	0.283665
-1.017702	-1.243788	4.699776	0.000546	0.283952
-1.013824	-1.246030	4.709773	0.000546	0.283946
-0.944613	-1.238722	4.719770	0.000529	0.284028
-0.846034	-1.216467	4.729766	0.000505	0.284191
-0.871237	-1.211307	4.739763	0.000511	0.284191
-1.021623	-1.131776	4.749760	0.000548	0.284388
-0.896031	-1.128156	4.759757	0.000518	0.284499
-0.939028	-1.064069	4.769754	0.000529	0.284718
-0.790430	-1.069397	4.779750	0.000492	0.284811
-0.744808	-1.022330	4.789747	0.000481	0.285031
-0.724302	-0.999572	4.799744	0.000477	0.285136
-0.814381	-0.928197	4.809741	0.000499	0.285346
-0.856041	-0.881202	4.819738	0.000509	0.285498
-0.702236	-0.846422	4.829734	0.000472	0.285753
-0.612875	-0.817214	4.839731	0.000450	0.285935
-0.657207	-0.773834	4.849728	0.000461	0.286071
-0.540025	-0.713611	4.859725	0.000433	0.286396
-0.497379	-0.696804	4.869722	0.000422	0.286494
-0.440839	-0.654775	4.879718	0.000409	0.286702
-0.417755	-0.603904	4.889715	0.000403	0.286918
-0.387468	-0.572658	4.899712	0.000396	0.287062
-0.296045	-0.522209	4.909709	0.000374	0.287329
-0.377074	-0.456642	4.919706	0.000394	0.287522
-0.291139	-0.425920	4.929702	0.000373	0.287707
-0.156191	-0.387500	4.939699	0.000340	0.287960
-0.201110	-0.329877	4.949696	0.000352	0.288149
-0.210413	-0.276801	4.959693	0.000354	0.288348
-0.080932	-0.238348	4.969690	0.000323	0.288596
-0.160535	-0.154052	4.979686	0.000342	0.288862
-0.174412	-0.100007	4.989683	0.000346	0.289060
-0.033398	-0.074542	4.999680	0.000311	0.289266
-0.095720	0.001236	5.009677	0.000327	0.289512
0.000000	0.050741	5.019674	0.000304	0.289776

-0.025299	0.069029	5.024678	0.000310	0.289827
0.097851	0.117277	5.029683	0.000280	0.290107
0.082758	0.152401	5.034688	0.000284	0.290231
0.059495	0.200946	5.039693	0.000289	0.290400
0.141091	0.263932	5.044698	0.000270	0.290705
0.110210	0.324425	5.049702	0.000277	0.290915
0.110341	0.401530	5.054707	0.000277	0.291212
0.237177	0.452164	5.059712	0.000246	0.291502
0.205236	0.537315	5.064717	0.000254	0.291805
0.144912	0.637864	5.069722	0.000269	0.292146
0.269669	0.705701	5.074726	0.000238	0.292500
0.283397	0.797240	5.079731	0.000235	0.292861
0.337401	0.895351	5.084736	0.000222	0.293277
0.552406	0.959832	5.089741	0.000169	0.293684
0.593034	1.045210	5.094746	0.000160	0.294040
0.664640	1.131915	5.099750	0.000142	0.294424
0.934486	1.196133	5.104755	0.000076	0.294870
0.966047	1.289757	5.109760	0.000069	0.295249
0.905874	1.428712	5.114765	0.000083	0.295732
1.134028	1.504475	5.119770	0.000028	0.296188
1.059335	1.645063	5.124774	0.000046	0.296665
1.275434	1.729099	5.129779	-0.000007	0.297142
1.123231	1.901297	5.134784	0.000030	0.297679
1.260284	2.010601	5.139789	-0.000003	0.298191
1.288562	2.151305	5.144794	-0.000010	0.298741
1.110551	2.323591	5.149798	0.000033	0.299256
1.241617	2.464416	5.154803	0.000001	0.299879
1.285654	2.614057	5.159808	-0.000009	0.300470
1.362533	2.773436	5.164813	-0.000028	0.301121
1.473912	2.926135	5.169818	-0.000055	0.301770
1.537125	3.092365	5.174822	-0.000071	0.302433
1.639867	3.254215	5.179827	-0.000096	0.303107
1.604615	3.444010	5.184832	-0.000087	0.303783
1.837811	3.574634	5.189837	-0.000144	0.304434
1.845474	3.763945	5.194842	-0.000146	0.305136
1.916224	3.951643	5.199846	-0.000164	0.305876
1.889719	4.159584	5.204851	-0.000157	0.306618
2.040018	4.337163	5.209856	-0.000194	0.307374
1.948465	4.568495	5.214861	-0.000172	0.308152
2.093321	4.754621	5.219866	-0.000207	0.308932
2.117433	4.955936	5.224870	-0.000213	0.309679
2.263885	5.161990	5.229875	-0.000249	0.310528
2.261546	5.390410	5.234880	-0.000248	0.311350
2.313858	5.619500	5.239885	-0.000261	0.312211
2.422374	5.846319	5.244890	-0.000288	0.313101
2.454681	6.076884	5.249894	-0.000296	0.313948
2.655006	6.281862	5.254899	-0.000345	0.314820
2.776696	6.504480	5.259904	-0.000374	0.315696
2.920691	6.735526	5.264909	-0.000410	0.316616
2.936470	6.993237	5.269914	-0.000413	0.317539
3.113495	7.219107	5.274918	-0.000457	0.318458
3.147720	7.463124	5.279923	-0.000465	0.319339
3.152119	7.731124	5.284928	-0.000466	0.320282
3.227039	7.998932	5.289933	-0.000485	0.321270
3.370548	8.255373	5.294938	-0.000520	0.322262
3.407986	8.531579	5.299942	-0.000529	0.323247
3.616938	8.769513	5.304947	-0.000580	0.324213
3.613169	9.059175	5.309952	-0.000579	0.325211
3.868843	9.308653	5.314957	-0.000642	0.326243
4.217945	9.533463	5.319962	-0.000727	0.327249
4.261824	9.814115	5.324966	-0.000738	0.328239
4.443434	10.056095	5.329971	-0.000783	0.329186
4.417892	10.358752	5.334976	-0.000776	0.330199
4.575860	10.636128	5.339981	-0.000815	0.331244
4.954456	10.863110	5.344986	-0.000908	0.332262
4.973894	11.159882	5.349990	-0.000913	0.333275
4.923514	11.470572	5.354995	-0.000900	0.334286
5.024772	11.757930	5.360000	-0.000925	0.335315
5.094534	12.075267	5.365005	-0.000942	0.336420
5.240956	12.372912	5.370010	-0.000978	0.337506
5.376647	12.670386	5.375014	-0.001011	0.338582
5.364434	12.993988	5.380019	-0.001009	0.339644
5.484599	13.311249	5.385024	-0.001038	0.340767
5.683551	13.613578	5.390029	-0.001087	0.341889
5.726734	13.958683	5.395034	-0.001098	0.343047
5.777214	14.282440	5.400038	-0.001110	0.344136
5.828732	14.629441	5.405043	-0.001123	0.345297
6.016759	14.959723	5.410048	-0.001169	0.346488
6.192788	15.289733	5.415053	-0.001212	0.347665
6.169146	15.654334	5.420058	-0.001206	0.348825
6.336115	15.981723	5.425062	-0.001247	0.349980
6.525899	16.326662	5.430067	-0.001294	0.351203
6.607386	16.687947	5.435072	-0.001314	0.352405
6.808418	17.025245	5.440077	-0.001363	0.353602
7.065789	17.340466	5.445082	-0.001426	0.354760
7.009818	17.732327	5.450086	-0.001413	0.355962
7.151310	18.099868	5.455091	-0.001447	0.357205
7.214349	18.477589	5.460096	-0.001463	0.358427
7.386443	18.826180	5.465101	-0.001505	0.359621
7.438360	19.224197	5.470106	-0.001518	0.360892
7.458361	19.627885	5.475110	-0.001523	0.362156
7.608099	20.015875	5.480115	-0.001560	0.363446
7.719968	20.395584	5.485120	-0.001587	0.364683
7.768272	20.815672	5.490125	-0.001599	0.366002
7.960887	21.209082	5.495130	-0.001646	0.367321
7.896425	21.645479	5.500134	-0.001631	0.368612
8.233852	22.009342	5.505139	-0.001713	0.369918
8.317150	22.429584	5.510144	-0.001734	0.371239
8.515554	22.833116	5.515149	-0.001783	0.372573
8.675140	23.238366	5.520154	-0.001822	0.373884
8.900487	23.626402	5.525158	-0.001877	0.375178
9.093177	24.041515	5.530163	-0.001924	0.376529
9.309682	24.439233	5.535168	-0.001977	0.377837
9.443922	24.845351	5.540173	-0.002010	0.379119
9.559642	25.272084	5.545178	-0.002039	0.380445
9.734326	25.689045	5.550182	-0.002082	0.381773
9.882242	26.117561	5.555187	-0.002118	0.383114
9.926512	26.554255	5.560192	-0.002129	0.384416
10.060465	26.994936	5.565197	-0.002162	0.385775
10.224106	27.433242	5.570202	-0.002202	0.387140
10.408726	27.858353	5.575206	-0.002247	0.388474
10.489166	28.301811	5.580211	-0.002267	0.389797
10.568699	28.763954	5.585216	-0.002287	0.391169
10.673029	29.237983	5.590221	-0.002313	0.392583
10.827054	29.673369	5.595226	-0.002351	0.393911
11.039125	30.120606	5.600230	-0.002403	0.395300
11.395242	30.542249	5.605235	-0.002490	0.396691
11.568821	30.991835	5.610240	-0.002532	0.398055
11.772872	31.421317	5.615245	-0.002582	0.399375
11.963435	31.872923	5.620250	-0.002629	0.400745
12.031560	32.351066	5.625254	-0.002646	0.402118
12.275949	32.791882	5.630259	-0.002706	0.403478
12.297125	33.266939	5.635264	-0.002711	0.404808
12.466544	33.749006	5.640269	-0.002753	0.406232
12.758201	34.192916	5.645274	-0.002825	0.407613
12.756909	34.669400	5.650278	-0.002824	0.408921
12.972662	35.140490	5.655283	-0.002877	0.410326
13.232765	35.596907	5.660288	-0.002941	0.411709
13.192980	36.117427	5.665293	-0.002932	0.413104
13.432249	36.569524	5.670298	-0.002990	0.414455
13.479524	37.085436	5.675302	-0.003002	0.415874
13.770341	37.558466	5.680307	-0.003073	0.417300
13.792149	38.063474	5.685312	-0.003079	0.418666
13.952483	38.558663	5.690317	-0.003118	0.420074
14.084150	39.076590	5.695322	-0.003151	0.421522
14.110170	39.608707	5.700326	-0.003158	0.422949
14.201092	40.127686	5.705331	-0.003180	0.424369
14.435704	40.639370	5.710336	-0.003238	0.425840
14.591269	41.167073	5.715341	-0.003276	0.427307
14.691352	41.685664	5.720346	-0.003301	0.428716
15.003249	42.179280	5.725350	-0.003377	0.430164
15.281405	42.687033	5.730355	-0.003445	0.431627
15.388261	43.210684	5.735360	-0.003472	0.433039
15.639497	43.700690	5.740365	-0.003533	0.434432
15.835289	44.223510	5.745370	-0.003581	0.435878
15.996813	44.753222	5.750374	-0.003621	0.437319
16.300521	45.229238	5.755379	-0.003696	0.438689
16.434136	45.756254	5.760384	-0.003728	0.440100
16.495521	46.305829	5.765389	-0.003744	0.441529
16.628448	46.850665	5.770394	-0.003776	0.442976
16.726400	47.383697	5.775398	-0.003801	0.444371
17.073173	47.894087	5.780403	-0.003886	0.445827
17.172156	48.452796	5.785408	-0.003910	0.447278
17.385436	48.956530	5.790413	-0.003962	0.448643
17.670361	49.474927	5.795418	-0.004032	0.450075
17.935385	49.988339	5.800422	-0.004097	0.451480
18.062127	50.533485	5.805427	-0.004129	0.452893
18.315877	51.034348	5.810432	-0.004191	0.454254
18.584784	51.553564	5.815437	-0.004257	0.455662
18.753607	52.091346	5.820442	-0.004298	0.457064
18.745044	52.649315	5.825446	-0.004297	0.458427
19.001458	53.171570	5.830451	-0.004359	0.459824
19.078114	53.741810	5.835456	-0.004378	0.461249
19.138108	54.314852	5.840461	-0.004393	0.462668
19.405199	54.840187	5.845466	-0.004459	0.464065
19.627292	55.383724	5.850470	-0.004514	0.465480
19.810339	55.943351	5.855475	-0.004559	0.466912
19.876191	56.503269	5.860480	-0.004575	0.468285
20.166104	57.027153	5.865485	-0.004646	0.469672
20.336416	57.600383	5.870490	-0.004688	0.471117
20.435958	58.166144	5.875494	-0.004713	0.472508
20.777971	58.684679	5.880499	-0.004796	0.473894
20.896633	59.250191	5.885504	-0.004826	0.475284
20.928558	59.854280	5.890509	-0.004834	0.476722
21.277104	60.376613	5.895514	-0.004919	0.478107
21.535335	60.913729	5.900518	-0.004983	0.479483
21.659491	61.494582	5.905523	-0.005013	0.480895
21.708609	62.093521	5.910528	-0.005026	0.482312
21.929661	62.632791	5.915533	-0.005080	0.483663
22.193958	63.205894	5.920538	-0.005145	0.485108
22.212665	63.800264	5.925542	-0.005150	0.486488
22.385171	64.385219	5.930547	-0.005192	0.487912
22.691173	64.917088	5.935552	-0.005267	0.489268
22.786350	65.525739	5.940557	-0.005291	0.490703
22.886013	66.128026	5.945562	-0.005315	0.492121
23.012615	66.705903	5.950566	-0.005347	0.493492
23.284517	67.288218	5.955571	-0.005413	0.494933
23.439146	67.887368	5.960576	-0.005451	0.496356
23.511503	68.497867	5.965581	-0.005469	0.497764
23.792052	69.068135	5.970586	-0.005538	0.499169
23.998338	69.663310	5.975590	-0.005589	0.500594
24.342674	70.233615	5.980595	-0.005673	0.502019
24.611412	70.783784	5.985600	-0.005739	0.503362
24.796630	71.370200	5.990605	-0.005785	0.504746
25.058333	71.942972	5.995610	-0.005849	0.506129
25.403707	72.489133	6.000614	-0.005934	0.507485
25.827407	72.988127	6.005619	-0.006038	0.508768
25.859555	73.582462	6.010624	-0.006046	0.510089
25.942714	74.171892	6.015629	-0.006066	0.511418
26.128782	74.748302	6.020634	-0.006112	0.512759
26.153732	75.337794	6.025638	-0.006119	0.514057
26.281220	75.945924	6.030643	-0.006150	0.515435
26.301624	76.584695	6.035648	-0.006155	0.516831
26.488060	77.159157	6.040653	-0.006201	0.518153
26.672608	77.770817	6.045658	-0.006247	0.519552
26.809400	78.384897	6.050662	-0.006280	0.520932
27.114880	78.972912	6.055667	-0.006355	0.522323
27.365514	79.543038	6.060672	-0.006417	0.523649
27.657743	80.119396	6.065677	-0.006489	0.525003
27.982802	80.697318	6.070682	-0.006568	0.526369
28.199970	81.262178	6.075686	-0.006622	0.527660
28.444487	81.816878	6.080691	-0.006682	0.528938
28.542356	82.423229	6.085696	-0.006706	0.530261
28.725666	83.013588	6.090701	-0.006751	0.531583
28.956938	83.585883	6.095706	-0.006808	0.532882
29.027095	84.185259	6.100710	-0.006825	0.534170
29.413595	84.750569	6.105715	-0.006920	0.535512
29.378444	85.385881	6.110720	-0.006912	0.536825
29.541413	85.964551	6.115725	-0.006952	0.538098
29.779094	86.563156	6.120730	-0.007010	0.539439
29.773763	87.203099	6.125734	-0.007009	0.540765
29.980183	87.815453	6.130739	-0.007060	0.542115
29.901962	88.468707	6.135744	-0.007041	0.543433
30.259925	89.065584	6.140749	-0.007129	0.544805
30.441965	89.693555	6.145754	-0.007174	0.546168
30.638547	90.296053	6.150758	-0.007222	0.547481
31.029163	90.858429	6.155763	-0.007318	0.548785
31.167000	91.482965	6.160768	-0.007352	0.550114
31.510746	92.062261	6.165773	-0.007436	0.551428
31.714595	92.647380	6.170778	-0.007486	0.552696
31.807736	93.256847	6.175782	-0.007509	0.553967
32.095880	93.858874	6.180787	-0.007580	0.555296
32.334499	94.452689	6.185792	-0.007639	0.556586
32.545888	95.023958	6.190797	-0.007691	0.557818
32.675594	95.634557	6.195802	-0.007723	0.559093
32.768864	96.258830	6.200806	-0.007746	0.560379
32.937189	96.887609	6.205811	-0.007787	0.561700
33.154084	97.469650	6.210816	-0.007841	0.562944
33.319253	98.091114	6.215821	-0.007881	0.564243
33.629617	98.686609	6.220826	-0.007958	0.565544
33.685712	99.318431	6.225830	-0.007972	0.566816
33.988460	99.880268	6.230835	-0.008046	0.568041
34.062362	100.513989	6.235840	-0.008064	0.569318
34.227360	101.137284	6.240845	-0.008105	0.570606
34.508157	101.747754	6.245850	-0.008174	0.571911
34.698012	102.324858	6.250854	-0.008220	0.573112
34.858031	102.954057	6.255859	-0.008260	0.574401
34.964247	103.594658	6.260864	-0.008286	0.575690
35.157722	104.212215	6.265869	-0.008334	0.576963
35.480465	104.793011	6.270874	-0.008413	0.578211
35.801103	105.375897	6.275878	-0.008492	0.579459
35.952884	105.997909	6.280883	-0.008529	0.580718
36.047811	106.627475	6.285888	-0.008553	0.581967
36.205304	107.230272	6.290893	-0.008591	0.583185
36.468986	107.841718	6.295898	-0.008656	0.584456
36.578571	108.468229	6.300902	-0.008683	0.585696
36.767934	109.091715	6.305907	-0.008730	0.586958
36.836193	109.711634	6.310912	-0.008747	0.588165
37.028912	110.339684	6.315917	-0.008794	0.589431
37.173901	110.985705	6.320922	-0.008830	0.590711
37.161590	111.655401	6.325926	-0.008827	0.591976
37.433838	112.263033	6.330931	-0.008894	0.593224
37.638234	112.907470	6.335936	-0.008945	0.594515
37.758855	113.565887	6.340941	-0.008974	0.595798
38.084716	114.180021	6.345946	-0.009054	0.597070
38.319456	114.777494	6.350950	-0.009112	0.598275
38.575760	115.408710	6.355955	-0.009175	0.599549
38.875641	116.016871	6.360960	-0.009249	0.600792
39.005395	116.646287	6.365965	-0.009281	0.602011
39.259589	117.245295	6.370970	-0.009343	0.603216
39.376692	117.882114	6.375974	-0.009372	0.604440
39.555845	118.521245	6.380979	-0.009416	0.605688
39.686678	119.157387	6.385984	-0.009448	0.606910
39.740304	119.786111	6.390989	-0.009462	0.608089
39.912607	120.445664	6.395994	-0.009504	0.609364
40.012950	121.109438	6.400998	-0.009529	0.610619
40.405361	121.718870	6.406003	-0.009625	0.611874
40.627805	122.320488	6.411008	-0.009680	0.613053
40.810744	122.963072	6.416013	-0.009725	0.614291
41.062762	123.594605	6.421018	-0.009787	0.615530
41.087843	124.257621	6.426022	-0.009794	0.616745
41.294568	124.882074	6.431027	-0.009844	0.617950
41.624593	125.497443	6.436032	-0.009925	0.619180
41.964706	126.095400	6.441037	-0.010009	0.620379
42.146322	126.732263	6.446042	-0.010053	0.621591
42.309148	127.326714	6.451046	-0.010094	0.622718
42.573113	127.941668	6.456051	-0.010158	0.623915
42.697131	128.586995	6.461056	-0.010189	0.625116
42.833704	129.225875	6.466061	-0.010223	0.626307
43.026684	129.823356	6.471066	-0.010270	0.627441
43.173855	130.448537	6.476070	-0.010307	0.628607
43.373888	131.087339	6.481075	-0.010356	0.629813
43.544323	131.733403	6.486080	-0.010398	0.631019
43.734166	132.342957	6.491085	-0.010444	0.632165
43.908816	132.973861	6.496090	-0.010487	0.633342
44.081646	133.608013	6.501094	-0.010530	0.634521
44.312215	134.239532	6.506099	-0.010587	0.635714
44.331588	134.908579	6.511104	-0.010592	0.636898
44.504658	135.534225	6.516109	-0.010634	0.638056
44.763554	136.177930	6.521114	-0.010698	0.639273
44.826766	136.842950	6.526118	-0.010714	0.640458
45.030178	137.497886	6.531123	-0.010764	0.641671
45.188987	138.131411	6.536128	-0.010803	0.642830
45.512033	138.764599	6.541133	-0.010882	0.644040
45.758290	139.408645	6.546138	-0.010943	0.645242
45.832826	140.069637	6.551142	-0.010961	0.646413
46.063964	140.674059	6.556147	-0.011018	0.647537
46.231426	141.325669	6.561152	-0.011060	0.648718
46.564836	141.947459	6.566157	-0.011141	0.649902
46.969640	142.542654	6.571162	-0.011241	0.651061
47.050480	143.153804	6.576166	-0.011261	0.652138
47.175221	143.800229	6.581171	-0.011291	0.653289
47.382466	144.435719	6.586176	-0.011342	0.654446
47.427285	145.094566	6.591181	-0.011354	0.655587
47.733328	145.724692	6.596186	-0.011429	0.656763
47.794761	146.353343	6.601190	-0.011444	0.657855
47.836948	147.036976	6.606195	-0.011455	0.659032
47.961068	147.718270	6.611200	-0.011486	0.660229
48.150694	148.379344	6.616205	-0.011532	0.661411
48.496773	148.989071	6.621210	-0.011617	0.662555
48.646826	149.638639	6.626214	-0.011654	0.663701
48.884719	150.299427	6.631219	-0.011713	0.664893
49.057764	150.956850	6.636224	-0.011755	0.666055
49.199944	151.579619	6.641229	-0.011790	0.667148
49.438739	152.225416	6.646234	-0.011849	0.668308
49.381900	152.935531	6.651238	-0.011836	0.669479
49.674820	153.586814	6.656243	-0.011907	0.670661
50.013422	154.192810	6.661248	-0.011991	0.671781
50.131050	154.843149	6.666253	-0.012020	0.672902
50.380681	155.492192	6.671258	-0.012081	0.674061
50.529428	156.149729	6.676262	-0.012118	0.675200
50.655118	156.832356	6.681267	-0.012149	0.676372
50.921849	157.435080	6.686272	-0.012214	0.677454
51.089100	158.085380	6.691277	-0.012255	0.678581
51.346024	158.748346	6.696282	-0.012319	0.679755
51.522767	159.390454	6.701286	-0.012362	0.680868
51.896147	159.981819	6.706291	-0.012454	0.681958
52.078783	160.612584	6.711296	-0.012499	0.683051
52.331583	161.232706	6.716301	-0.012561	0.684146
52.497488	161.882574	6.721306	-0.012602	0.685261
52.435336	162.559225	6.726310	-0.012587	0.686347
52.673293	163.173842	6.731315	-0.012645	0.687423
52.674839	163.854145	6.736320	-0.012646	0.688531
52.537238	164.603205	6.741325	-0.012613	0.689706
52.573949	165.340023	6.746330	-0.012622	0.690913
52.670036	166.025894	6.751334	-0.012646	0.692054
52.964144	166.714805	6.756339	-0.012718	0.693259
53.263019	167.398792	6.761344	-0.012792	0.694455
53.487854	168.087177	6.766349	-0.012847	0.695634
53.900386	168.726794	6.771354	-0.012948	0.696790
54.388712	169.296965	6.776358	-0.013068	0.697856
54.455192	169.995907	6.781363	-0.013084	0.698997
54.682272	170.639852	6.786368	-0.013140	0.700097
54.827503	171.310254	6.791373	-0.013176	0.701213
55.020978	171.943536	6.796378	-0.013224	0.702283
54.917422	172.658376	6.801382	-0.013199	0.703391
55.037040	173.374324	6.806387	-0.013228	0.704566
55.139377	174.083848	6.811392	-0.013254	0.705724
55.090199	174.792536	6.816397	-0.013242	0.706833
55.302691	175.501473	6.821402	-0.013295	0.708020
55.305537	176.262142	6.826406	-0.013296	0.709223
55.476290	177.004416	6.831411	-0.013338	0.710446
55.693455	177.711352	6.836416	-0.013391	0.711625
56.051900	178.374932	6.841421	-0.013479	0.712776
56.409124	179.064122	6.846426	-0.013567	0.713965
56.718845	179.742628	6.851430	-0.013643	0.715121
57.016216	180.401339	6.856435	-0.013716	0.716241
57.146446	181.068935	6.861440	-0.013748	0.717322
57.397286	181.742102	6.866445	-0.013810	0.718447
57.690430	182.405578	6.871450	-0.013882	0.719568
57.778949	183.107066	6.876454	-0.013904	0.720685
58.016785	183.744624	6.881459	-0.013962	0.721746
58.181639	184.429756	6.886464	-0.014003	0.722857
58.281611	185.123274	6.891469	-0.014028	0.723960
58.600600	185.797037	6.896474	-0.014106	0.725095
58.509258	186.515488	6.901478	-0.014084	0.726177
58.655623	187.190471	6.906483	-0.014120	0.727260
58.844690	187.906639	6.911488	-0.014167	0.728418
58.944990	188.619628	6.916493	-0.014192	0.729542
59.258520	189.322289	6.921498	-0.014269	0.730712
59.284405	190.011029	6.926502	-0.014275	0.731774
59.485362	190.714813	6.931507	-0.014325	0.732909
59.627371	191.462039	6.936512	-0.014360	0.734091
59.843884	192.164916	6.941517	-0.014413	0.735225
60.071310	192.861690	6.946522	-0.014469	0.736352
60.214330	193.564786	6.951526	-0.014505	0.737462
60.392413	194.281923	6.956531	-0.014549	0.738601
60.478902	195.024214	6.961536	-0.014570	0.739751
60.636436	195.763612	6.966541	-0.014609	0.740915
60.779472	196.476527	6.971546	-0.014644	0.742033
60.835889	197.227302	6.976550	-0.014659	0.743181
61.117222	197.969026	6.981555	-0.014728	0.744378
61.246809	198.723930	6.986560	-0.014760	0.745550
61.350075	199.439959	6.991565	-0.014785	0.746654
61.626997	200.164012	6.996570	-0.014854	0.747818
61.703408	200.939126	7.001574	-0.014873	0.749000
61.898815	201.689403	7.006579	-0.014921	0.750176
62.149775	202.405121	7.011584	-0.014983	0.751315
62.340960	203.124250	7.016589	-0.015030	0.752440
62.590107	203.873360	7.021594	-0.015091	0.753625
62.928807	204.571358	7.026598	-0.015174	0.754756
63.128832	205.298774	7.031603	-0.015223	0.755891
63.231573	206.004901	7.036608	-0.015249	0.756965
63.528957	206.700110	7.041613	-0.015322	0.758077
63.865468	207.414715	7.046618	-0.015405	0.759226
63.952238	208.127044	7.051622	-0.015426	0.760300
64.022026	208.865975	7.056627	-0.015444	0.761407
64.165125	209.586442	7.061632	-0.015479	0.762506
64.229323	210.344270	7.066637	-0.015495	0.763636
64.240760	211.145777	7.071642	-0.015498	0.764813
64.368743	211.901512	7.076646	-0.015530	0.765954
64.480661	212.644786	7.081651	-0.015558	0.767071
64.825099	213.394879	7.086656	-0.015642	0.768261
64.847931	214.189878	7.091661	-0.015648	0.769425
65.294931	214.910674	7.096666	-0.015758	0.770596
65.514775	215.611177	7.101670	-0.015812	0.771674
65.807383	216.332097	7.106675	-0.015884	0.772800
66.135003	217.043742	7.111680	-0.015965	0.773920
66.285538	217.778452	7.116685	-0.016002	0.775023
66.523041	218.482449	7.121690	-0.016060	0.776105
66.704265	219.183495	7.126694	-0.016105	0.777165
66.887053	219.906358	7.131699	-0.016150	0.778256
67.093954	220.638104	7.136704	-0.016201	0.779364
67.110237	221.388443	7.141709	-0.016205	0.780446
67.210717	222.130618	7.146714	-0.016230	0.781537
67.154371	222.911666	7.151718	-0.016217	0.782640
67.296214	223.709113	7.156723	-0.016252	0.783818
67.494562	224.488288	7.161728	-0.016301	0.784984
67.640737	225.230628	7.166733	-0.016337	0.786082
67.718283	226.011911	7.171738	-0.016356	0.787215
67.786100	226.829874	7.176742	-0.016373	0.788395
68.206545	227.573752	7.181747	-0.016477	0.789564
68.371076	228.354722	7.186752	-0.016517	0.790715
68.508404	229.108255	7.191757	-0.016551	0.791818
68.847621	229.862069	7.196762	-0.016635	0.792974
68.974242	230.634816	7.201766	-0.016666	0.794098
69.139499	231.430487	7.206771	-0.016707	0.795263
69.283988	232.179347	7.211776	-0.016742	0.796355
69.386143	232.958638	7.216781	-0.016768	0.797477
69.668891	233.754149	7.221786	-0.016837	0.798668
69.861228	234.521606	7.226790	-0.016885	0.799794
70.144334	235.268061	7.231795	-0.016954	0.800913
70.336433	236.021179	7.236800	-0.017002	0.802016
70.490833	236.786443	7.241805	-0.017040	0.803124
70.690046	237.580329	7.246810	-0.017089	0.804282
70.803332	238.362926	7.251814	-0.017117	0.805401
70.970507	239.092659	7.256819	-0.017159	0.806458
71.228680	239.863615	7.261824	-0.017222	0.807595
71.477159	240.614175	7.266829	-0.017283	0.808700
71.757089	241.384787	7.271834	-0.017352	0.809839
71.851575	242.127005	7.276838	-0.017376	0.810889
71.936346	242.907652	7.281843	-0.017397	0.811988
72.079052	243.699690	7.286848	-0.017432	0.813117
72.163909	244.502384	7.291853	-0.017453	0.814243
72.420538	245.291046	7.296858	-0.017516	0.815393
72.365923	246.077646	7.301862	-0.017503	0.816458
72.508570	246.907626	7.306867	-0.017539	0.817633
72.643784	247.739564	7.311872	-0.017572	0.818806
72.702091	248.580227	7.316877	-0.017587	0.819969
72.910098	249.391837	7.321882	-0.017638	0.821130
73.001393	250.232597	7.326886	-0.017661	0.822299
73.233194	251.068156	7.331891	-0.017718	0.823495
73.541058	251.882832	7.336896	-0.017794	0.824681
73.746932	252.672539	7.341901	-0.017845	0.825805
74.027329	253.457915	7.346906	-0.017914	0.826940
74.353879	254.232171	7.351910	-0.017994	0.828071
74.566092	255.025161	7.356915	-0.018046	0.829196
74.838674	255.813581	7.361920	-0.018113	0.830329
75.071971	256.520375	7.366925	-0.018171	0.831341
75.388913	257.282254	7.371930	-0.018249	0.832446
75.604575	258.046319	7.376934	-0.018302	0.833528
75.766668	258.811003	7.381939	-0.018342	0.834595
75.829234	259.609979	7.386944	-0.018357	0.835682
75.919056	260.362756	7.391949	-0.018380	0.836712
75.887336	261.227298	7.396954	-0.018373	0.837860
75.784321	262.096153	7.401958	-0.018348	0.838994
75.912608	262.953448	7.406963	-0.018380	0.840169
76.022425	263.780796	7.411968	-0.018407	0.841298
76.259408	264.622930	7.416973	-0.018465	0.842477
76.433197	265.486924	7.421978	-0.018508	0.843668
76.643710	266.329197	7.426982	-0.018560	0.844837
77.089897	267.075663	7.431987	-0.018670	0.845937
77.188066	267.914489	7.436992	-0.018694	0.847070
77.403719	268.726028	7.441997	-0.018747	0.848195
77.651799	269.560854	7.447002	-0.018808	0.849358
77.840486	270.366625	7.452006	-0.018855	0.850466
78.017043	271.148768	7.457011	-0.018899	0.851538
78.153636	272.004445	7.462016	-0.018933	0.852696
78.307889	272.823416	7.467021	-0.018971	0.853808
78.389081	273.700398	7.472026	-0.018991	0.854977
78.560740	274.502081	7.477030	-0.019033	0.856068
78.691441	275.341165	7.482035	-0.019066	0.857197
78.785771	276.229945	7.487040	-0.019089	0.858380
78.998751	277.083895	7.492045	-0.019142	0.859544
79.376729	277.884714	7.497050	-0.019235	0.860679
79.469865	278.713545	7.502054	-0.019258	0.861779
79.702955	279.557480	7.507059	-0.019315	0.862931
80.040194	280.363225	7.512064	-0.019398	0.864058
80.284262	281.180261	7.517069	-0.019458	0.865175
80.483612	281.934036	7.522074	-0.019508	0.866197
80.625179	282.764556	7.527078	-0.019543	0.867304
80.751595	283.594057	7.532083	-0.019574	0.868405
80.817529	284.469167	7.537088	-0.019591	0.869548
81.073621	285.257297	7.542093	-0.019654	0.870623
81.205966	286.085382	7.547098	-0.019686	0.871719
81.385265	286.937628	7.552102	-0.019731	0.872856
81.388206	287.811574	7.557107	-0.019732	0.873976
81.773294	288.640943	7.562112	-0.019827	0.875130
81.822417	289.452422	7.567117	-0.019839	0.876179
82.007718	290.310369	7.572122	-0.019885	0.877318
81.973019	291.222812	7.577126	-0.019877	0.878473
82.167988	292.094544	7.582131	-0.019925	0.879630
82.337467	292.947571	7.587136	-0.019967	0.880755
82.304302	293.867460	7.592141	-0.019959	0.881915
82.666309	294.743672	7.597146	-0.020048	0.883112
82.867691	295.614348	7.602150	-0.020098	0.884263
82.992606	296.482949	7.607155	-0.020129	0.885391
83.360345	297.308498	7.612160	-0.020219	0.886521
83.489601	298.177591	7.617165	-0.020252	0.887648
83.710417	299.054291	7.622170	-0.020306	0.888804
84.100493	299.884549	7.627174	-0.020402	0.889941
84.318319	300.666338	7.632179	-0.020455	0.890975
84.509573	301.526915	7.637184	-0.020503	0.892100
84.491909	302.401394	7.642189	-0.020499	0.893192
84.617125	303.311004	7.647194	-0.020530	0.894360
84.653033	304.186970	7.652198	-0.020539	0.895464
84.656023	305.089006	7.657203	-0.020541	0.896591
84.881313	306.011317	7.662208	-0.020596	0.897794
85.034044	306.915029	7.667213	-0.020634	0.898956
85.318906	307.806099	7.672218	-0.020704	0.900131
85.553826	308.657223	7.677222	-0.020762	0.901243
85.827042	309.538615	7.682227	-0.020829	0.902400
86.159927	310.386432	7.687232	-0.020911	0.903527
86.229141	311.287027	7.692237	-0.020929	0.904658
86.502623	312.107444	7.697242	-0.020996	0.905736
86.827085	312.933803	7.702246	-0.021076	0.906831
86.998234	313.797435	7.707251	-0.021118	0.907935
87.158757	314.662946	7.712256	-0.021158	0.909038
87.268434	315.523056	7.717261	-0.021185	0.910122
87.492867	316.346515	7.722266	-0.021240	0.911185
87.497080	317.253864	7.727270	-0.021242	0.912300
87.484000	318.175873	7.732275	-0.021239	0.913427
87.647609	319.113103	7.737280	-0.021280	0.914612
87.899531	319.941159	7.742285	-0.021342	0.915682
87.989204	320.859235	7.747290	-0.021364	0.916823
88.090008	321.801181	7.752294	-0.021389	0.917995
88.343671	322.707438	7.757299	-0.021452	0.919157
88.605771	323.588885	7.762304	-0.021516	0.920288
88.838377	324.451352	7.767309	-0.021574	0.921389
89.238738	325.308267	7.772314	-0.021672	0.922520
89.373870	326.199575	7.777318	-0.021706	0.923631
89.613022	327.066340	7.782323	-0.021765	0.924734
89.816034	327.882568	7.787328	-0.021815	0.925767
90.050199	328.737718	7.792333	-0.021872	0.926853
90.330108	329.591427	7.797338	-0.021941	0.927946
90.605006	330.421232	7.802342	-0.022009	0.929007
90.856497	331.246818	7.807347	-0.022071	0.930058
91.115616	332.030417	7.812352	-0.022135	0.931058
91.091553	332.901483	7.817357	-0.022129	0.932099
91.346855	333.758648	7.822362	-0.022192	0.933184
91.513090	334.595735	7.827366	-0.022233	0.934224
91.675021	335.430228	7.832371	-0.022273	0.935259
91.843593	336.266801	7.837376	-0.022315	0.936297
91.906111	337.137688	7.842381	-0.022331	0.937351
92.016567	338.042280	7.847386	-0.022358	0.938454
92.239617	338.898765	7.852390	-0.022413	0.939524
92.349707	339.757229	7.857395	-0.022441	0.940571
92.733876	340.583350	7.862400	-0.022535	0.941638
92.887902	341.444511	7.867405	-0.022573	0.942694
93.229553	342.284945	7.872410	-0.022657	0.943767
93.409965	343.111266	7.877414	-0.022702	0.944785
93.766061	343.841726	7.882419	-0.022789	0.945728
94.021377	344.666495	7.887424	-0.022852	0.946759
94.093397	345.506535	7.892429	-0.022870	0.947767
94.371484	346.314212	7.897434	-0.022938	0.948781
94.594853	347.115566	7.902438	-0.022993	0.949775
94.892167	347.840334	7.907443	-0.023067	0.950693
95.128402	348.628935	7.912448	-0.023125	0.951672
95.190943	349.460511	7.917453	-0.023140	0.952663
95.308959	350.281464	7.922458	-0.023170	0.953652
95.559440	351.086685	7.927462	-0.023231	0.954651
95.687519	351.838745	7.932467	-0.023263	0.955559
96.049924	352.610425	7.937472	-0.023352	0.956541
96.218215	353.402994	7.942477	-0.023394	0.957504
96.342738	354.217498	7.947482	-0.023425	0.958482
96.499625	355.028528	7.952486	-0.023463	0.959462
96.621061	355.795681	7.957491	-0.023494	0.960383
96.752460	356.628211	7.962496	-0.023526	0.961380
96.882149	357.448124	7.967501	-0.023558	0.962362
97.076305	358.274956	7.972506	-0.023606	0.963364
97.285570	359.096798	7.977510	-0.023658	0.964363
97.501213	359.832764	7.982515	-0.023711	0.965263
97.734057	360.630377	7.987520	-0.023768	0.966237
97.807544	361.464068	7.992525	-0.023787	0.967217
98.017563	362.290600	7.997530	-0.023838	0.968218
98.251629	363.093767	8.002534	-0.023896	0.969195
98.441008	363.867706	8.007539	-0.023943	0.970129
98.671030	364.654140	8.012544	-0.023999	0.971084
98.848936	365.456349	8.017549	-0.024043	0.972046
99.175934	366.237471	8.022554	-0.024124	0.973014
99.207761	367.061628	8.027558	-0.024132	0.973968
99.472627	367.829011	8.032563	-0.024197	0.974905
99.605814	368.609394	8.037568	-0.024230	0.975828
99.745384	369.412670	8.042573	-0.024265	0.976778
99.832525	370.247001	8.047578	-0.024287	0.977751
99.904314	371.094244	8.052582	-0.024305	0.978735
100.219060	371.894031	8.057587	-0.024382	0.979716
100.487190	372.665073	8.062592	-0.024448	0.980652
100.561751	373.486090	8.067597	-0.024467	0.981604
100.644311	374.344009	8.072602	-0.024487	0.982598
100.965256	375.140525	8.077606	-0.024566	0.983572
101.034120	375.974371	8.082611	-0.024583	0.984534
101.359498	376.732310	8.087616	-0.024663	0.985464
101.434456	377.547260	8.092621	-0.024682	0.986404
101.653292	378.380214	8.097626	-0.024736	0.987394
101.678283	379.227552	8.102630	-0.024743	0.988358
101.803977	380.082441	8.107635	-0.024774	0.989352
102.178661	380.829796	8.112640	-0.024866	0.990274
102.199414	381.672048	8.117645	-0.024871	0.991230
102.499226	382.495809	8.122650	-0.024945	0.992221
102.532502	383.363960	8.127654	-0.024954	0.993206
102.766572	384.189641	8.132659	-0.025011	0.994184
102.860819	385.003758	8.137664	-0.025035	0.995119
102.936153	385.847453	8.142669	-0.025054	0.996083
103.084504	386.744800	8.147674	-0.025091	0.997121
103.290721	387.605759	8.152678	-0.025142	0.998128
103.291948	388.502833	8.157683	-0.025142	0.999133
103.556335	389.332342	8.162688	-0.025207	1.000116
103.717660	390.196560	8.167693	-0.025247	1.001115
103.983189	391.072797	8.172698	-0.025313	1.002149
104.178269	391.935842	8.177702	-0.025361	1.003151
104.309407	392.806618	8.182707	-0.025393	1.004149
104.572298	393.601244	8.187712	-0.025458	1.005087
104.738336	394.454549	8.192717	-0.025499	1.006071
104.907915	395.336745	8.197722	-0.025541	1.007085
105.318279	396.148671	8.202726	-0.025642	1.008071
105.417709	396.992900	8.207731	-0.025667	1.009027
105.561677	397.818465	8.212736	-0.025702	1.009971
105.577545	398.679098	8.217741	-0.025707	1.010927
105.678283	399.578432	8.222746	-0.025732	1.011942
105.927966	400.462910	8.227750	-0.025793	1.012970
105.910657	401.380060	8.232755	-0.025790	1.013978
106.161752	402.224876	8.237760	-0.025852	1.014961
106.311407	403.092797	8.242765	-0.025889	1.015947
106.612952	403.986849	8.247770	-0.025963	1.016992
106.792671	404.869586	8.252774	-0.026007	1.017998
106.835560	405.775515	8.257779	-0.026018	1.019002
107.070153	406.627625	8.262784	-0.026076	1.019984
107.222685	407.511815	8.267789	-0.026114	1.020984
107.397873	408.421766	8.272794	-0.026157	1.022015
107.491952	409.341961	8.277798	-0.026181	1.023040
107.646287	410.248372	8.282803	-0.026219	1.024062
107.802546	411.110803	8.287808	-0.026258	1.025035
107.950205	412.012617	8.292813	-0.026294	1.026048
108.131490	412.933902	8.297818	-0.026339	1.027088
108.320496	413.860340	8.302822	-0.026386	1.028134
108.691178	414.734545	8.307827	-0.026477	1.029158
108.807671	415.591801	8.312832	-0.026506	1.030112
109.027393	416.466955	8.317837	-0.026560	1.031106
109.335757	417.350197	8.322842	-0.026636	1.032125
109.620727	418.217989	8.327846	-0.026706	1.033121
109.898739	419.058372	8.332851	-0.026775	1.034086
110.027555	419.882869	8.337856	-0.026806	1.035002
110.023962	420.769388	8.342861	-0.026806	1.035959
110.292720	421.654405	8.347866	-0.026872	1.036967
110.425602	422.540082	8.352870	-0.026905	1.037948
110.325934	423.482007	8.357875	-0.026881	1.038943
110.531396	424.362273	8.362880	-0.026932	1.039930
110.450779	425.330359	8.367885	-0.026913	1.040955
110.702631	426.265572	8.372890	-0.026975	1.042009
110.964492	427.194932	8.377894	-0.027040	1.043057
111.022193	428.153341	8.382899	-0.027054	1.044095
111.368448	428.999980	8.387904	-0.027139	1.045069
111.465626	429.922003	8.392909	-0.027164	1.046075
111.917706	430.820932	8.397914	-0.027275	1.047124
112.182635	431.704485	8.402918	-0.027340	1.048119
112.448970	432.564442	8.407923	-0.027406	1.049088
112.768820	433.373157	8.412928	-0.027484	1.050012
113.034150	434.201079	8.417933	-0.027550	1.050945
113.170315	435.080404	8.422938	-0.027583	1.051906
113.379139	435.937111	8.427942	-0.027635	1.052857
113.664029	436.760182	8.432947	-0.027705	1.053786
113.859804	437.566130	8.437952	-0.027753	1.054679
113.783434	438.436342	8.442957	-0.027735	1.055586
113.895679	439.340079	8.447962	-0.027763	1.056565
114.059185	440.230201	8.452966	-0.027803	1.057538
114.144011	441.126123	8.457971	-0.027825	1.058501
114.310490	442.016662	8.462976	-0.027866	1.059474
114.420347	442.910941	8.467981	-0.027893	1.060438
114.616079	443.821018	8.472986	-0.027942	1.061435
114.918298	444.703095	8.477990	-0.028016	1.062422
115.152666	445.570784	8.482995	-0.028074	1.063380
115.455268	446.420288	8.488000	-0.028148	1.064331
115.838202	447.193616	8.493005	-0.028242	1.065217
116.207456	447.982221	8.498010	-0.028333	1.066115
116.575745	448.762358	8.503014	-0.028423	1.067003
116.739888	449.570695	8.508019	-0.028464	1.067881
116.901800	450.380511	8.513024	-0.028504	1.068760
116.983720	451.128739	8.518029	-0.028524	1.069558
117.213141	451.908645	8.523034	-0.028581	1.070416
117.254554	452.759092	8.528038	-0.028591	1.071312
117.285029	453.615550	8.533043	-0.028599	1.072211
117.575459	454.448925	8.538048	-0.028671	1.073135
117.601246	455.304266	8.543053	-0.028678	1.074031
117.977807	456.047878	8.548058	-0.028770	1.074876
118.144963	456.870328	8.553062	-0.028811	1.075763
118.465950	457.659171	8.558067	-0.028890	1.076643
118.827450	458.439974	8.563072	-0.028979	1.077522
119.110476	459.193047	8.568077	-0.029049	1.078357
119.520273	459.887462	8.573082	-0.029149	1.079154
119.988430	460.539924	8.578087	-0.029264	1.079918
120.530356	461.124699	8.583091	-0.029397	1.080626
121.024114	461.723711	8.588096	-0.029518	1.081338
121.589973	462.238057	8.593101	-0.029656	1.081976
121.782717	462.798163	8.598106	-0.029703	1.082591
122.180085	463.310256	8.603111	-0.029801	1.083195
122.593629	463.779484	8.608115	-0.029902	1.083756
122.702933	464.244752	8.613120	-0.029929	1.084257
122.975992	464.703643	8.618125	-0.029996	1.084781
123.322609	465.174079	8.623130	-0.030081	1.085331
123.537544	465.617097	8.628135	-0.030134	1.085827
123.895670	466.050168	8.633139	-0.030221	1.086340
124.129838	466.487791	8.638144	-0.030279	1.086834
124.251447	466.926793	8.643149	-0.030309	1.087308
124.417160	467.393128	8.648154	-0.030349	1.087819
124.698789	467.788122	8.653159	-0.030418	1.088277
124.930277	468.244750	8.658163	-0.030475	1.088789
124.989179	468.634042	8.663168	-0.030490	1.089200
125.175336	469.062840	8.668173	-0.030535	1.089674
125.352610	469.473749	8.673178	-0.030579	1.090129
125.457883	469.962614	8.678183	-0.030605	1.090650
125.606657	470.376529	8.683187	-0.030641	1.091101
125.745740	470.879513	8.688192	-0.030676	1.091643
125.747003	471.361803	8.693197	-0.030676	1.092136
125.935225	471.825448	8.698202	-0.030722	1.092646
126.101634	472.330627	8.703207	-0.030763	1.093193
126.215651	472.822937	8.708211	-0.030791	1.093718
126.343190	473.282549	8.713216	-0.030823	1.094211
126.439992	473.766630	8.718221	-0.030847	1.094723
126.577060	474.303270	8.723226	-0.030880	1.095297
126.735463	474.808626	8.728231	-0.030919	1.095842
126.802976	475.336918	8.733235	-0.030936	1.096393
127.107346	475.841989	8.738240	-0.031011	1.096964
127.290735	476.371446	8.743245	-0.031056	1.097537
127.447530	476.876981	8.748250	-0.031094	1.098081
127.441274	477.442598	8.753255	-0.031093	1.098655
127.598210	477.944054	8.758259	-0.031132	1.099194
127.674105	478.484167	8.763264	-0.031151	1.099757
127.760222	479.051827	8.768269	-0.031172	1.100350
127.709289	479.680861	8.773274	-0.031160	1.100979
127.807287	480.313242	8.778279	-0.031184	1.101639
127.849220	480.943125	8.783283	-0.031195	1.102286
127.941508	481.599811	8.788288	-0.031218	1.102968
128.065082	482.245912	8.793293	-0.031248	1.103646
128.065071	482.860760	8.798298	-0.031248	1.104268
128.264825	483.509704	8.803303	-0.031298	1.104961
128.380443	484.186652	8.808307	-0.031326	1.105667
128.748937	484.837878	8.813312	-0.031417	1.106393
128.896139	485.477460	8.818317	-0.031453	1.107066
129.069740	486.129365	8.823322	-0.031496	1.107755
129.236078	486.810500	8.828327	-0.031537	1.108473
129.312074	487.443064	8.833331	-0.031556	1.109124
129.722187	488.031837	8.838336	-0.031656	1.109792
129.896572	488.647315	8.843341	-0.031699	1.110444
130.080374	489.295842	8.848346	-0.031744	1.111130
130.223023	489.942797	8.853351	-0.031780	1.111807
130.275667	490.621034	8.858355	-0.031793	1.112498
130.432603	491.291186	8.863360	-0.031831	1.113199
130.380593	491.988430	8.868365	-0.031819	1.113890
130.541733	492.620563	8.873370	-0.031859	1.114553
130.711133	493.347393	8.878375	-0.031901	1.115312
130.888892	494.024986	8.883379	-0.031944	1.116023
131.011163	494.738217	8.888384	-0.031975	1.116759
131.005429	495.502237	8.893389	-0.031974	1.117523
131.120366	496.224744	8.898394	-0.032002	1.118266
131.376498	496.961218	8.903399	-0.032065	1.119048
131.576488	497.618109	8.908403	-0.032114	1.119740
131.841501	498.324525	8.913408	-0.032180	1.120493
131.879878	499.092825	8.918413	-0.032189	1.121266
132.001367	499.810866	8.923418	-0.032220	1.122003
132.327251	500.559788	8.928423	-0.032300	1.122807
132.413238	501.289218	8.933427	-0.032321	1.123549
132.598876	501.955626	8.938432	-0.032367	1.124245
132.755397	502.675990	8.943437	-0.032405	1.124989
132.892310	503.404103	8.948442	-0.032439	1.125736
133.003447	504.201195	8.953447	-0.032467	1.126547
133.100136	504.930325	8.958451	-0.032491	1.127288
133.335457	505.713944	8.963456	-0.032549	1.128106
133.628530	506.400204	8.968461	-0.032621	1.128838
133.702392	507.142263	8.973466	-0.032639	1.129586
133.868604	507.880423	8.978471	-0.032680	1.130346
133.868611	508.695798	8.983475	-0.032681	1.131152
134.053077	509.452996	8.988480	-0.032726	1.131932
134.145074	510.282066	8.993485	-0.032749	1.132767
134.284941	511.075869	8.998490	-0.032784	1.133575
134.496163	511.811404	9.003495	-0.032836	1.134337
134.685936	512.587182	9.008499	-0.032883	1.135135
134.816763	513.389590	9.013504	-0.032915	1.135948
134.903265	514.227446	9.018509	-0.032937	1.136787
135.021158	515.035551	9.023514	-0.032966	1.137602
135.193796	515.871094	9.028519	-0.033009	1.138453
135.368371	516.641537	9.033523	-0.033052	1.139240
135.569712	517.452135	9.038528	-0.033101	1.140070
135.677509	518.285523	9.043533	-0.033128	1.140906
136.002401	519.091161	9.048538	-0.033208	1.141752
136.075612	519.916271	9.053543	-0.033226	1.142572
136.263288	520.740157	9.058547	-0.033273	1.143411
136.501664	521.496225	9.063552	-0.033331	1.144192
136.823047	522.237859	9.068557	-0.033410	1.144972
136.988847	523.056403	9.073562	-0.033451	1.145800
137.236742	523.827432	9.078567	-0.033512	1.146595
137.632326	524.569251	9.083571	-0.033609	1.147387
137.887916	525.296019	9.088576	-0.033672	1.148140
137.986843	526.042190	9.093581	-0.033697	1.148883
138.393414	526.695604	9.098586	-0.033797	1.149590
138.957338	527.315948	9.103591	-0.033935	1.150291
139.348152	527.943466	9.108595	-0.034031	1.150969
140.079310	528.466336	9.113600	-0.034209	1.151604
140.639139	528.942668	9.118605	-0.034346	1.152164
141.366727	529.278167	9.123610	-0.034524	1.152617
141.855121	529.692288	9.128615	-0.034644	1.153104
142.194864	530.023690	9.133619	-0.034727	1.153484
142.686742	530.276369	9.138624	-0.034847	1.153814
143.008653	530.522716	9.143629	-0.034926	1.154109
143.373334	530.770950	9.148634	-0.035015	1.154413
143.576145	531.054267	9.153639	-0.035065	1.154722
143.865780	531.270299	9.158643	-0.035136	1.154982
144.145236	531.488633	9.163648	-0.035204	1.155242
144.298582	531.730736	9.168653	-0.035242	1.155502
144.457332	531.995747	9.173658	-0.035280	1.155786
144.641387	532.281713	9.178663	-0.035325	1.156095
144.702308	532.512165	9.183667	-0.035340	1.156328
144.805970	532.802433	9.188672	-0.035366	1.156626
144.762852	533.108244	9.193677	-0.035355	1.156914
144.708227	533.457838	9.198682	-0.035342	1.157242
144.830280	533.805852	9.203687	-0.035372	1.157599
144.706076	534.210413	9.208691	-0.035342	1.157968
144.846410	534.650456	9.213696	-0.035376	1.158416
144.962430	535.002853	9.218701	-0.035405	1.158776
145.184167	535.324337	9.223706	-0.035459	1.159125
145.446603	535.745776	9.228711	-0.035524	1.159576
145.617633	536.103073	9.233715	-0.035566	1.159950
145.831657	536.454375	9.238720	-0.035618	1.160325
146.096438	536.803640	9.243725	-0.035683	1.160707
146.139999	537.237176	9.248730	-0.035694	1.161132
146.313467	537.607716	9.253735	-0.035736	1.161519
146.324067	537.991975	9.258739	-0.035739	1.161890
146.481642	538.424762	9.263744	-0.035778	1.162333
146.598594	538.851964	9.268749	-0.035806	1.162764
146.547924	539.283266	9.273754	-0.035794	1.163169
146.570615	539.811745	9.278759	-0.035800	1.163681
146.559345	540.192368	9.283763	-0.035797	1.164044
146.710437	540.743618	9.288768	-0.035835	1.164599
146.696257	541.256437	9.293773	-0.035831	1.165088
146.754077	541.798777	9.298778	-0.035846	1.165618
146.882727	542.391604	9.303783	-0.035878	1.166208
147.105698	542.920903	9.308787	-0.035932	1.166753
147.279690	543.472093	9.313792	-0.035975	1.167311
147.405558	544.005297	9.318797	-0.036006	1.167843
147.544855	544.582548	9.323802	-0.036040	1.168418
147.737847	545.088044	9.328807	-0.036088	1.168935
148.015318	545.584719	9.333811	-0.036156	1.169457
148.130367	546.137996	9.338816	-0.036184	1.170005
148.252859	546.685464	9.343821	-0.036215	1.170549
148.257150	547.314676	9.348826	-0.036216	1.171150
148.371684	547.910884	9.353831	-0.036244	1.171738
148.538173	548.498803	9.358835	-0.036285	1.172326
148.615123	549.115589	9.363840	-0.036304	1.172927
148.610482	549.754254	9.368845	-0.036304	1.173534
148.806457	550.325610	9.373850	-0.036352	1.174112
148.863681	550.990823	9.378855	-0.036366	1.174754
148.999919	551.621268	9.383859	-0.036400	1.175376
149.211209	552.291828	9.388864	-0.036452	1.176050
149.229937	552.961711	9.393869	-0.036457	1.176689
149.325302	553.648221	9.398874	-0.036480	1.177357
149.564408	554.348663	9.403879	-0.036539	1.178062
149.820031	554.971318	9.408883	-0.036602	1.178695
150.004002	555.606301	9.413888	-0.036647	1.179328
150.139317	556.262340	9.418893	-0.036681	1.179972
150.187108	556.958308	9.423898	-0.036693	1.180639
150.578654	557.612207	9.428903	-0.036789	1.181324
150.729448	558.262674	9.433907	-0.036826	1.181964
151.017410	558.893940	9.438912	-0.036897	1.182609
151.152561	559.565328	9.443917	-0.036930	1.183266
151.482918	560.083295	9.448922	-0.037011	1.183811
151.638491	560.720870	9.453927	-0.037049	1.184439
151.930858	561.299652	9.458931	-0.037121	1.185034
152.317222	561.884934	9.463936	-0.037216	1.185650
152.508420	562.462054	9.468941	-0.037263	1.186226
152.705099	563.028295	9.473946	-0.037311	1.186792
153.020618	563.575014	9.478951	-0.037389	1.187360
153.189377	564.154654	9.483955	-0.037430	1.187933
153.541447	564.669176	9.488960	-0.037516	1.188476
153.732267	565.118078	9.493965	-0.037563	1.188930
153.950444	565.641145	9.498970	-0.037617	1.189458
154.255053	566.153135	9.503975	-0.037691	1.189990
154.334753	566.644630	9.508979	-0.037711	1.190465
154.533268	567.217908	9.513984	-0.037760	1.191036
154.653473	567.735238	9.518989	-0.037790	1.191541
154.713032	568.269662	9.523994	-0.037804	1.192051
154.768011	568.858731	9.528999	-0.037818	1.192612
154.840636	569.466268	9.534003	-0.037836	1.193193
155.038551	569.974504	9.539008	-0.037885	1.193702
155.087557	570.557969	9.544013	-0.037897	1.194256
155.183990	571.151670	9.549018	-0.037921	1.194827
155.270154	571.799802	9.554023	-0.037942	1.195447
155.361004	572.432480	9.559027	-0.037965	1.196053
155.551894	573.070411	9.564032	-0.038012	1.196681
155.669047	573.717300	9.569037	-0.038041	1.197304
155.911785	574.325404	9.574042	-0.038101	1.197911
156.164223	574.931106	9.579047	-0.038163	1.198518
156.253923	575.523112	9.584051	-0.038185	1.199084
156.530746	576.136338	9.589056	-0.038253	1.199701
156.652841	576.762500	9.594061	-0.038283	1.200304
156.779612	577.404436	9.599066	-0.038314	1.200922
156.997128	578.031664	9.604071	-0.038368	1.201542
157.186134	578.648128	9.609075	-0.038414	1.202146
157.226929	579.305552	9.614080	-0.038425	1.202763
157.419005	579.937614	9.619085	-0.038472	1.203382
157.516788	580.510063	9.624090	-0.038496	1.203929
157.642439	581.193804	9.629095	-0.038527	1.204584
157.465053	581.906414	9.634099	-0.038484	1.205215
157.849156	582.596634	9.639104	-0.038578	1.205918
157.906131	583.320224	9.644109	-0.038593	1.206597
158.005668	584.031224	9.649114	-0.038617	1.207271
158.123737	584.775542	9.654119	-0.038647	1.207979
158.130905	585.455401	9.659123	-0.038649	1.208609
158.452065	586.163789	9.664128	-0.038728	1.209316
158.688516	586.881257	9.669133	-0.038786	1.210017
158.830740	587.608980	9.674138	-0.038821	1.210712
159.173229	588.291137	9.679143	-0.038905	1.211397
159.308935	588.984473	9.684147	-0.038939	1.212059
159.498197	589.695514	9.689152	-0.038985	1.212745
159.646043	590.391648	9.694157	-0.039022	1.213410
159.811727	591.057338	9.699162	-0.039063	1.214049
160.053921	591.749651	9.704167	-0.039122	1.214726
159.916357	592.506494	9.709171	-0.039089	1.215398
160.043740	593.271373	9.714176	-0.039121	1.216122
160.238426	594.039349	9.719181	-0.039169	1.216859
160.262227	594.815068	9.724186	-0.039175	1.217574
160.490658	595.575189	9.729191	-0.039231	1.218308
160.554258	596.327280	9.734195	-0.039247	1.219008
160.809359	597.092130	9.739200	-0.039310	1.219750
161.004918	597.855475	9.744205	-0.039358	1.220480
161.102367	598.660098	9.749210	-0.039382	1.221232
161.344199	599.435569	9.754215	-0.039442	1.221980
161.528711	600.173653	9.759219	-0.039487	1.222685
161.820640	600.934266	9.764224	-0.039559	1.223426
162.030062	601.625976	9.769229	-0.039611	1.224092
162.297979	602.319057	9.774234	-0.039676	1.224767
162.432545	603.085393	9.779239	-0.039710	1.225487
162.617228	603.840016	9.784243	-0.039755	1.226205
162.888987	604.557477	9.789248	-0.039822	1.226902
162.992808	605.295590	9.794253	-0.039848	1.227590
163.085572	606.015238	9.799258	-0.039871	1.228259
163.345462	606.722551	9.804263	-0.039935	1.228944
163.364432	607.491053	9.809267	-0.039940	1.229645
163.494174	608.258257	9.814272	-0.039972	1.230363
163.569422	609.062559	9.819277	-0.039991	1.231104
163.627594	609.886153	9.824282	-0.040006	1.231860
163.810321	610.678455	9.829287	-0.040051	1.232608
163.925042	611.482500	9.834291	-0.040079	1.233354
164.068431	612.245720	9.839296	-0.040115	1.234068
164.235368	613.071420	9.844301	-0.040156	1.234842
164.415455	613.892821	9.849306	-0.040200	1.235613
164.714103	614.684181	9.854311	-0.040274	1.236376
164.817362	615.512881	9.859315	-0.040300	1.237141
164.729015	616.382567	9.864320	-0.040278	1.237911
164.930027	617.189499	9.869325	-0.040328	1.238671
164.977776	618.037704	9.874330	-0.040340	1.239443
165.246364	618.915879	9.879335	-0.040406	1.240276
165.422070	619.760695	9.884339	-0.040450	1.241065
165.507244	620.639865	9.889344	-0.040471	1.241869
165.698406	621.528423	9.894349	-0.040518	1.242698
165.921471	622.290595	9.899354	-0.040573	1.243418
166.172081	623.151331	9.904359	-0.040635	1.244231
166.279106	623.972098	9.909363	-0.040662	1.244984
166.469758	624.881736	9.914368	-0.040709	1.245830
166.660964	625.713843	9.919373	-0.040756	1.246605
166.810393	626.580419	9.924378	-0.040793	1.247405
166.902459	627.458276	9.929383	-0.040816	1.248205
167.031135	628.279487	9.934387	-0.040848	1.248960
167.103469	629.193770	9.939392	-0.040866	1.249788
167.326077	630.089194	9.944397	-0.040921	1.250623
167.343632	631.022045	9.949402	-0.040926	1.251458
167.576551	631.945625	9.954407	-0.040983	1.252318
167.747112	632.812336	9.959411	-0.041026	1.253118
167.642647	633.749580	9.964416	-0.041001	1.253936
167.842826	634.712828	9.969421	-0.041050	1.254825
167.986349	635.667607	9.974426	-0.041086	1.255697
168.266092	636.613354	9.979431	-0.041155	1.256581
168.290935	637.573312	9.984435	-0.041161	1.257438
168.623139	638.494021	9.989440	-0.041243	1.258307
168.824509	639.408394	9.994445	-0.041293	1.259149
168.982762	640.330253	9.999450	-0.041332	1.259991
169.377107	641.237503	10.004455	-0.041429	1.260857
169.578261	642.154141	10.009459	-0.041478	1.261699
169.886275	643.027363	10.014464	-0.041554	1.262520
169.983678	643.868599	10.019469	-0.041579	1.263279
170.167666	644.697515	10.024474	-0.041624	1.264040

170.421222	645.530308	10.029479	-0.041686	1.264815
170.687443	646.305491	10.034483	-0.041752	1.265540
170.672060	647.154320	10.039488	-0.041749	1.266286
170.868624	647.915154	10.044493	-0.041797	1.266987
170.938847	648.669256	10.049498	-0.041815	1.267662
171.037570	649.364818	10.054503	-0.041839	1.268290
171.150349	650.067569	10.059507	-0.041867	1.268926
171.422901	650.745739	10.064512	-0.041934	1.269565
171.589438	651.430406	10.069517	-0.041975	1.270192
171.883313	652.019192	10.074522	-0.042047	1.270755
172.087662	652.587820	10.079527	-0.042098	1.271286
172.128040	653.189405	10.084531	-0.042108	1.271821
172.337793	653.739716	10.089536	-0.042159	1.272336
172.636453	654.234436	10.094541	-0.042232	1.272816
172.811411	654.617946	10.099546	-0.042275	1.273179
173.036401	655.063448	10.104551	-0.042331	1.273605
173.137246	655.468058	10.109555	-0.042355	1.273975
173.334114	655.841941	10.114560	-0.042404	1.274333
173.466345	656.218798	10.119565	-0.042436	1.274683
173.494971	656.583834	10.124570	-0.042443	1.275007
173.659769	656.966217	10.129575	-0.042484	1.275367
173.894105	657.252957	10.134579	-0.042541	1.275654
174.045455	657.536400	10.139584	-0.042578	1.275926
174.412694	657.742550	10.144589	-0.042668	1.276163
174.631268	657.873873	10.149594	-0.042721	1.276311
175.013113	658.103690	10.154599	-0.042815	1.276571
175.448281	658.108029	10.159603	-0.042921	1.276642
176.004922	658.014165	10.164608	-0.043057	1.276646
176.481696	657.936537	10.169613	-0.043173	1.276651
177.010636	657.708391	10.174618	-0.043302	1.276533
177.452759	657.393377	10.179623	-0.043410	1.276326
177.567743	657.094366	10.184627	-0.043437	1.276082
177.744027	656.848647	10.189632	-0.043480	1.275894
177.878269	656.545792	10.194637	-0.043513	1.275650
177.877386	656.242846	10.199642	-0.043512	1.275385
178.026081	655.865233	10.204647	-0.043548	1.275077
177.915802	655.550710	10.209651	-0.043521	1.274785
178.042276	655.227715	10.214656	-0.043551	1.274521
178.078470	654.903610	10.219661	-0.043560	1.274243
178.023114	654.582729	10.224666	-0.043546	1.273953
178.324580	654.199460	10.229671	-0.043619	1.273664
178.249500	653.843654	10.234675	-0.043601	1.273341
178.229861	653.536732	10.239680	-0.043596	1.273068
178.440204	653.181076	10.244685	-0.043647	1.272789
178.428493	652.763703	10.249690	-0.043643	1.272421
178.519597	652.369124	10.254695	-0.043665	1.272089
178.555467	651.970791	10.259699	-0.043674	1.271745
178.695252	651.512154	10.264704	-0.043707	1.271364
178.763357	651.041420	10.269709	-0.043723	1.270961
178.685566	650.636053	10.274714	-0.043704	1.270593
178.664109	650.233293	10.279719	-0.043698	1.270236
178.685448	649.792450	10.284723	-0.043703	1.269852
178.567406	649.393855	10.289728	-0.043674	1.269483
178.536024	648.992053	10.294733	-0.043666	1.269125
178.438368	648.593206	10.299738	-0.043642	1.268759
178.493957	648.217869	10.304743	-0.043655	1.268437
178.665939	647.817087	10.309747	-0.043697	1.268111
178.523735	647.488684	10.314752	-0.043661	1.267800
178.488041	647.086414	10.319757	-0.043652	1.267440
178.500021	646.664935	10.324762	-0.043655	1.267071
178.688507	646.259589	10.329767	-0.043701	1.266743
178.785247	645.752596	10.334771	-0.043724	1.266311
178.780778	645.336874	10.339776	-0.043722	1.265944
178.974482	644.887825	10.344781	-0.043769	1.265578
178.997856	644.378677	10.349786	-0.043774	1.265132
178.946511	643.900167	10.354791	-0.043761	1.264702
178.687046	643.511504	10.359795	-0.043698	1.264318
178.696831	643.103110	10.364800	-0.043700	1.263959
178.597053	642.713152	10.369805	-0.043675	1.263599
178.509829	642.290261	10.374810	-0.043653	1.263212
178.498399	642.023663	10.379815	-0.043650	1.262975
178.394075	641.624413	10.384819	-0.043624	1.262605
178.347937	641.257540	10.389824	-0.043612	1.262274
178.226001	640.928092	10.394829	-0.043582	1.261963
178.128552	640.602341	10.399834	-0.043558	1.261660
178.346293	640.208815	10.404839	-0.043611	1.261346
178.263028	639.852768	10.409843	-0.043590	1.261017
178.497133	639.441181	10.414848	-0.043647	1.260690
178.528348	639.057838	10.419853	-0.043654	1.260355
178.463924	638.634779	10.424858	-0.043638	1.259970
178.691353	638.219033	10.429863	-0.043693	1.259637
178.568633	637.836482	10.434867	-0.043663	1.259279
178.620350	637.378269	10.439872	-0.043675	1.258881
178.582163	636.988742	10.444877	-0.043666	1.258530
178.522269	636.614785	10.449882	-0.043651	1.258188
178.385679	636.312922	10.454887	-0.043617	1.257899
178.244054	635.943521	10.459891	-0.043582	1.257549
178.211177	635.588911	10.464896	-0.043573	1.257229
178.090358	635.287236	10.469901	-0.043544	1.256942
178.034618	634.968223	10.474906	-0.043530	1.256650
177.962966	634.669149	10.479911	-0.043512	1.256373
177.906556	634.381237	10.484915	-0.043498	1.256108
177.901499	634.058210	10.489920	-0.043496	1.255820
177.846104	633.771656	10.494925	-0.043482	1.255557
177.688781	633.506996	10.499930	-0.043444	1.255297
177.806014	633.251947	10.504935	-0.043472	1.255088
178.011924	632.896896	10.509939	-0.043522	1.254805
178.102836	632.540796	10.514944	-0.043544	1.254502
178.068133	632.251413	10.519949	-0.043535	1.254239
178.075956	631.893088	10.524954	-0.043537	1.253921
178.139538	631.549869	10.529959	-0.043552	1.253626
178.187217	631.203498	10.534963	-0.043563	1.253325
178.195694	630.943282	10.539968	-0.043565	1.253094
178.154790	630.602590	10.544973	-0.043554	1.252784
178.128598	630.242474	10.549978	-0.043548	1.252459
178.172182	629.903447	10.554983	-0.043558	1.252164
178.060734	629.599682	10.559987	-0.043530	1.251876
178.030444	629.275393	10.564992	-0.043523	1.251582
178.008087	628.969726	10.569997	-0.043517	1.251305
178.088210	628.623300	10.575002	-0.043536	1.251009
178.181730	628.290495	10.580007	-0.043559	1.250727
178.148783	627.953076	10.585011	-0.043550	1.250420
178.079291	627.611820	10.590016	-0.043533	1.250105
177.961334	627.335270	10.595021	-0.043504	1.249839
177.970326	627.007875	10.600026	-0.043506	1.249548
177.921220	626.720998	10.605031	-0.043493	1.249284
177.942809	626.386622	10.610035	-0.043498	1.248988
177.886650	626.088119	10.615040	-0.043484	1.248713
177.898694	625.816350	10.620045	-0.043487	1.248471
177.743274	625.591098	10.625050	-0.043449	1.248245
177.709385	625.420264	10.630055	-0.043440	1.248087
177.673885	625.061170	10.635059	-0.043431	1.247760
177.572870	624.822315	10.640064	-0.043406	1.247530
177.538818	624.638616	10.645069	-0.043398	1.247361
177.469688	624.372212	10.650074	-0.043380	1.247111
177.605941	624.105696	10.655079	-0.043413	1.246894
177.429021	623.941690	10.660083	-0.043370	1.246719
177.438663	623.685861	10.665088	-0.043372	1.246492
177.616964	623.370780	10.670093	-0.043415	1.246238
177.422422	623.197287	10.675098	-0.043367	1.246051
177.614126	622.969484	10.680103	-0.043414	1.245878
177.729443	622.611016	10.685107	-0.043442	1.245575
177.757232	622.341920	10.690112	-0.043448	1.245338
177.961959	622.029891	10.695117	-0.043498	1.245091
177.770655	621.758434	10.700122	-0.043451	1.244817
177.730762	621.523792	10.705127	-0.043441	1.244600
177.652958	621.211953	10.710131	-0.043422	1.244308
177.643080	620.974780	10.715136	-0.043419	1.244093
177.525725	620.787086	10.720141	-0.043390	1.243906
177.388600	620.538576	10.725146	-0.043356	1.243661
177.338303	620.325314	10.730151	-0.043344	1.243462
177.077724	620.251838	10.735155	-0.043280	1.243354
176.882689	620.096843	10.740160	-0.043232	1.243184
176.977786	620.039439	10.745165	-0.043255	1.243148
176.928024	619.875807	10.750170	-0.043243	1.242993
177.118032	619.647897	10.755175	-0.043289	1.242818
177.118582	619.497883	10.760179	-0.043289	1.242684
177.207184	619.263610	10.765184	-0.043310	1.242487
177.372265	619.018743	10.770189	-0.043350	1.242293
177.324788	618.879405	10.775194	-0.043338	1.242161
177.616389	618.517202	10.780199	-0.043409	1.241882
177.637881	618.285258	10.785203	-0.043414	1.241676
177.723647	618.010076	10.790208	-0.043435	1.241443
177.636351	617.791023	10.795213	-0.043413	1.241232
177.690855	617.445902	10.800218	-0.043426	1.240930
177.634155	617.237043	10.805223	-0.043412	1.240733
177.551429	617.046290	10.810227	-0.043392	1.240548
177.271210	616.798799	10.815232	-0.043323	1.240281
177.350340	616.601918	10.820237	-0.043342	1.240116
177.074341	616.476039	10.825242	-0.043274	1.239958
177.237096	616.199936	10.830247	-0.043314	1.239736
177.168411	616.110356	10.835251	-0.043297	1.239644
177.262438	615.795650	10.840256	-0.043320	1.239376
177.303803	615.698767	10.845261	-0.043330	1.239295
177.408971	615.370206	10.850266	-0.043355	1.239016
177.497929	615.150711	10.855271	-0.043376	1.238832
177.457691	614.986682	10.860275	-0.043366	1.238678
177.314932	614.698691	10.865280	-0.043331	1.238395
177.239697	614.609436	10.870285	-0.043313	1.238303
177.248056	614.444812	10.875290	-0.043314	1.238156
177.209445	614.208566	10.880295	-0.043305	1.237937
177.063870	614.113587	10.885299	-0.043269	1.237827
176.917852	613.881956	10.890304	-0.043233	1.237595
176.970534	613.779295	10.895309	-0.043246	1.237511
176.818786	613.685458	10.900314	-0.043208	1.237402
176.839162	613.452981	10.905319	-0.043213	1.237195
176.880350	613.437605	10.910323	-0.043223	1.237188
176.873424	613.166944	10.915328	-0.043221	1.236943
177.010186	613.097044	10.920333	-0.043254	1.236901
176.906851	612.900657	10.925338	-0.043229	1.236708
176.965467	612.734662	10.930343	-0.043243	1.236567
177.009039	612.648049	10.935347	-0.043253	1.236496
177.255278	612.327435	10.940352	-0.043313	1.236246
177.163480	612.208115	10.945357	-0.043291	1.236123
177.200494	611.987002	10.950362	-0.043299	1.235929
177.165836	611.819623	10.955367	-0.043291	1.235773
177.188871	611.661450	10.960371	-0.043296	1.235633
177.125730	611.408898	10.965376	-0.043280	1.235395
177.120509	611.314449	10.970381	-0.043279	1.235309
176.876354	611.092166	10.975386	-0.043219	1.235069
176.736447	611.025318	10.980391	-0.043185	1.234986
176.725011	611.022333	10.985395	-0.043182	1.234981
176.684309	610.708520	10.990400	-0.043172	1.234691
176.642754	610.695957	10.995405	-0.043161	1.234673
176.627366	610.685647	11.000410	-0.043157	1.234661
176.614171	610.490636	11.005415	-0.043154	1.234482
176.692043	610.355933	11.010419	-0.043173	1.234373
176.835097	610.325911	11.015424	-0.043208	1.234369
176.943460	610.052111	11.020429	-0.043234	1.234139
176.996624	609.934777	11.025434	-0.043247	1.234041
177.278602	609.682796	11.030439	-0.043315	1.233858
177.354624	609.531915	11.035443	-0.043334	1.233734
177.342937	609.202481	11.040448	-0.043330	1.233434
177.351579	609.112444	11.045453	-0.043332	1.233354
177.202080	608.959129	11.050458	-0.043296	1.233191
177.086790	608.796047	11.055463	-0.043267	1.233025
176.875914	608.657579	11.060467	-0.043215	1.232865
176.692468	608.685200	11.065472	-0.043171	1.232861
176.676998	608.345045	11.070477	-0.043166	1.232550
176.527086	608.354810	11.075482	-0.043130	1.232535
176.516732	608.364314	11.080487	-0.043127	1.232542
176.605770	608.207127	11.085491	-0.043149	1.232413
176.430913	608.019694	11.090496	-0.043106	1.232215
176.481318	608.020800	11.095501	-0.043118	1.232225
176.508462	608.001659	11.100506	-0.043124	1.232211
176.768427	607.801868	11.105511	-0.043188	1.232072
176.746822	607.642794	11.110515	-0.043182	1.231925
176.820765	607.623600	11.115520	-0.043200	1.231919
177.002891	607.325289	11.120525	-0.043244	1.231678
177.122648	607.205361	11.125530	-0.043273	1.231589
177.127628	606.952928	11.130535	-0.043274	1.231361
177.116442	606.870787	11.135539	-0.043271	1.231284
177.035489	606.605471	11.140544	-0.043251	1.231031
177.126585	606.530116	11.145549	-0.043273	1.230977
176.814212	606.313623	11.150554	-0.043197	1.230730
176.775701	606.256354	11.155559	-0.043187	1.230672
176.615220	606.282234	11.160563	-0.043148	1.230669
176.498187	606.004125	11.165568	-0.043119	1.230398
176.352664	605.966691	11.170573	-0.043083	1.230341
176.449025	605.934651	11.175578	-0.043107	1.230327
176.395094	605.955510	11.180583	-0.043094	1.230337
176.391954	605.949006	11.185587	-0.043093	1.230331
176.430508	605.589107	11.190592	-0.043102	1.230010
176.552296	605.581100	11.195597	-0.043131	1.230023
176.556704	605.567234	11.200602	-0.043132	1.230011
176.752497	605.437171	11.205607	-0.043180	1.229924
176.720071	605.195521	11.210611	-0.043172	1.229700
176.724458	605.189057	11.215616	-0.043173	1.229694
176.972448	605.008455	11.220621	-0.043233	1.229570
176.889923	604.830811	11.225626	-0.043213	1.229396
176.828953	604.848359	11.230631	-0.043198	1.229402
176.767725	604.507686	11.235635	-0.043182	1.229082
176.681751	604.514127	11.240640	-0.043161	1.229074
176.514032	604.557637	11.245645	-0.043120	1.229087
176.362302	604.312819	11.250650	-0.043083	1.228840
176.447797	604.220776	11.255655	-0.043104	1.228770
176.458872	604.214156	11.260659	-0.043106	1.228766
176.343784	604.229306	11.265664	-0.043078	1.228761
176.412406	604.227307	11.270669	-0.043095	1.228770
176.525245	603.917684	11.275674	-0.043122	1.228507
176.649848	603.840774	11.280679	-0.043152	1.228457
176.703038	603.831641	11.285683	-0.043165	1.228457
176.693076	603.685234	11.290688	-0.043162	1.228322
176.746472	603.584162	11.295693	-0.043175	1.228239
176.814506	603.558128	11.300698	-0.043192	1.228226
176.792635	603.298112	11.305703	-0.043186	1.227987
176.584122	603.239571	11.310707	-0.043135	1.227900
176.464823	603.253933	11.315712	-0.043106	1.227893
176.529329	603.150056	11.320717	-0.043121	1.227809
176.225726	602.938490	11.325722	-0.043047	1.227568
176.237995	602.947370	11.330727	-0.043050	1.227578
176.155887	602.963268	11.335731	-0.043030	1.227579
176.201950	602.947076	11.340736	-0.043041	1.227571
176.380833	602.927150	11.345741	-0.043084	1.227582
176.337027	602.919404	11.350746	-0.043074	1.227568
176.584896	602.690723	11.355751	-0.043134	1.227400
176.735466	602.513373	11.360755	-0.043170	1.227263
176.816278	602.486704	11.365760	-0.043190	1.227252
176.890035	602.270191	11.370765	-0.043208	1.227067
176.897996	602.146499	11.375770	-0.043210	1.226955
176.818071	602.070552	11.380775	-0.043190	1.226873
176.902172	601.791186	11.385779	-0.043210	1.226633
176.708092	601.816474	11.390784	-0.043163	1.226624
176.832611	601.589137	11.395789	-0.043193	1.226437
176.670131	601.478281	11.400794	-0.043153	1.226310
176.576423	601.501306	11.405799	-0.043130	1.226316
176.381283	601.464791	11.410803	-0.043082	1.226251
176.323305	601.194404	11.415808	-0.043068	1.225995
176.207206	601.227588	11.420813	-0.043039	1.226007
176.144885	601.222476	11.425818	-0.043024	1.225992
176.105021	601.239340	11.430823	-0.043014	1.226001
176.193993	601.221858	11.435827	-0.043036	1.225999
176.123879	601.225506	11.440832	-0.043018	1.225991
176.217011	601.226143	11.445837	-0.043041	1.226006
176.273294	601.203767	11.450842	-0.043055	1.225995
176.370168	600.960802	11.455847	-0.043078	1.225790
176.472463	600.844521	11.460851	-0.043103	1.225700
176.551171	600.821067	11.465856	-0.043122	1.225692
176.676732	600.812924	11.470861	-0.043153	1.225704
176.573292	600.528821	11.475866	-0.043127	1.225429
176.697902	600.435755	11.480871	-0.043157	1.225364
176.731364	600.434071	11.485875	-0.043165	1.225368
176.586470	600.221087	11.490880	-0.043130	1.225150
176.588387	600.116395	11.495885	-0.043130	1.225055
176.578829	600.106011	11.500890	-0.043127	1.225044
176.621241	600.054333	11.505895	-0.043138	1.225004
176.601947	599.759613	11.510899	-0.043133	1.224732
176.465944	599.778350	11.515904	-0.043099	1.224727
176.493523	599.788245	11.520909	-0.043106	1.224741
176.537403	599.719360	11.525914	-0.043117	1.224685
176.527165	599.447763	11.530919	-0.043114	1.224435
176.604821	599.435548	11.535923	-0.043133	1.224437
176.512055	599.443675	11.540928	-0.043110	1.224429
176.550340	599.307311	11.545933	-0.043119	1.224311
176.367460	599.112176	11.550938	-0.043074	1.224103
176.468168	599.102701	11.555943	-0.043099	1.224111
176.454969	599.108896	11.560947	-0.043095	1.224114
176.289302	599.126247	11.565952	-0.043055	1.224103
176.275814	599.018484	11.570957	-0.043051	1.224003
176.084328	598.823490	11.575962	-0.043004	1.223794
176.143092	598.820115	11.580967	-0.043018	1.223800
176.186039	598.811257	11.585971	-0.043029	1.223799
176.114803	598.816581	11.590976	-0.043011	1.223792
176.185572	598.817828	11.595981	-0.043028	1.223805
176.137147	598.812413	11.600986	-0.043017	1.223792
176.370835	598.778558	11.605991	-0.043073	1.223799
176.438788	598.766615	11.610995	-0.043090	1.223799
176.594182	598.419421	11.616000	-0.043128	1.223507
176.687306	598.388448	11.621005	-0.043150	1.223494
176.586534	598.396299	11.626010	-0.043125	1.223485
176.586271	598.265191	11.631015	-0.043125	1.223365
176.635879	598.141804	11.636019	-0.043137	1.223261
176.526402	598.149669	11.641024	-0.043110	1.223250
176.325624	598.198522	11.646029	-0.043061	1.223262
176.209923	598.190817	11.651034	-0.043033	1.223236
176.128606	597.865083	11.656039	-0.043013	1.222925
176.094882	597.871341	11.661043	-0.043004	1.222925
176.158554	597.848529	11.666048	-0.043020	1.222915
176.097242	597.873812	11.671053	-0.043005	1.222928
176.062909	597.870002	11.676058	-0.042996	1.222919
176.187263	597.851256	11.681063	-0.043026	1.222922
176.209861	597.850642	11.686067	-0.043032	1.222925
176.181277	597.847005	11.691072	-0.043025	1.222917
176.229222	597.849485	11.696077	-0.043036	1.222927
176.345562	597.792062	11.701082	-0.043065	1.222893
176.403777	597.461478	11.706087	-0.043078	1.222601
176.395549	597.467638	11.711091	-0.043076	1.222605
176.455768	597.444246	11.716096	-0.043091	1.222594
176.485061	597.455262	11.721101	-0.043098	1.222608
176.385436	597.363582	11.726106	-0.043074	1.222508
176.481820	597.096549	11.731111	-0.043097	1.222280
176.377228	597.120565	11.736115	-0.043071	1.222285
176.194713	597.143681	11.741120	-0.043026	1.222276
176.227953	597.149801	11.746125	-0.043034	1.222287
176.429802	597.100232	11.751130	-0.043084	1.222275
176.329406	596.882159	11.756135	-0.043059	1.222059
176.341910	596.802931	11.761139	-0.043062	1.221989
176.293621	596.798969	11.766144	-0.043050	1.221977
176.246678	596.826638	11.771149	-0.043038	1.221995
176.217060	596.821313	11.776154	-0.043031	1.221985
176.171626	596.831111	11.781159	-0.043020	1.221986
176.288499	596.810360	11.786163	-0.043048	1.221986
176.241209	596.524103	11.791168	-0.043036	1.221717
176.234508	596.464807	11.796173	-0.043035	1.221662
176.194012	596.458861	11.801178	-0.043025	1.221650
176.140408	596.476693	11.806183	-0.043011	1.221657
176.160840	596.479536	11.811187	-0.043016	1.221663
176.134001	596.466287	11.816192	-0.043010	1.221647
176.319798	596.451018	11.821197	-0.043055	1.221663
176.231934	596.455394	11.826202	-0.043033	1.221652
176.222170	596.357867	11.831207	-0.043031	1.221562
176.240784	596.113172	11.836211	-0.043035	1.221341
176.258882	596.101484	11.841216	-0.043039	1.221333
176.151545	596.135638	11.846221	-0.043013	1.221347
176.206714	596.111706	11.851226	-0.043026	1.221334
176.248519	596.111164	11.856231	-0.043036	1.221340
176.197098	596.126897	11.861235	-0.043024	1.221346
176.259058	596.102181	11.866240	-0.043039	1.221333
176.453458	595.908685	11.871245	-0.043086	1.221188
176.433243	595.731858	11.876250	-0.043081	1.221023
176.366236	595.745246	11.881255	-0.043064	1.221024
176.575139	595.714234	11.886259	-0.043115	1.221030
176.430880	595.722864	11.891264	-0.043080	1.221014
176.361028	595.422938	11.896269	-0.043063	1.220729
176.338411	595.413219	11.901274	-0.043057	1.220716
176.173962	595.451317	11.906279	-0.043017	1.220724
176.206835	595.453047	11.911283	-0.043025	1.220731
176.211626	595.438100	11.916288	-0.043026	1.220718
176.191442	595.456884	11.921293	-0.043021	1.220732
176.167297	595.451108	11.926298	-0.043015	1.220722
176.010602	595.479374	11.931303	-0.042976	1.220723
175.993983	595.487706	11.936307	-0.042972	1.220728
176.074713	595.227922	11.941312	-0.042992	1.220503
176.087957	595.113673	11.946317	-0.042995	1.220401
176.078175	595.105083	11.951322	-0.042992	1.220391
176.002653	595.121696	11.956327	-0.042974	1.220394
176.102293	595.108960	11.961331	-0.042998	1.220399
176.005420	595.107875	11.966336	-0.042974	1.220382
176.187967	595.091112	11.971341	-0.043018	1.220396
176.156700	595.090278	11.976346	-0.043011	1.220390
176.200081	595.083134	11.981351	-0.043021	1.220391
176.239611	595.082053	11.986355	-0.043031	1.220396
176.344551	595.052244	11.991360	-0.043056	1.220386
176.263942	594.923079	11.996365	-0.043036	1.220254
176.194054	594.732042	12.001370	-0.043019	1.220068
176.212200	594.731444	12.006375	-0.043023	1.220070
176.251241	594.733860	12.011379	-0.043033	1.220079
176.263323	594.717537	12.016384	-0.043036	1.220066
176.402089	594.706696	12.021389	-0.043069	1.220079
176.345299	594.708111	12.026394	-0.043055	1.220071
176.369772	594.467356	12.031399	-0.043061	1.219854
176.304145	594.376438	12.036403	-0.043045	1.219760
176.077456	594.403455	12.041408	-0.042989	1.219748
176.233416	594.391335	12.046413	-0.043027	1.219762
176.041921	594.413272	12.051418	-0.042981	1.219751
176.113105	594.402108	12.056423	-0.042998	1.219752
176.019806	594.428628	12.061427	-0.042975	1.219761
175.938110	594.433122	12.066432	-0.042955	1.219752
176.023673	594.427497	12.071437	-0.042976	1.219761
175.998567	594.422669	12.076442	-0.042969	1.219752
176.012774	594.423966	12.081447	-0.042973	1.219756
176.034662	594.427306	12.086451	-0.042978	1.219762
176.002305	594.416606	12.091456	-0.042970	1.219747
176.238063	594.391794	12.096461	-0.043028	1.219763
176.193773	594.275759	12.101466	-0.043017	1.219649
176.144306	594.079137	12.106471	-0.043004	1.219461
176.087769	594.096629	12.111475	-0.042990	1.219468
176.055693	594.092278	12.116480	-0.042982	1.219458
176.139126	594.091379	12.121485	-0.043003	1.219471
176.140548	594.074490	12.126490	-0.043003	1.219456
176.048521	594.096006	12.131495	-0.042980	1.219461
176.001816	594.110551	12.136499	-0.042969	1.219466
176.024269	594.091191	12.141504	-0.042974	1.219452
176.067123	594.100426	12.146509	-0.042984	1.219467
176.002327	594.101995	12.151514	-0.042969	1.219458
176.134074	594.081140	12.156519	-0.043001	1.219461
176.192001	594.076944	12.161523	-0.043015	1.219466
176.033406	594.092934	12.166528	-0.042976	1.219455
176.192753	594.076453	12.171533	-0.043015	1.219466
176.238014	593.771920	12.176538	-0.043025	1.219194
176.164444	593.721689	12.181543	-0.043007	1.219136
176.288713	593.704639	12.186547	-0.043038	1.219141
176.369517	593.674282	12.191552	-0.043057	1.219126
176.324901	593.698085	12.196557	-0.043046	1.219140
176.121446	593.726683	12.201562	-0.042996	1.219133
176.155401	593.720365	12.206567	-0.043005	1.219133
176.028433	593.756295	12.211571	-0.042973	1.219145
175.819847	593.778476	12.216576	-0.042922	1.219131
175.788577	593.799133	12.221581	-0.042915	1.219145
175.736952	593.795629	12.226586	-0.042902	1.219133
175.827974	593.780329	12.231591	-0.042924	1.219134
175.861529	593.781158	12.236595	-0.042932	1.219140
175.816674	593.777128	12.241600	-0.042921	1.219129
175.913235	593.772690	12.246605	-0.042945	1.219141
175.905910	593.763503	12.251610	-0.042943	1.219131
176.172539	593.716721	12.256615	-0.043008	1.219132
176.265323	593.713382	12.261619	-0.043030	1.219144
176.366800	593.659306	12.266624	-0.043055	1.219111
176.385890	593.353814	12.271629	-0.043059	1.218834
176.310799	593.359440	12.276634	-0.043041	1.218827
176.424591	593.334199	12.281639	-0.043068	1.218822
176.400947	593.347952	12.286643	-0.043063	1.218831
176.232492	593.362898	12.291648	-0.043021	1.218817
176.217542	593.291156	12.296653	-0.043017	1.218749
176.092032	593.051330	12.301658	-0.042987	1.218509
175.911020	593.086669	12.306663	-0.042942	1.218511
175.831520	593.112086	12.311667	-0.042923	1.218522
175.717235	593.235388	12.316672	-0.042895	1.218616
175.816563	593.454235	12.321677	-0.042919	1.218832
175.809673	593.446507	12.326682	-0.042917	1.218824
175.804081	593.445451	12.331687	-0.042916	1.218822
175.778221	593.459429	12.336691	-0.042909	1.218831
175.964547	593.413327	12.341696	-0.042955	1.218819
176.062555	593.405730	12.346701	-0.042979	1.218828
176.210200	593.376070	12.351706	-0.043015	1.218825
176.324796	593.204274	12.356711	-0.043042	1.218686
176.275089	593.035380	12.361715	-0.043030	1.218523
176.216632	593.026370	12.366720	-0.043016	1.218505
176.266140	593.033978	12.371725	-0.043028	1.218520
176.225808	593.033068	12.376730	-0.043018	1.218513
176.175205	593.042170	12.381735	-0.043005	1.218513
176.107435	593.063961	12.386739	-0.042989	1.218521
176.004712	593.069746	12.391744	-0.042963	1.218510
175.900662	593.099626	12.396749	-0.042938	1.218520
175.792247	593.113072	12.401754	-0.042911	1.218515
175.781328	593.110666	12.406759	-0.042908	1.218511
176.040853	593.076478	12.411763	-0.042972	1.218522
176.075179	593.052285	12.416768	-0.042980	1.218505
176.045116	593.076469	12.421773	-0.042973	1.218522
176.092303	593.058418	12.426778	-0.042984	1.218513
176.347119	592.940122	12.431783	-0.043046	1.218447
176.511637	592.723944	12.436787	-0.043086	1.218275
176.483192	592.713760	12.441792	-0.043079	1.218261
176.487027	592.725592	12.446797	-0.043080	1.218273
176.430986	592.730382	12.451802	-0.043066	1.218268
176.333142	592.389231	12.456807	-0.043042	1.217939
176.339325	592.389909	12.461811	-0.043043	1.217941
176.108173	592.413582	12.466816	-0.042987	1.217925
176.076099	592.436328	12.471821	-0.042979	1.217940
175.954762	592.451232	12.476826	-0.042949	1.217934
175.895158	592.459129	12.481831	-0.042934	1.217931
175.832153	592.476405	12.486835	-0.042919	1.217937
175.717381	592.485539	12.491840	-0.042891	1.217926
175.798405	592.482579	12.496845	-0.042910	1.217937
175.898394	592.459373	12.501850	-0.042935	1.217932
175.932141	592.449004	12.506855	-0.042943	1.217928
176.069216	592.436132	12.511859	-0.042976	1.217938
176.131592	592.412480	12.516864	-0.042991	1.217927
176.361694	592.382933	12.521869	-0.043047	1.217937
176.537803	592.349047	12.526874	-0.043090	1.217935
176.427747	592.294917	12.531879	-0.043063	1.217867
176.531319	592.007103	12.536883	-0.043088	1.217620
176.271858	592.036939	12.541888	-0.043025	1.217605
176.264374	592.048228	12.546893	-0.043023	1.217614
176.216940	592.052509	12.551898	-0.043011	1.217610
176.192956	592.052777	12.556903	-0.043005	1.217606
176.060319	592.088261	12.561907	-0.042973	1.217617
176.000207	592.085437	12.566912	-0.042958	1.217605
176.046753	592.088707	12.571917	-0.042969	1.217615
175.852519	592.118489	12.576922	-0.042922	1.217611
175.907323	592.103513	12.581927	-0.042935	1.217606
175.875352	592.117892	12.586931	-0.042927	1.217614
176.010253	592.083607	12.591936	-0.042960	1.217604
176.119447	592.074086	12.596941	-0.042986	1.217613
176.048050	591.873380	12.601946	-0.042969	1.217418
176.123701	591.719511	12.606951	-0.042987	1.217289
176.207468	591.713670	12.611955	-0.043007	1.217297
176.075667	591.722361	12.616960	-0.042975	1.217283
176.080450	591.737588	12.621965	-0.042976	1.217298
176.066854	591.736260	12.626970	-0.042973	1.217295
175.863839	591.764632	12.631975	-0.042923	1.217287
176.035354	591.745183	12.636979	-0.042965	1.217298
175.992271	591.736006	12.641984	-0.042954	1.217282
175.928456	591.764150	12.646989	-0.042938	1.217297
175.815323	591.779384	12.651994	-0.042911	1.217293
175.785082	591.782643	12.656999	-0.042903	1.217291
175.976863	591.755833	12.662003	-0.042950	1.217297
175.996513	591.739042	12.667008	-0.042955	1.217285
176.102268	591.731237	12.672013	-0.042980	1.217295
176.175928	591.712984	12.677018	-0.042998	1.217290
176.058317	591.730635	12.682023	-0.042969	1.217287
176.166596	591.719826	12.687027	-0.042996	1.217295
176.201672	591.698751	12.692032	-0.043004	1.217281
176.230877	591.705451	12.697037	-0.043011	1.217292
176.232667	591.568685	12.702042	-0.043011	1.217167
176.099096	591.396253	12.707047	-0.042978	1.216987
176.165777	591.395925	12.712051	-0.042995	1.216997
175.995089	591.416492	12.717056	-0.042953	1.216988
175.922063	591.439978	12.722061	-0.042935	1.216998
175.887294	591.441832	12.727066	-0.042926	1.216994
175.826618	591.447542	12.732071	-0.042911	1.216989
175.877973	591.451564	12.737075	-0.042924	1.217001
175.878792	591.436263	12.742080	-0.042924	1.216987
175.929230	591.439683	12.747085	-0.042936	1.216998
176.025497	591.419355	12.752090	-0.042960	1.216995
176.099069	591.397289	12.757095	-0.042977	1.216987
176.131743	591.406005	12.762099	-0.042985	1.217000
176.222972	591.374407	12.767104	-0.043007	1.216986
176.195661	591.385994	12.772109	-0.043001	1.216992
176.265053	591.373268	12.777114	-0.043018	1.216992
176.158608	591.388929	12.782119	-0.042991	1.216989
176.246442	591.385423	12.787123	-0.043013	1.217000
176.005355	591.413442	12.792128	-0.042954	1.216986
176.002459	591.288268	12.797133	-0.042953	1.216871
175.948460	591.070895	12.802138	-0.042939	1.216662
175.789427	591.230958	12.807143	-0.042901	1.216783
175.768177	591.472738	12.812147	-0.042895	1.217001
175.786143	591.451315	12.817152	-0.042900	1.216985
175.859176	591.450024	12.822157	-0.042917	1.216995
175.857903	591.446924	12.827162	-0.042917	1.216992
175.878645	591.439303	12.832167	-0.042922	1.216989
176.082944	591.419192	12.837171	-0.042972	1.217003
176.152812	591.386894	12.842176	-0.042989	1.216985
176.246710	591.371414	12.847181	-0.043012	1.216986
176.283187	591.018682	12.852186	-0.043020	1.216669
176.417377	590.988441	12.857191	-0.043053	1.216663
176.428852	590.995745	12.862195	-0.043055	1.216671
176.224445	591.022502	12.867200	-0.043005	1.216662
176.148022	591.047017	12.872205	-0.042987	1.216672
176.100036	591.048593	12.877210	-0.042975	1.216666
175.960886	591.071876	12.882215	-0.042941	1.216664
175.897614	591.091493	12.887219	-0.042925	1.216672
175.701725	591.113753	12.892224	-0.042877	1.216660
175.786907	591.108844	12.897229	-0.042898	1.216670
175.718265	591.121592	12.902234	-0.042881	1.216670
175.661717	591.122399	12.907239	-0.042867	1.216661
175.661096	591.135433	12.912243	-0.042867	1.216673
175.620035	591.131010	12.917248	-0.042857	1.216662
175.875489	591.096153	12.922253	-0.042919	1.216672
176.083521	591.055718	12.927258	-0.042970	1.216669
176.006859	591.059432	12.932263	-0.042951	1.216660
176.188293	591.041012	12.937267	-0.042995	1.216672
176.256719	591.017143	12.942272	-0.043012	1.216662
176.236829	591.024171	12.947277	-0.043007	1.216665
176.250280	591.024572	12.952282	-0.043010	1.216667
176.129301	591.040020	12.957287	-0.042980	1.216662
176.188934	591.039669	12.962291	-0.042995	1.216671
176.000884	590.726996	12.967296	-0.042948	1.216353
175.809291	590.823853	12.972301	-0.042902	1.216411
175.819468	591.099598	12.977306	-0.042904	1.216665
175.725408	591.106161	12.982311	-0.042881	1.216656
175.806880	591.106933	12.987315	-0.042901	1.216670
175.700087	591.111598	12.992320	-0.042875	1.216656
175.890541	591.087826	12.997325	-0.042921	1.216666
176.013747	591.065840	13.002330	-0.042951	1.216666
175.923691	591.075346	13.007335	-0.042929	1.216660
176.040090	591.066741	13.012339	-0.042957	1.216671
176.042936	591.054741	13.017344	-0.042958	1.216660
176.198741	591.033831	13.022349	-0.042996	1.216666
176.068717	591.056592	13.027354	-0.042964	1.216666
176.169372	590.845098	13.032359	-0.042988	1.216488
176.132532	590.707319	13.037363	-0.042979	1.216356
176.021896	590.715396	13.042368	-0.042952	1.216345
175.962589	590.731071	13.047373	-0.042937	1.216350
175.845532	590.757219	13.052378	-0.042909	1.216354
175.820821	590.753796	13.057383	-0.042903	1.216347
175.856417	590.759770	13.062387	-0.042911	1.216358
175.668215	590.933511	13.067392	-0.042865	1.216487
175.760081	591.108943	13.072397	-0.042888	1.216663
175.742089	591.115463	13.077402	-0.042883	1.216666
175.819590	591.088019	13.082407	-0.042902	1.216653
175.994459	591.075279	13.087411	-0.042945	1.216670
176.066227	591.048772	13.092416	-0.042962	1.216657
176.098734	591.046284	13.097421	-0.042970	1.216660
176.227409	591.031490	13.102426	-0.043001	1.216668
176.210810	590.695376	13.107431	-0.042997	1.216357
176.198875	590.699284	13.112435	-0.042994	1.216358
176.099326	590.705128	13.117440	-0.042969	1.216347
176.162133	590.698339	13.122445	-0.042985	1.216351
175.994067	590.730269	13.127450	-0.042943	1.216353
176.048055	590.707703	13.132455	-0.042956	1.216341
175.873655	590.755222	13.137459	-0.042914	1.216356
175.785651	590.759602	13.142464	-0.042892	1.216345
175.867828	590.751314	13.147469	-0.042912	1.216351
175.866660	590.753386	13.152474	-0.042912	1.216353
175.781228	590.758668	13.157479	-0.042891	1.216344
175.912865	590.748360	13.162483	-0.042923	1.216356
175.971110	590.724184	13.167488	-0.042937	1.216343
176.046263	590.721401	13.172493	-0.042955	1.216353
176.157278	590.703630	13.177498	-0.042982	1.216354
176.066640	590.707375	13.182503	-0.042960	1.216343
176.147464	590.704260	13.187507	-0.042980	1.216353
176.130296	590.695323	13.192512	-0.042975	1.216342
176.078089	590.713560	13.197517	-0.042962	1.216350
175.989165	590.732052	13.202522	-0.042941	1.216353
175.956229	590.728310	13.207527	-0.042932	1.216344
175.958532	590.738183	13.212531	-0.042933	1.216353
175.973191	590.728161	13.217536	-0.042936	1.216346
175.864903	590.753000	13.222541	-0.042910	1.216351
175.943685	590.744976	13.227546	-0.042929	1.216357
175.960903	590.727098	13.232551	-0.042933	1.216343
175.921359	590.750475	13.237555	-0.042923	1.216358
175.911063	590.739972	13.242560	-0.042921	1.216346
176.037885	590.724059	13.247565	-0.042952	1.216353
176.014861	590.730626	13.252570	-0.042946	1.216355
176.089281	590.705265	13.257575	-0.042964	1.216344
176.189972	590.701924	13.262579	-0.042988	1.216357
175.937444	590.737014	13.267584	-0.042927	1.216348
175.949121	590.736540	13.272589	-0.042929	1.216349
176.005604	590.700260	13.277594	-0.042943	1.216325
176.023878	590.373073	13.282599	-0.042947	1.216028
175.977353	590.394376	13.287603	-0.042936	1.216039
175.967859	590.382542	13.292608	-0.042933	1.216027
175.977823	590.387560	13.297613	-0.042936	1.216033
175.930717	590.402674	13.302618	-0.042924	1.216039
175.803562	590.413447	13.307623	-0.042893	1.216028
175.921831	590.407050	13.312627	-0.042922	1.216042
175.881750	590.402034	13.317632	-0.042912	1.216030
175.894411	590.578683	13.322637	-0.042915	1.216195
176.045456	590.540163	13.327642	-0.042952	1.216184
175.897925	590.396660	13.332647	-0.042915	1.216028
176.141236	590.369911	13.337651	-0.042975	1.216043
176.008928	590.381433	13.342656	-0.042942	1.216032
176.020940	590.382259	13.347661	-0.042945	1.216035
176.048890	590.381347	13.352666	-0.042952	1.216038
176.068030	590.368231	13.357671	-0.042956	1.216029
176.141570	590.371004	13.362675	-0.042974	1.216044
176.142315	590.360660	13.367680	-0.042974	1.216034
176.157049	590.359215	13.372685	-0.042978	1.216035
176.249087	590.344573	13.377690	-0.043000	1.216037
176.165156	590.348995	13.382695	-0.042980	1.216027
176.011458	590.390438	13.387699	-0.042942	1.216040
176.048804	590.371524	13.392704	-0.042951	1.216029
175.892689	590.406340	13.397709	-0.042913	1.216035
175.954360	590.398647	13.402714	-0.042928	1.216038
175.863087	590.401233	13.407719	-0.042905	1.216025
175.817423	590.428249	13.412723	-0.042894	1.216043
175.761596	590.428168	13.417728	-0.042880	1.216033
175.799230	590.420001	13.422733	-0.042889	1.216032
175.815137	590.427359	13.427738	-0.042893	1.216041
175.808421	590.414605	13.432743	-0.042891	1.216028
175.856968	590.423198	13.437747	-0.042903	1.216044
175.907553	590.403281	13.442752	-0.042915	1.216034
175.973999	590.394396	13.447757	-0.042931	1.216037
175.944535	590.405002	13.452762	-0.042924	1.216042
176.011482	590.381912	13.457767	-0.042940	1.216031
175.937903	590.403279	13.462771	-0.042922	1.216039
175.867922	590.409464	13.467776	-0.042905	1.216033
175.991454	590.392180	13.472781	-0.042935	1.216037
176.084875	590.382478	13.477786	-0.042958	1.216043
175.939691	590.393577	13.482791	-0.042922	1.216030
176.016407	590.395869	13.487795	-0.042941	1.216044
175.884061	590.406548	13.492800	-0.042909	1.216032
175.950412	590.395979	13.497805	-0.042925	1.216034
176.046022	590.388947	13.502810	-0.042948	1.216043
176.015764	590.384220	13.507815	-0.042940	1.216033
175.980392	590.401322	13.512819	-0.042932	1.216043
176.071003	590.376306	13.517824	-0.042954	1.216035
176.164200	590.361287	13.522829	-0.042976	1.216036
176.110834	590.380069	13.527834	-0.042963	1.216045
175.993508	590.381776	13.532839	-0.042934	1.216027
176.086064	590.195631	13.537843	-0.042957	1.215871
175.988644	590.059639	13.542848	-0.042933	1.215730
175.912864	590.075702	13.547853	-0.042914	1.215733
176.013685	590.068928	13.552858	-0.042939	1.215743
175.910851	590.071456	13.557863	-0.042913	1.215728
175.993707	590.070097	13.562867	-0.042934	1.215741
176.022291	590.056999	13.567872	-0.042940	1.215733
176.141226	590.041213	13.572877	-0.042969	1.215738
176.049986	590.059864	13.577882	-0.042947	1.215740
176.041890	590.048210	13.582887	-0.042945	1.215728
176.230068	590.031121	13.587891	-0.042991	1.215743
176.195542	590.024862	13.592896	-0.042982	1.215732
176.218259	590.024457	13.597901	-0.042988	1.215735
176.214042	590.031322	13.602906	-0.042987	1.215740
176.233880	590.018850	13.607911	-0.042991	1.215732
176.174633	589.903604	13.612915	-0.042977	1.215617
176.210200	589.658077	13.617920	-0.042985	1.215397
176.225633	589.656846	13.622925	-0.042989	1.215398
176.226225	589.671351	13.627930	-0.042989	1.215412
176.092176	589.677329	13.632935	-0.042956	1.215395
176.123345	589.688588	13.637939	-0.042963	1.215410
176.040657	589.691181	13.642944	-0.042943	1.215399
175.902896	589.717368	13.647949	-0.042909	1.215401
176.026959	589.702534	13.652954	-0.042940	1.215407
175.904971	589.714603	13.657959	-0.042910	1.215398
175.937455	589.720103	13.662963	-0.042918	1.215409
175.919044	589.719386	13.667968	-0.042913	1.215405
175.951214	589.709220	13.672973	-0.042921	1.215401
175.931496	589.725478	13.677978	-0.042916	1.215412
175.788137	589.733628	13.682983	-0.042881	1.215396
175.832258	589.739941	13.687987	-0.042891	1.215409
175.911780	589.717586	13.692992	-0.042911	1.215402
175.918146	589.717293	13.697997	-0.042912	1.215402
175.957855	589.716404	13.703002	-0.042922	1.215408
175.990847	589.698102	13.708007	-0.042930	1.215396
176.132720	589.689694	13.713011	-0.042964	1.215412
176.055519	589.693602	13.718016	-0.042945	1.215403
176.145265	589.677412	13.723021	-0.042967	1.215403
176.085068	589.697154	13.728026	-0.042952	1.215411
176.186902	589.664359	13.733031	-0.042977	1.215397
176.169355	589.607059	13.738035	-0.042972	1.215342
176.194614	589.322132	13.743040	-0.042978	1.215084
176.133708	589.331633	13.748045	-0.042963	1.215083
176.187197	589.329643	13.753050	-0.042976	1.215090
176.125270	589.333124	13.758055	-0.042961	1.215083
176.028456	589.359907	13.763059	-0.042937	1.215091
175.952608	589.365192	13.768064	-0.042919	1.215084
176.023566	589.349295	13.773069	-0.042936	1.215080
176.016540	589.361162	13.778074	-0.042934	1.215090
175.790552	589.387374	13.783079	-0.042879	1.215077
175.947731	589.374954	13.788083	-0.042917	1.215091
176.022752	589.355698	13.793088	-0.042935	1.215086
175.984561	589.360126	13.798093	-0.042926	1.215084
176.073978	589.354275	13.803098	-0.042948	1.215093
176.078271	589.339057	13.808103	-0.042949	1.215080
176.185299	589.332697	13.813107	-0.042975	1.215091
176.181509	589.323085	13.818112	-0.042974	1.215082
176.105182	589.335253	13.823117	-0.042955	1.215080
176.189978	589.153766	13.828122	-0.042975	1.214927
176.148934	588.978530	13.833127	-0.042965	1.214760
176.210094	588.981709	13.838131	-0.042980	1.214772
176.104863	588.998611	13.843136	-0.042954	1.214771
175.992464	589.008892	13.848141	-0.042927	1.214762
176.116672	588.999292	13.853146	-0.042957	1.214773
176.098846	588.989980	13.858151	-0.042952	1.214762
176.152800	588.992491	13.863155	-0.042965	1.214773
175.911709	589.028710	13.868160	-0.042906	1.214766
175.783484	589.050564	13.873165	-0.042875	1.214765
175.909356	589.038543	13.878170	-0.042906	1.214775
175.855370	589.030247	13.883175	-0.042892	1.214758
175.978891	589.023148	13.888179	-0.042922	1.214772
175.948879	589.023229	13.893184	-0.042915	1.214767
176.072385	589.000758	13.898189	-0.042945	1.214766
176.081201	589.009116	13.903194	-0.042947	1.214776
176.096703	588.991053	13.908199	-0.042951	1.214761
176.168284	588.994581	13.913203	-0.042968	1.214776
175.990527	589.015591	13.918208	-0.042925	1.214766
176.098609	588.996976	13.923213	-0.042951	1.214767
176.162200	588.995135	13.928218	-0.042966	1.214776
176.000003	588.752029	13.933223	-0.042926	1.214526
175.911047	588.719744	13.938227	-0.042905	1.214481
175.850371	588.932099	13.943232	-0.042890	1.214666
175.829637	589.044427	13.948237	-0.042885	1.214766
175.883905	589.041956	13.953242	-0.042898	1.214773
175.782791	589.043938	13.958247	-0.042873	1.214758
175.985667	589.018940	13.963251	-0.042922	1.214768
176.097862	588.993391	13.968256	-0.042950	1.214763
175.970065	589.018822	13.973261	-0.042918	1.214765
176.182955	588.852229	13.978266	-0.042970	1.214647
176.162789	588.658449	13.983271	-0.042965	1.214466
176.057733	588.690777	13.988275	-0.042939	1.214478
176.142288	588.668123	13.993280	-0.042960	1.214471
176.118502	588.669048	13.998285	-0.042954	1.214468
176.130740	588.681463	14.003290	-0.042957	1.214481
176.055561	588.676444	14.008295	-0.042938	1.214464
176.196219	588.667216	14.013299	-0.042973	1.214479
176.098864	588.674222	14.018304	-0.042949	1.214469
176.209084	588.654885	14.023309	-0.042975	1.214469
176.020328	588.702913	14.028314	-0.042929	1.214482
176.124995	588.663932	14.033319	-0.042955	1.214464
176.102476	588.682550	14.038323	-0.042949	1.214477
176.034821	588.437413	14.043328	-0.042932	1.214241
175.871423	588.360694	14.048333	-0.042892	1.214143
175.871723	588.627749	14.053338	-0.042892	1.214389
175.774146	588.731431	14.058343	-0.042869	1.214468
175.838793	588.730502	14.063347	-0.042884	1.214477
175.864226	588.722814	14.068352	-0.042890	1.214475
175.866572	588.718057	14.073357	-0.042891	1.214470
175.957091	588.710813	14.078362	-0.042913	1.214479
176.064175	588.685327	14.083367	-0.042939	1.214473
175.999200	588.707106	14.088371	-0.042923	1.214482
175.935683	588.715206	14.093376	-0.042907	1.214479
176.024559	588.689488	14.098381	-0.042929	1.214470
176.007499	588.704838	14.103386	-0.042925	1.214481
176.071685	588.518449	14.108391	-0.042940	1.214320
176.090839	588.335280	14.113395	-0.042944	1.214155
176.028040	588.343594	14.118400	-0.042929	1.214152
175.978135	588.346040	14.123405	-0.042917	1.214146
176.007181	588.352565	14.128410	-0.042924	1.214157
175.945259	588.347733	14.133415	-0.042908	1.214142
175.903183	588.370007	14.138419	-0.042898	1.214156
175.826038	588.381729	14.143424	-0.042879	1.214154
175.858708	588.364091	14.148429	-0.042887	1.214143
175.962206	588.363612	14.153434	-0.042912	1.214159
175.949423	588.350094	14.158439	-0.042909	1.214145
175.920982	588.365860	14.163443	-0.042902	1.214154
175.972730	588.351269	14.168448	-0.042914	1.214149
176.040332	588.336396	14.173453	-0.042931	1.214147
176.188359	588.319649	14.178458	-0.042967	1.214156
175.978229	588.343898	14.183463	-0.042915	1.214143
176.237124	588.313224	14.188467	-0.042979	1.214157
176.075705	588.339223	14.193472	-0.042939	1.214155
176.078414	588.332874	14.198477	-0.042940	1.214149
176.140305	588.331839	14.203482	-0.042955	1.214158
176.040449	588.333777	14.208487	-0.042930	1.214144
176.034808	588.349718	14.213491	-0.042929	1.214157
176.002461	588.349201	14.218496	-0.042921	1.214152
175.930619	588.357006	14.223501	-0.042903	1.214147
176.055749	588.346214	14.228506	-0.042933	1.214157
176.097051	588.325931	14.233511	-0.042943	1.214146
176.112684	588.331539	14.238515	-0.042947	1.214153
176.139889	588.263768	14.243520	-0.042954	1.214095
176.005262	588.001044	14.248525	-0.042920	1.213832
176.135217	587.992442	14.253530	-0.042952	1.213845
176.116679	587.980635	14.258535	-0.042947	1.213831
176.123612	587.991018	14.263539	-0.042949	1.213842
176.114231	587.988526	14.268544	-0.042947	1.213838
176.093175	587.984638	14.273549	-0.042941	1.213831
176.016531	588.009513	14.278554	-0.042923	1.213841
176.008871	587.998821	14.283559	-0.042921	1.213830
176.006796	588.010727	14.288563	-0.042920	1.213840
175.937644	588.020261	14.293568	-0.042903	1.213837
175.820522	588.034366	14.298573	-0.042874	1.213831
176.015463	588.012469	14.303578	-0.042922	1.213843
175.935911	588.014267	14.308583	-0.042902	1.213831
175.914643	588.021451	14.313587	-0.042897	1.213835
175.930501	588.018189	14.318592	-0.042901	1.213834
175.915645	588.010309	14.323597	-0.042897	1.213824
176.027891	588.008347	14.328602	-0.042924	1.213841
176.005212	587.999656	14.333607	-0.042919	1.213829
176.091797	587.992768	14.338611	-0.042940	1.213837
176.120993	587.989078	14.343616	-0.042947	1.213838
175.955348	588.012438	14.348621	-0.042906	1.213832
176.055670	588.005390	14.353626	-0.042931	1.213842
176.074622	587.988505	14.358631	-0.042935	1.213830
176.020842	588.005225	14.363635	-0.042922	1.213836
176.082563	587.994288	14.368640	-0.042937	1.213836
176.000406	587.999522	14.373645	-0.042917	1.213828
175.931213	588.002443	14.378650	-0.042900	1.213819
175.844468	588.027084	14.383655	-0.042878	1.213827
175.988301	588.010657	14.388659	-0.042913	1.213836
175.965406	588.014482	14.393664	-0.042908	1.213835
175.887147	588.017832	14.398669	-0.042888	1.213825
175.920961	588.025879	14.403674	-0.042897	1.213838
175.818552	588.033710	14.408679	-0.042871	1.213829
175.817715	588.045395	14.413683	-0.042871	1.213839
175.894297	588.031890	14.418688	-0.042890	1.213839
175.906328	588.019295	14.423693	-0.042893	1.213830
176.009999	588.013856	14.428698	-0.042918	1.213842
176.044203	587.997475	14.433703	-0.042926	1.213832
176.222300	587.973406	14.438707	-0.042969	1.213839
176.178490	587.643534	14.443712	-0.042958	1.213528
176.052324	587.657390	14.448717	-0.042927	1.213520
176.173197	587.648028	14.453722	-0.042957	1.213532
176.215567	587.624506	14.458727	-0.042967	1.213517
176.264152	587.626773	14.463731	-0.042979	1.213527
176.125996	587.651340	14.468736	-0.042945	1.213527
176.115962	587.646844	14.473741	-0.042942	1.213521
176.086854	587.665524	14.478746	-0.042935	1.213533
175.942819	587.679769	14.483751	-0.042900	1.213522
175.859265	587.698409	14.488755	-0.042879	1.213526
175.991918	587.675149	14.493760	-0.042912	1.213526
175.991088	587.670708	14.498765	-0.042911	1.213522
175.809845	587.716626	14.503770	-0.042867	1.213534
175.825541	587.693538	14.508775	-0.042871	1.213516
175.868589	587.697811	14.513779	-0.042881	1.213526
175.942156	587.684249	14.518784	-0.042899	1.213526
175.853208	587.690784	14.523789	-0.042877	1.213517
175.956721	587.684860	14.528794	-0.042902	1.213529
175.864643	587.689407	14.533799	-0.042880	1.213518
175.889652	587.690622	14.538803	-0.042886	1.213523
176.142559	587.652518	14.543808	-0.042947	1.213529
176.029187	587.660866	14.548813	-0.042920	1.213518
175.902253	587.698873	14.553818	-0.042889	1.213532
175.818776	587.697897	14.558823	-0.042868	1.213518
175.879777	587.694215	14.563827	-0.042883	1.213524
175.826547	587.707187	14.568832	-0.042870	1.213527
175.926205	587.681247	14.573837	-0.042894	1.213520
175.944209	587.688124	14.578842	-0.042898	1.213529
176.025278	587.662786	14.583847	-0.042918	1.213519
175.995062	587.670887	14.588851	-0.042910	1.213521
176.015392	587.674633	14.593856	-0.042915	1.213528
175.920790	587.682092	14.598861	-0.042892	1.213519
175.950628	587.691100	14.603866	-0.042899	1.213532
175.943952	587.678368	14.608871	-0.042898	1.213520
175.959211	587.682001	14.613875	-0.042901	1.213525
175.946008	587.689442	14.618880	-0.042898	1.213530
175.830429	587.694620	14.623885	-0.042870	1.213516
175.803349	587.716332	14.628890	-0.042863	1.213531
175.834488	587.696512	14.633895	-0.042870	1.213518
175.821158	587.706351	14.638899	-0.042867	1.213525
175.881954	587.697444	14.643904	-0.042882	1.213526
175.911803	587.682012	14.648909	-0.042889	1.213517
176.084322	587.666996	14.653914	-0.042931	1.213532
175.944899	587.680927	14.658919	-0.042897	1.213521
176.142761	587.650017	14.663923	-0.042945	1.213525
176.198989	587.646847	14.668928	-0.042959	1.213532
176.127006	587.647978	14.673933	-0.042941	1.213521
176.179473	587.653880	14.678938	-0.042954	1.213535
176.082019	587.660405	14.683943	-0.042930	1.213525
176.125896	587.606237	14.688947	-0.042940	1.213482
176.146156	587.399748	14.693952	-0.042945	1.213295
176.002041	587.414095	14.698957	-0.042910	1.213285
175.990065	587.432175	14.703962	-0.042907	1.213299
175.920419	587.432976	14.708967	-0.042890	1.213289
175.921694	587.439274	14.713971	-0.042890	1.213294
176.060558	587.422371	14.718976	-0.042924	1.213302
175.933434	587.429359	14.723981	-0.042892	1.213287
176.033842	587.426786	14.728986	-0.042917	1.213301
175.962652	587.429983	14.733991	-0.042899	1.213292
175.987651	587.427635	14.738995	-0.042905	1.213294
176.051044	587.418264	14.744000	-0.042921	1.213296
176.020810	587.412030	14.749005	-0.042913	1.213285
176.136347	587.404551	14.754010	-0.042941	1.213297
175.954683	587.423564	14.759015	-0.042897	1.213285
175.969963	587.426599	14.764019	-0.042900	1.213290
176.053056	587.419226	14.769024	-0.042921	1.213297
175.998066	587.412660	14.774029	-0.042907	1.213282
176.041055	587.423814	14.779034	-0.042918	1.213299
176.092023	587.402917	14.784039	-0.042930	1.213288
175.999502	587.422563	14.789043	-0.042907	1.213291
175.953697	587.436585	14.794048	-0.042896	1.213296
175.945576	587.426405	14.799053	-0.042894	1.213285
176.100138	587.414505	14.804058	-0.042931	1.213300
176.015165	587.419908	14.809063	-0.042911	1.213291
176.118886	587.404442	14.814067	-0.042936	1.213293
175.983972	587.433351	14.819072	-0.042903	1.213298
175.883177	587.435046	14.824077	-0.042878	1.213283
175.975946	587.437060	14.829082	-0.042901	1.213300
175.907562	587.436618	14.834087	-0.042884	1.213288
175.885166	587.446886	14.839091	-0.042878	1.213294
175.828522	587.460128	14.844096	-0.042864	1.213297
175.896250	587.435900	14.849101	-0.042881	1.213285
175.969360	587.442611	14.854106	-0.042898	1.213303
175.950234	587.433716	14.859111	-0.042894	1.213292
176.126232	587.403652	14.864115	-0.042936	1.213293
176.124420	587.407108	14.869120	-0.042936	1.213296
176.083999	587.058549	14.874125	-0.042926	1.212969
176.140243	587.042565	14.879130	-0.042939	1.212963
176.064129	587.043252	14.884135	-0.042921	1.212951
176.142466	587.037404	14.889139	-0.042940	1.212958
176.143302	587.043439	14.894144	-0.042940	1.212964
176.101666	587.038057	14.899149	-0.042929	1.212952
176.068604	587.057013	14.904154	-0.042921	1.212964
175.914094	587.075595	14.909159	-0.042883	1.212956
175.837654	587.092201	14.914163	-0.042865	1.212958
175.881909	587.093624	14.919168	-0.042875	1.212967
175.929851	587.069623	14.924173	-0.042887	1.212953
175.963886	587.076857	14.929178	-0.042895	1.212965
176.077637	587.044925	14.934183	-0.042923	1.212954
176.049336	587.053786	14.939187	-0.042916	1.212958
176.156544	587.040495	14.944192	-0.042942	1.212963
176.135778	587.032829	14.949197	-0.042937	1.212952
176.058641	587.062876	14.954202	-0.042918	1.212967
175.994457	587.059567	14.959207	-0.042902	1.212954
176.142512	587.040342	14.964211	-0.042938	1.212960
176.215235	586.973581	14.969216	-0.042956	1.212911
176.149460	586.679264	14.974221	-0.042939	1.212629
176.126779	586.698653	14.979226	-0.042934	1.212643
176.112608	586.688541	14.984231	-0.042930	1.212631
175.991937	586.714993	14.989235	-0.042901	1.212636
176.118280	586.698877	14.994240	-0.042931	1.212641
176.021414	586.702340	14.999245	-0.042908	1.212629
176.022682	586.717963	15.004250	-0.042908	1.212643
176.056244	586.702298	15.009255	-0.042916	1.212634
176.072483	586.698374	15.014259	-0.042920	1.212633
176.044673	586.710030	15.019264	-0.042913	1.212639
175.946696	586.711148	15.024269	-0.042889	1.212624
175.970585	586.726803	15.029274	-0.042894	1.212642

175.876127	586.732634	15.034279	-0.042871	1.212632
175.899614	586.728434	15.039283	-0.042877	1.212632
175.913421	586.523749	15.044288	-0.042880	1.212446
175.727259	586.406926	15.049293	-0.042834	1.212308
175.690845	586.425287	15.054298	-0.042825	1.212318
175.678762	586.349197	15.059303	-0.042822	1.212246
175.849993	586.069351	15.064307	-0.042864	1.212017
175.980855	585.920304	15.069312	-0.042896	1.211901
175.975854	585.681141	15.074317	-0.042894	1.211680
175.983824	585.361689	15.079322	-0.042896	1.211387
176.129284	585.066798	15.084327	-0.042931	1.211139
176.241545	584.715487	15.089331	-0.042958	1.210833
176.293134	584.335647	15.094336	-0.042970	1.210492
176.144803	583.896676	15.099341	-0.042934	1.210062
176.113139	583.509187	15.104346	-0.042925	1.209699
176.008408	583.112798	15.109351	-0.042899	1.209316
175.928851	582.703423	15.114355	-0.042880	1.208925
175.808933	582.256780	15.119360	-0.042850	1.208493
175.594090	581.909543	15.124365	-0.042797	1.208137
175.472721	581.488046	15.129370	-0.042767	1.207727
175.278797	581.018717	15.134375	-0.042719	1.207261
175.166993	580.603266	15.139379	-0.042691	1.206858
175.096021	580.145910	15.144384	-0.042674	1.206423
175.221964	579.606903	15.149389	-0.042704	1.205945
175.358251	579.046524	15.154394	-0.042737	1.205449
175.183772	578.508631	15.159399	-0.042694	1.204922
175.434388	577.862999	15.164403	-0.042754	1.204365
175.533233	577.201675	15.169408	-0.042778	1.203768
175.585532	576.590801	15.174413	-0.042790	1.203210
175.764269	575.808926	15.179418	-0.042833	1.202514
175.619109	575.081791	15.184423	-0.042797	1.201815
175.460010	574.348944	15.189427	-0.042758	1.201108
175.282248	573.628369	15.194432	-0.042714	1.200408
175.104505	572.859835	15.199437	-0.042669	1.199664
174.884696	572.166566	15.204442	-0.042615	1.198982
174.712797	571.503190	15.209447	-0.042573	1.198335
174.621125	570.762192	15.214451	-0.042550	1.197629
174.552882	569.996864	15.219456	-0.042532	1.196904
174.333885	569.243859	15.224461	-0.042478	1.196165
174.303364	568.490124	15.229466	-0.042470	1.195456
174.472946	567.615385	15.234471	-0.042511	1.194668
174.606929	566.748071	15.239475	-0.042543	1.193879
174.672004	565.910836	15.244480	-0.042558	1.193107
174.721979	564.937701	15.249485	-0.042569	1.192205
175.039744	563.911732	15.254490	-0.042646	1.191297
174.996281	562.869981	15.259495	-0.042635	1.190313
174.930225	561.832650	15.264499	-0.042618	1.189329
174.779546	560.853655	15.269504	-0.042580	1.188384
174.649336	559.811440	15.274509	-0.042547	1.187383
174.464849	558.786417	15.279514	-0.042501	1.186387
174.134145	557.779318	15.284519	-0.042420	1.185384
173.821923	556.801709	15.289523	-0.042343	1.184410
173.499002	555.919648	15.294528	-0.042263	1.183523
173.264917	554.978627	15.299533	-0.042205	1.182596
173.172155	554.014597	15.304538	-0.042182	1.181670
173.218881	552.991465	15.309543	-0.042192	1.180711
173.259533	551.928838	15.314547	-0.042201	1.179712
173.335901	550.867117	15.319552	-0.042219	1.178720
173.440980	549.756570	15.324557	-0.042244	1.177686
173.775318	548.530191	15.329562	-0.042325	1.176580
173.864464	547.289269	15.334567	-0.042345	1.175417
173.993112	546.003291	15.339571	-0.042376	1.174217
173.976231	544.779935	15.344576	-0.042371	1.173050
173.813754	543.476804	15.349581	-0.042330	1.171782
173.718545	542.179236	15.354586	-0.042306	1.170528
173.390929	540.933137	15.359591	-0.042225	1.169283
173.199664	539.732690	15.364595	-0.042177	1.168104
172.921378	538.502166	15.369600	-0.042108	1.166879
172.548002	537.276751	15.374605	-0.042016	1.165642
172.259958	536.113173	15.379610	-0.041945	1.164477
172.118408	534.981068	15.384615	-0.041909	1.163367
172.001356	533.759290	15.389619	-0.041879	1.162173
171.978483	532.522891	15.394624	-0.041873	1.160981
171.928461	531.244087	15.399629	-0.041860	1.159742
172.053612	529.993422	15.404634	-0.041889	1.158559
172.183806	528.642597	15.409639	-0.041920	1.157279
172.235399	527.249528	15.414643	-0.041932	1.155944
172.466667	525.799103	15.419648	-0.041987	1.154582
172.501333	524.397866	15.424653	-0.041994	1.153233
172.497335	522.917934	15.429658	-0.041992	1.151799
172.272662	521.457861	15.434663	-0.041936	1.150343
172.053018	520.053822	15.439667	-0.041881	1.148941
172.077439	518.591384	15.444672	-0.041886	1.147524
171.685498	517.165287	15.449677	-0.041789	1.146066
171.439390	515.737359	15.454682	-0.041728	1.144631
171.166820	514.408233	15.459687	-0.041660	1.143286
170.846230	513.018373	15.464691	-0.041581	1.141871
170.858514	511.596575	15.469696	-0.041583	1.140482
170.705171	510.173311	15.474701	-0.041544	1.139061
170.588484	508.784375	15.479706	-0.041515	1.137678
170.786128	507.265810	15.484711	-0.041562	1.136222
170.627388	505.768842	15.489715	-0.041522	1.134722
170.821469	504.287957	15.494720	-0.041568	1.133299
170.624032	502.758097	15.499725	-0.041519	1.131755
170.786973	501.157971	15.504730	-0.041557	1.130205
170.725611	499.617005	15.509735	-0.041541	1.128671
170.547807	498.050227	15.514739	-0.041496	1.127088
170.458090	496.469754	15.519744	-0.041473	1.125505
170.297275	494.914001	15.524749	-0.041433	1.123932
169.996938	493.400595	15.529754	-0.041358	1.122373
169.835195	491.827443	15.534759	-0.041317	1.120778
169.660970	490.279426	15.539763	-0.041274	1.119203
169.424062	488.780254	15.544768	-0.041215	1.117664
169.318698	487.190856	15.549773	-0.041188	1.116056
169.174638	485.650853	15.554778	-0.041151	1.114488
169.010100	484.142924	15.559783	-0.041110	1.112947
169.051200	482.516130	15.564787	-0.041119	1.111321
169.031034	480.907481	15.569792	-0.041112	1.109700
168.923146	479.344698	15.574797	-0.041085	1.108107
168.966781	477.690766	15.579802	-0.041094	1.106447
168.963586	476.013130	15.584807	-0.041092	1.104752
168.799565	474.426836	15.589811	-0.041051	1.103118
168.753778	472.740679	15.594816	-0.041038	1.101401
168.739594	471.038119	15.599821	-0.041034	1.099671
168.627167	469.371388	15.604826	-0.041005	1.097957
168.424066	467.680886	15.609831	-0.040954	1.096199
168.242169	466.007677	15.614835	-0.040908	1.094459
167.964072	464.391606	15.619840	-0.040839	1.092758
167.847474	462.693067	15.624845	-0.040809	1.090999
167.775102	461.035170	15.629850	-0.040790	1.089288
167.584854	459.387622	15.634855	-0.040743	1.087562
167.462261	457.670542	15.639859	-0.040711	1.085775
167.464166	456.013660	15.644864	-0.040710	1.084070
167.273015	454.329897	15.649869	-0.040662	1.082298
167.259064	452.585145	15.654874	-0.040658	1.080494
167.149426	450.903148	15.659879	-0.040630	1.078734
167.100482	449.152784	15.664883	-0.040616	1.076911
167.012066	447.402235	15.669888	-0.040593	1.075078
166.969591	445.675727	15.674893	-0.040582	1.073275
166.862341	443.900378	15.679898	-0.040554	1.071406
166.659772	442.167641	15.684903	-0.040503	1.069560
166.565731	440.418888	15.689907	-0.040479	1.067715
166.429554	438.652586	15.694912	-0.040444	1.065840
166.155935	436.941578	15.699917	-0.040376	1.063994
165.918183	435.227536	15.704922	-0.040317	1.062148
165.712110	433.488022	15.709927	-0.040265	1.060278
165.529937	431.796191	15.714931	-0.040219	1.058459
165.437831	430.054735	15.719936	-0.040195	1.056603
165.232441	428.330927	15.724941	-0.040144	1.054740
165.331926	426.581636	15.729946	-0.040167	1.052905
165.170762	424.815515	15.734951	-0.040126	1.050999
164.991303	423.082857	15.739955	-0.040081	1.049122
165.070369	421.297124	15.744960	-0.040099	1.047235
165.044237	419.456412	15.749965	-0.040091	1.045265
164.942048	417.722176	15.754970	-0.040065	1.043391
164.789939	415.907730	15.759975	-0.040026	1.041417
164.735671	414.089367	15.764979	-0.040012	1.039455
164.754609	412.252969	15.769984	-0.040015	1.037484
164.320822	410.461569	15.774989	-0.039907	1.035468
164.167446	408.722325	15.779994	-0.039869	1.033560
164.081791	406.887602	15.784999	-0.039846	1.031559
163.738585	405.145048	15.790003	-0.039761	1.029603
163.546827	403.405410	15.795008	-0.039713	1.027676
163.340089	401.609570	15.800013	-0.039661	1.025681
163.239604	399.907322	15.805018	-0.039635	1.023806
163.148665	398.111268	15.810023	-0.039611	1.021827
163.059653	396.311747	15.815027	-0.039588	1.019841
163.070137	394.519436	15.820032	-0.039590	1.017878
162.947413	392.678702	15.825037	-0.039558	1.015832
162.975512	390.870709	15.830042	-0.039564	1.013848
163.073634	388.975116	15.835047	-0.039586	1.011778
163.031543	387.102420	15.840051	-0.039574	1.009700
162.992564	385.230767	15.845056	-0.039563	1.007620
162.902093	383.311065	15.850061	-0.039540	1.005472
162.747774	381.477487	15.855066	-0.039501	1.003402
162.618944	379.563137	15.860071	-0.039468	1.001242
162.299455	377.738660	15.865075	-0.039388	0.999139
162.058620	375.896617	15.870080	-0.039328	0.997029
161.642117	374.103901	15.875085	-0.039225	0.994932
161.508085	372.303643	15.880090	-0.039191	0.992882
161.188932	370.500935	15.885095	-0.039111	0.990786
160.978347	368.754270	15.890099	-0.039059	0.988771
160.780106	366.971464	15.895104	-0.039009	0.986714
160.641955	365.187272	15.900109	-0.038974	0.984663
160.586328	363.376415	15.905114	-0.038959	0.982595
160.445936	361.576583	15.910119	-0.038923	0.980518
160.619695	359.705653	15.915123	-0.038964	0.978422
160.464589	357.864329	15.920128	-0.038925	0.976285
160.423458	356.028671	15.925133	-0.038913	0.974174
160.374148	354.146350	15.930138	-0.038900	0.972003
160.350361	352.278572	15.935143	-0.038893	0.969850
160.117105	350.421929	15.940147	-0.038834	0.967659
160.081125	348.552187	15.945152	-0.038824	0.965491
159.727755	346.751390	15.950157	-0.038736	0.963330
159.626502	344.877068	15.955162	-0.038710	0.961133
159.299840	343.102400	15.960167	-0.038629	0.958998
159.004983	341.279601	15.965171	-0.038555	0.956809
158.862419	339.502631	15.970176	-0.038519	0.954701
158.717956	337.684937	15.975181	-0.038483	0.952541
158.613730	335.874920	15.980186	-0.038456	0.950393
158.520158	334.067725	15.985191	-0.038431	0.948247
158.419041	332.211788	15.990195	-0.038405	0.946036
158.466179	330.413538	15.995200	-0.038416	0.943921
158.320626	328.541342	16.000205	-0.038379	0.941671
158.302431	326.690374	16.005210	-0.038373	0.939469
158.122398	324.831821	16.010215	-0.038327	0.937217
157.849757	323.017812	16.015219	-0.038259	0.934992
157.800461	321.171818	16.020224	-0.038246	0.932774
157.564796	319.336799	16.025229	-0.038187	0.930521
157.430202	317.517226	16.030234	-0.038153	0.928304
157.371382	315.660892	16.035239	-0.038137	0.926055
157.063843	313.897886	16.040243	-0.038060	0.923857
156.950450	312.051505	16.045248	-0.038031	0.921596
156.621950	310.284086	16.050253	-0.037949	0.919377
156.491395	308.469238	16.055258	-0.037916	0.917140
156.490382	306.658617	16.060263	-0.037915	0.914932
156.309950	304.834710	16.065267	-0.037869	0.912662
156.191223	303.040814	16.070272	-0.037839	0.910436
156.164213	301.193231	16.075277	-0.037831	0.908161
155.925773	299.392649	16.080282	-0.037771	0.905888
155.875728	297.584547	16.085287	-0.037757	0.903645
155.678944	295.740117	16.090291	-0.037708	0.901316
155.627245	293.937821	16.095296	-0.037694	0.899068
155.445182	292.090939	16.100301	-0.037648	0.896728
155.334891	290.286549	16.105306	-0.037620	0.894452
155.014763	288.499905	16.110311	-0.037540	0.892143
154.861115	286.710090	16.115315	-0.037501	0.889863
154.740141	284.906048	16.120320	-0.037470	0.887567
154.383024	283.168673	16.125325	-0.037382	0.885294
154.157887	281.421041	16.130330	-0.037325	0.883033
154.096783	279.639938	16.135335	-0.037309	0.880762
153.825703	277.896874	16.140339	-0.037241	0.878484
153.847110	276.103994	16.145344	-0.037245	0.876206
153.414677	274.403282	16.150349	-0.037138	0.873932
153.144291	272.679090	16.155354	-0.037071	0.871660
152.952659	271.006304	16.160359	-0.037023	0.869468
152.865189	269.239750	16.165363	-0.037000	0.867174
152.738257	267.555856	16.170368	-0.036968	0.864971
152.524871	265.835412	16.175373	-0.036914	0.862695
152.192507	264.171447	16.180378	-0.036832	0.860456
151.855632	262.521124	16.185383	-0.036748	0.858229
151.722396	260.828498	16.190387	-0.036714	0.855990
151.505802	259.192199	16.195392	-0.036660	0.853798
151.100042	257.564089	16.200397	-0.036560	0.851565
150.780849	256.002235	16.205402	-0.036481	0.849435
150.510494	254.394732	16.210407	-0.036413	0.847251
150.134752	252.873126	16.215411	-0.036320	0.845149
149.740184	251.344330	16.220416	-0.036223	0.843027
149.590914	249.793672	16.225421	-0.036185	0.840933
149.271927	248.291645	16.230426	-0.036106	0.838855
149.020252	246.765628	16.235431	-0.036043	0.836757
148.581500	245.337150	16.240435	-0.035935	0.834736
148.409298	243.852283	16.245440	-0.035892	0.832703
147.948403	242.434272	16.250445	-0.035778	0.830682
147.442100	241.073971	16.255450	-0.035653	0.828721
147.196721	239.666256	16.260455	-0.035592	0.826759
146.631008	238.382495	16.265459	-0.035453	0.824878
146.302324	237.043647	16.270464	-0.035372	0.822978
145.790080	235.773221	16.275469	-0.035245	0.821120
145.524099	234.495546	16.280474	-0.035179	0.819311
144.805748	233.316181	16.285479	-0.035003	0.817516
144.283757	232.160795	16.290483	-0.034874	0.815800
144.050768	230.990109	16.295488	-0.034817	0.814134
143.683850	229.813062	16.300493	-0.034726	0.812422
143.252978	228.717072	16.305498	-0.034620	0.810801
142.892734	227.627352	16.310503	-0.034531	0.809204
142.206645	226.597027	16.315507	-0.034362	0.807600
141.826000	225.595582	16.320512	-0.034269	0.806114
141.465705	224.603139	16.325517	-0.034180	0.804642
141.137189	223.602044	16.330522	-0.034099	0.803164
140.621510	222.648521	16.335527	-0.033972	0.801700
140.197260	221.754553	16.340531	-0.033868	0.800341
139.786544	220.847424	16.345536	-0.033766	0.798965
139.206180	219.996013	16.350541	-0.033624	0.797619
138.944265	219.130641	16.355546	-0.033559	0.796336
138.459269	218.357354	16.360551	-0.033440	0.795121
138.013669	217.551561	16.365555	-0.033331	0.793869
137.736776	216.752838	16.370560	-0.033262	0.792670
137.321455	215.994953	16.375565	-0.033160	0.791490
136.970213	215.281397	16.380570	-0.033074	0.790387
136.598074	214.558680	16.385575	-0.032982	0.789265
136.267547	213.827904	16.390579	-0.032901	0.788141
135.912422	213.138553	16.395584	-0.032813	0.787067
135.497690	212.497335	16.400589	-0.032711	0.786044
134.946599	211.916848	16.405594	-0.032576	0.785069
134.710692	211.277442	16.410599	-0.032518	0.784095
134.203476	210.686274	16.415603	-0.032394	0.783114
134.025755	210.068429	16.420608	-0.032350	0.782184
133.685424	209.496160	16.425613	-0.032266	0.781273
133.295519	208.965381	16.430618	-0.032170	0.780408
133.058199	208.403359	16.435623	-0.032112	0.779538
132.825464	207.840392	16.440627	-0.032054	0.778667
132.485177	207.290797	16.445632	-0.031971	0.777785
132.191840	206.775324	16.450637	-0.031899	0.776963
131.979151	206.270748	16.455642	-0.031846	0.776179
131.817830	205.739441	16.460647	-0.031806	0.775369
131.471756	205.247294	16.465651	-0.031721	0.774565
131.131866	204.757211	16.470656	-0.031638	0.773764
130.915272	204.270117	16.475661	-0.031584	0.773000
130.794886	203.733373	16.480666	-0.031555	0.772191
130.359422	203.315407	16.485671	-0.031448	0.771466
129.995891	202.908760	16.490675	-0.031358	0.770776
129.878258	202.431193	16.495680	-0.031329	0.770051
129.453994	202.023803	16.500685	-0.031225	0.769342
129.176078	201.608788	16.505690	-0.031157	0.768662
128.977050	201.174607	16.510695	-0.031108	0.767975
128.611832	200.774710	16.515699	-0.031018	0.767292
128.427128	200.378810	16.520704	-0.030973	0.766663
128.096121	200.040629	16.525709	-0.030892	0.766078
127.802681	199.681089	16.530714	-0.030819	0.765472
127.627583	199.301494	16.535719	-0.030776	0.764869
127.295561	198.941360	16.540723	-0.030695	0.764250
127.081671	198.582546	16.545728	-0.030642	0.763665
126.870446	198.220286	16.550733	-0.030590	0.763076
126.712608	197.854483	16.555738	-0.030551	0.762496
126.360317	197.540607	16.560743	-0.030465	0.761937
126.150442	197.205225	16.565747	-0.030413	0.761386
126.096588	196.875590	16.570752	-0.030400	0.760887
125.876022	196.508843	16.575757	-0.030346	0.760286
125.577311	196.190795	16.580762	-0.030272	0.759735
125.452303	195.850088	16.585767	-0.030241	0.759198
125.128348	195.538127	16.590771	-0.030162	0.758648
125.046139	195.179283	16.595776	-0.030141	0.758096
124.806810	194.859197	16.600781	-0.030083	0.757557
124.667196	194.532896	16.605786	-0.030048	0.757036
124.646562	194.155917	16.610791	-0.030043	0.756473
124.460548	193.847021	16.615795	-0.029997	0.755964
124.394707	193.486139	16.620800	-0.029981	0.755411
124.318600	193.102188	16.625805	-0.029962	0.754821
124.076180	192.746536	16.630810	-0.029902	0.754226
123.823501	192.423885	16.635815	-0.029840	0.753676
123.671631	192.034708	16.640819	-0.029802	0.753056
123.499798	191.689652	16.645824	-0.029760	0.752494
123.133983	191.378305	16.650829	-0.029670	0.751928
122.764733	191.105413	16.655834	-0.029580	0.751418
122.613774	190.828729	16.660839	-0.029543	0.750963
122.255890	190.529715	16.665843	-0.029455	0.750416
122.070966	190.261476	16.670848	-0.029409	0.749964
121.967109	189.901093	16.675853	-0.029384	0.749397
121.763968	189.621890	16.680858	-0.029334	0.748922
121.572344	189.323460	16.685863	-0.029287	0.748422
121.403035	188.995689	16.690867	-0.029245	0.747884
121.327167	188.698299	16.695872	-0.029226	0.747418
121.058437	188.378828	16.700877	-0.029160	0.746863
120.967945	188.084443	16.705882	-0.029138	0.746396
120.808607	187.826475	16.710887	-0.029098	0.745964
120.494061	187.498453	16.715891	-0.029021	0.745382
120.315430	187.235975	16.720896	-0.028977	0.744938
120.052858	186.934306	16.725901	-0.028913	0.744409
119.991752	186.623525	16.730906	-0.028898	0.743925
119.915032	186.317017	16.735911	-0.028878	0.743442
119.632163	185.991770	16.740915	-0.028809	0.742872
119.557023	185.701383	16.745920	-0.028790	0.742413
119.253465	185.409196	16.750925	-0.028716	0.741885
118.982150	185.144505	16.755930	-0.028649	0.741408
118.732883	184.915806	16.760935	-0.028588	0.740992
118.528999	184.614375	16.765939	-0.028538	0.740478
118.344094	184.353114	16.770944	-0.028493	0.740030
118.192900	184.058050	16.775949	-0.028455	0.739540
117.929171	183.804028	16.780954	-0.028391	0.739080
117.757011	183.540550	16.785959	-0.028348	0.738632
117.519246	183.262954	16.790963	-0.028290	0.738142
117.601070	182.949636	16.795968	-0.028309	0.737691
117.461268	182.664143	16.800973	-0.028275	0.737218
117.353327	182.345428	16.805978	-0.028248	0.736703
117.284204	182.083025	16.810983	-0.028231	0.736284
116.939777	181.784110	16.815987	-0.028147	0.735731
116.841100	181.496244	16.820992	-0.028122	0.735264
116.596001	181.213900	16.825997	-0.028062	0.734763
116.604962	180.869548	16.831002	-0.028064	0.734242
116.467814	180.577551	16.836007	-0.028030	0.733757
116.041676	180.282841	16.841011	-0.027926	0.733184
115.662502	180.068468	16.846016	-0.027833	0.732746
115.539751	179.775973	16.851021	-0.027802	0.732264
115.200099	179.558219	16.856026	-0.027719	0.731832
115.074690	179.280159	16.861031	-0.027688	0.731371
114.709177	179.105799	16.866035	-0.027599	0.730997
114.647691	178.822893	16.871040	-0.027583	0.730546
114.535092	178.554344	16.876045	-0.027556	0.730102
114.374803	178.293993	16.881050	-0.027516	0.729656
114.133899	178.035142	16.886055	-0.027457	0.729189
113.843252	177.820608	16.891059	-0.027386	0.728775
113.846974	177.513470	16.896064	-0.027386	0.728304
113.590303	177.280095	16.901069	-0.027323	0.727871
113.364336	177.040987	16.906074	-0.027268	0.727437
113.411665	176.732648	16.911079	-0.027279	0.726976
113.453679	176.429112	16.916083	-0.027289	0.726522
113.349278	176.177138	16.921088	-0.027263	0.726103
113.247000	175.850572	16.926093	-0.027238	0.725569
113.092230	175.559524	16.931098	-0.027200	0.725075
113.039042	175.213979	16.936103	-0.027186	0.724526
112.724777	174.934003	16.941107	-0.027109	0.724001
112.678063	174.620828	16.946112	-0.027098	0.723503
112.418287	174.308447	16.951117	-0.027034	0.722944
112.205439	174.013669	16.956122	-0.026981	0.722425
111.804544	173.788860	16.961127	-0.026883	0.721958
111.458577	173.528349	16.966131	-0.026798	0.721452
111.023723	173.378371	16.971136	-0.026692	0.721091
110.908904	173.108067	16.976141	-0.026664	0.720637
110.701622	172.855688	16.981146	-0.026613	0.720184
110.498170	172.646216	16.986151	-0.026563	0.719798
110.146628	172.418444	16.991155	-0.026476	0.719340
110.106087	172.169457	16.996160	-0.026466	0.718940
109.962802	171.938763	17.001165	-0.026431	0.718539
109.979775	171.626422	17.006170	-0.026435	0.718057
109.936116	171.361563	17.011175	-0.026424	0.717631
109.795116	171.072550	17.016179	-0.026389	0.717139
109.550549	170.830578	17.021184	-0.026329	0.716688
109.478314	170.584994	17.026189	-0.026311	0.716283
109.386538	170.289337	17.031194	-0.026288	0.715794
109.183921	170.011955	17.036199	-0.026239	0.715300
109.012405	169.746717	17.041203	-0.026196	0.714834
108.883961	169.437912	17.046208	-0.026165	0.714312
108.757779	169.168374	17.051213	-0.026134	0.713852
108.381811	168.895237	17.056218	-0.026041	0.713311
108.173136	168.661912	17.061223	-0.025990	0.712882
107.905814	168.394215	17.066227	-0.025925	0.712382
107.765134	168.163674	17.071232	-0.025890	0.711978
107.682079	167.869201	17.076237	-0.025869	0.711490
107.455002	167.672056	17.081242	-0.025814	0.711112
107.209508	167.394949	17.086247	-0.025753	0.710602
107.125988	167.140716	17.091251	-0.025733	0.710176
106.920465	166.860222	17.096256	-0.025682	0.709672
106.607008	166.649070	17.101261	-0.025605	0.709245
106.492196	166.376261	17.106266	-0.025577	0.708780
106.417591	166.104271	17.111271	-0.025558	0.708328
106.384462	165.798760	17.116275	-0.025550	0.707835
106.131394	165.562377	17.121280	-0.025488	0.707385
105.969852	165.282948	17.126285	-0.025448	0.706894
105.757701	165.064325	17.131290	-0.025396	0.706484
105.679290	164.789960	17.136295	-0.025377	0.706025
105.496189	164.519340	17.141299	-0.025331	0.705541
105.410535	164.216148	17.146304	-0.025310	0.705034
105.139074	163.977840	17.151309	-0.025244	0.704573
104.878984	163.698054	17.156314	-0.025180	0.704050
104.806181	163.441545	17.161319	-0.025162	0.703620
104.712456	163.119042	17.166323	-0.025138	0.703078
104.601972	162.840939	17.171328	-0.025111	0.702602
104.323888	162.587034	17.176333	-0.025043	0.702113
103.996509	162.343602	17.181338	-0.024963	0.701625
103.951849	162.100319	17.186343	-0.024951	0.701223
103.697934	161.811707	17.191347	-0.024889	0.700685
103.579234	161.564642	17.196352	-0.024860	0.700254
103.456473	161.244308	17.201357	-0.024830	0.699705
103.145462	161.026188	17.206362	-0.024753	0.699261
103.002718	160.746733	17.211367	-0.024718	0.698770
102.675059	160.520580	17.216371	-0.024638	0.698307
102.486675	160.254463	17.221376	-0.024591	0.697823
102.281011	160.040032	17.226381	-0.024541	0.697416
102.067814	159.769083	17.231386	-0.024489	0.696915
101.926991	159.570485	17.236391	-0.024454	0.696553
101.795279	159.307756	17.241395	-0.024421	0.696091
101.654510	159.048990	17.246400	-0.024387	0.695631
101.527374	158.788488	17.251405	-0.024355	0.695173
101.397137	158.512434	17.256410	-0.024323	0.694688
101.499473	158.196620	17.261415	-0.024348	0.694211
101.342124	157.913345	17.266419	-0.024309	0.693706
101.393556	157.553614	17.271424	-0.024321	0.693141
101.200071	157.270006	17.276429	-0.024274	0.692623
100.987154	156.974859	17.281434	-0.024221	0.692080
100.682624	156.735427	17.286439	-0.024147	0.691599
100.284671	156.494456	17.291443	-0.024049	0.691086
99.955733	156.279310	17.296448	-0.023969	0.690635
99.743109	156.017156	17.301453	-0.023916	0.690144
99.246074	155.832587	17.306458	-0.023795	0.689691
98.965778	155.649489	17.311463	-0.023726	0.689306
98.799592	155.401922	17.316467	-0.023685	0.688853
98.661457	155.185289	17.321472	-0.023651	0.688458
98.461323	154.988055	17.326477	-0.023602	0.688075
98.193695	154.770624	17.331482	-0.023536	0.687638
98.314592	154.501693	17.336487	-0.023566	0.687237
98.305916	154.242225	17.341491	-0.023563	0.686812
98.153984	154.019146	17.346496	-0.023526	0.686401
98.017946	153.781357	17.351501	-0.023492	0.685971
97.957863	153.465645	17.356506	-0.023477	0.685437
97.954498	153.196171	17.361511	-0.023476	0.684996
97.985732	152.857716	17.366515	-0.023483	0.684452
97.815377	152.557231	17.371520	-0.023441	0.683907
97.559756	152.288832	17.376525	-0.023379	0.683388
97.210847	152.037727	17.381530	-0.023293	0.682867
97.054444	151.758965	17.386535	-0.023255	0.682361
96.744925	151.532631	17.391539	-0.023179	0.681892
96.629056	151.276383	17.396544	-0.023150	0.681435
96.411210	151.035338	17.401549	-0.023097	0.680971
96.181000	150.755013	17.406554	-0.023040	0.680437
96.207508	150.473076	17.411559	-0.023046	0.679982
95.993409	150.203651	17.416563	-0.022994	0.679471
95.776540	149.932105	17.421568	-0.022940	0.678955
95.683753	149.661316	17.426573	-0.022917	0.678479
95.399049	149.387265	17.431578	-0.022848	0.677937
95.484287	149.084209	17.436583	-0.022868	0.677463
95.311785	148.801184	17.441587	-0.022826	0.676941
95.367450	148.492605	17.446592	-0.022839	0.676448
95.231388	148.173986	17.451597	-0.022805	0.675878
95.059790	147.868168	17.456602	-0.022763	0.675317
95.113567	147.511902	17.461607	-0.022776	0.674743
94.603251	147.266687	17.466611	-0.022651	0.674174
94.332827	146.963450	17.471616	-0.022584	0.673584
94.044696	146.711175	17.476621	-0.022514	0.673073
93.852035	146.442907	17.481626	-0.022466	0.672565
93.543779	146.180243	17.486631	-0.022391	0.672030
93.175426	146.004237	17.491635	-0.022301	0.671619
93.153622	145.714337	17.496640	-0.022295	0.671129
92.826734	145.483988	17.501645	-0.022215	0.670640
92.639272	145.240762	17.506650	-0.022169	0.670174
92.539186	144.970755	17.511655	-0.022144	0.669691
92.384695	144.717665	17.516659	-0.022106	0.669218
92.380468	144.400851	17.521664	-0.022105	0.668687
92.083869	144.173451	17.526669	-0.022032	0.668211
92.106730	143.855068	17.531674	-0.022037	0.667684
92.045003	143.559130	17.536679	-0.022022	0.667168
91.910090	143.298410	17.541683	-0.021988	0.666687
91.807617	143.001175	17.546688	-0.021963	0.666155
91.667669	142.686798	17.551693	-0.021929	0.665581
91.256560	142.438583	17.556698	-0.021828	0.665031
91.083800	142.182227	17.561703	-0.021785	0.664544
90.800798	141.903021	17.566707	-0.021716	0.663982
90.710629	141.614515	17.571712	-0.021694	0.663466
90.622244	141.340379	17.576717	-0.021672	0.662975
90.577522	141.004791	17.581722	-0.021660	0.662394
90.275804	140.759790	17.586727	-0.021586	0.661882
89.882749	140.554253	17.591731	-0.021490	0.661406
89.719899	140.267982	17.596736	-0.021450	0.660869
89.696224	139.979246	17.601741	-0.021444	0.660372
89.366836	139.736930	17.606746	-0.021363	0.659854
89.248660	139.450040	17.611751	-0.021334	0.659328
89.086608	139.177950	17.616755	-0.021294	0.658813
88.939328	138.906227	17.621760	-0.021258	0.658304
88.780091	138.620334	17.626765	-0.021219	0.657765
88.630262	138.346604	17.631770	-0.021182	0.657250
88.517324	138.102197	17.636775	-0.021154	0.656797
88.291979	137.810272	17.641779	-0.021098	0.656225
88.114055	137.544799	17.646784	-0.021055	0.655714
87.813335	137.316839	17.651789	-0.020981	0.655226
87.615249	137.024378	17.656794	-0.020932	0.654661
87.506758	136.774864	17.661799	-0.020905	0.654199
87.508905	136.457987	17.666803	-0.020906	0.653657
87.419155	136.141909	17.671808	-0.020883	0.653086
87.257294	135.862244	17.676813	-0.020843	0.652553
87.204538	135.553500	17.681818	-0.020830	0.652006
87.133568	135.270830	17.686823	-0.020813	0.651497
86.929965	134.960084	17.691827	-0.020763	0.650896
86.859816	134.630074	17.696832	-0.020745	0.650305
86.763265	134.302910	17.701837	-0.020721	0.649709
86.383510	134.024290	17.706842	-0.020628	0.649103
86.187701	133.729744	17.711847	-0.020580	0.648530
85.872892	133.466708	17.716851	-0.020503	0.647972
85.583640	133.205280	17.721856	-0.020432	0.647424
85.274110	132.968635	17.726861	-0.020356	0.646912
85.002273	132.756907	17.731866	-0.020289	0.646455
84.943631	132.472594	17.736871	-0.020275	0.645943
84.605582	132.227266	17.741875	-0.020192	0.645405
84.594037	131.941610	17.746880	-0.020189	0.644905
84.556682	131.647496	17.751885	-0.020179	0.644382
84.425412	131.335482	17.756890	-0.020147	0.643796
84.350026	131.043948	17.761895	-0.020128	0.643263
84.237114	130.745669	17.766899	-0.020100	0.642706
84.145434	130.435777	17.771904	-0.020077	0.642135
83.926699	130.179359	17.776909	-0.020024	0.641615
83.738422	129.860987	17.781914	-0.019977	0.640996
83.677571	129.555294	17.786919	-0.019962	0.640441
83.430308	129.258595	17.791923	-0.019901	0.639839
83.264740	128.964801	17.796928	-0.019861	0.639269
83.064177	128.671011	17.801933	-0.019811	0.638687
82.743702	128.408473	17.806938	-0.019733	0.638119
82.764625	128.073251	17.811943	-0.019737	0.637537
82.544731	127.798280	17.816947	-0.019683	0.636980
82.253921	127.554241	17.821952	-0.019612	0.636452
81.968190	127.300346	17.826957	-0.019542	0.635909
81.595530	127.058846	17.831962	-0.019451	0.635357
81.492609	126.776521	17.836967	-0.019425	0.634825
81.245906	126.534701	17.841971	-0.019365	0.634314
81.206738	126.232113	17.846976	-0.019355	0.633767
81.021653	125.953987	17.851981	-0.019309	0.633212
80.832388	125.695603	17.856986	-0.019263	0.632691
80.829546	125.402410	17.861991	-0.019262	0.632171
80.611904	125.159884	17.866995	-0.019208	0.631667
80.513551	124.844479	17.872000	-0.019184	0.631074
80.459546	124.546580	17.877005	-0.019170	0.630527
80.243418	124.250241	17.882010	-0.019117	0.629926
80.114950	123.964991	17.887015	-0.019086	0.629375
79.903445	123.668234	17.892019	-0.019034	0.628775
79.887020	123.339402	17.897024	-0.019029	0.628183
79.572339	123.066684	17.902029	-0.018952	0.627589
79.288875	122.817705	17.907034	-0.018882	0.627047
79.122493	122.575823	17.912039	-0.018842	0.626558
78.985748	122.273698	17.917043	-0.018808	0.625971
78.826941	121.992764	17.922048	-0.018769	0.625413
78.695500	121.689811	17.927053	-0.018736	0.624825
78.557875	121.379850	17.932058	-0.018702	0.624222
78.606252	121.042292	17.937063	-0.018714	0.623633
78.399622	120.742869	17.942067	-0.018663	0.623024
78.269238	120.426482	17.947072	-0.018631	0.622410
78.175784	120.130835	17.952077	-0.018608	0.621845
77.867692	119.835877	17.957082	-0.018532	0.621207
77.741839	119.530094	17.962087	-0.018501	0.620612
77.517634	119.227180	17.967091	-0.018446	0.619987
77.320261	118.933337	17.972096	-0.018397	0.619388
77.280706	118.594315	17.977101	-0.018387	0.618761
77.120056	118.277322	17.982106	-0.018348	0.618131
76.794101	118.004396	17.987111	-0.018268	0.617522
76.578987	117.742014	17.992115	-0.018215	0.616971
76.302600	117.469188	17.997120	-0.018147	0.616379
76.028032	117.206032	18.002125	-0.018080	0.615805
75.527509	116.976481	18.007130	-0.017957	0.615212
75.356289	116.734700	18.012135	-0.017915	0.614711
75.120248	116.499250	18.017139	-0.017857	0.614199
74.989124	116.204151	18.022144	-0.017825	0.613615
74.741901	115.988290	18.027149	-0.017764	0.613134
74.598153	115.731182	18.032154	-0.017729	0.612613
74.507289	115.467077	18.037159	-0.017706	0.612098
74.376467	115.220948	18.042163	-0.017674	0.611602
74.351592	114.926174	18.047168	-0.017668	0.611053
74.241233	114.649628	18.052173	-0.017640	0.610507
73.939176	114.378327	18.057178	-0.017566	0.609902
73.881404	114.097038	18.062183	-0.017552	0.609365
73.576294	113.844330	18.067187	-0.017477	0.608792
73.457861	113.577216	18.072192	-0.017448	0.608259
73.379274	113.284400	18.077197	-0.017428	0.607692
73.183247	113.020344	18.082202	-0.017380	0.607135
73.020854	112.777700	18.087207	-0.017340	0.606630
73.094440	112.439321	18.092211	-0.017358	0.606031
72.998103	112.127805	18.097216	-0.017334	0.605420
72.993019	111.795030	18.102221	-0.017332	0.604803
72.885313	111.462412	18.107226	-0.017306	0.604148
72.592515	111.179215	18.112231	-0.017234	0.603518
72.372234	110.879415	18.117235	-0.017180	0.602883
72.122068	110.602598	18.122240	-0.017118	0.602279
71.867904	110.355006	18.127245	-0.017056	0.601727
71.695181	110.051739	18.132250	-0.017013	0.601100
71.606115	109.750906	18.137255	-0.016991	0.600507
71.410645	109.451648	18.142259	-0.016943	0.599879
71.135915	109.182399	18.147264	-0.016876	0.599277
70.963700	108.896507	18.152269	-0.016833	0.598680
70.779608	108.602783	18.157274	-0.016788	0.598064
70.700370	108.303945	18.162279	-0.016768	0.597475
70.561042	108.040619	18.167283	-0.016734	0.596931
70.250555	107.762642	18.172288	-0.016658	0.596297
70.180458	107.467897	18.177293	-0.016640	0.595718
70.034056	107.155483	18.182298	-0.016604	0.595077
70.058982	106.827109	18.187303	-0.016610	0.594467
69.724168	106.543586	18.192307	-0.016528	0.593811
69.479070	106.266010	18.197312	-0.016468	0.593198
69.375567	105.966043	18.202317	-0.016442	0.592594
69.171705	105.704976	18.207322	-0.016392	0.592026
68.936224	105.427977	18.212327	-0.016334	0.591415
68.621046	105.175238	18.217331	-0.016257	0.590821
68.346042	104.914637	18.222336	-0.016189	0.590226
68.150819	104.659099	18.227341	-0.016141	0.589670
68.040246	104.359627	18.232346	-0.016114	0.589060
67.898939	104.080345	18.237351	-0.016079	0.588477
67.690316	103.811902	18.242355	-0.016028	0.587889
67.653924	103.526516	18.247360	-0.016019	0.587332
67.575659	103.253600	18.252365	-0.015999	0.586782
67.391361	102.953497	18.257370	-0.015954	0.586141
67.220045	102.669418	18.262375	-0.015912	0.585535
66.959126	102.400115	18.267379	-0.015848	0.584923
66.717672	102.131119	18.272384	-0.015788	0.584318
66.618605	101.839948	18.277389	-0.015764	0.583723
66.418844	101.562380	18.282394	-0.015715	0.583116
66.288395	101.280734	18.287399	-0.015683	0.582526
66.270978	100.988892	18.292403	-0.015678	0.581958
66.031089	100.695078	18.297408	-0.015619	0.581303
65.885874	100.412186	18.302413	-0.015583	0.580704
65.572460	100.141358	18.307418	-0.015507	0.580064
65.599399	99.826313	18.312423	-0.015513	0.579466
65.521582	99.503700	18.317427	-0.015493	0.578813
65.421221	99.187597	18.322432	-0.015469	0.578163
65.267316	98.883744	18.327437	-0.015431	0.577516
65.144914	98.591150	18.332442	-0.015400	0.576903
65.076438	98.257592	18.337447	-0.015383	0.576229
64.736101	97.976598	18.342451	-0.015300	0.575554
64.580342	97.668512	18.347456	-0.015262	0.574896
64.338560	97.378496	18.352461	-0.015202	0.574239
64.065533	97.095106	18.357466	-0.015135	0.573583
64.006145	96.782347	18.362471	-0.015120	0.572950
63.838826	96.500296	18.367475	-0.015079	0.572335
63.586953	96.223569	18.372480	-0.015017	0.571698
63.367471	95.942622	18.377485	-0.014963	0.571064
63.343279	95.606646	18.382490	-0.014957	0.570395
62.960013	95.359585	18.387495	-0.014863	0.569764
62.845089	95.052892	18.392499	-0.014835	0.569117
62.579679	94.783268	18.397504	-0.014770	0.568485
62.360188	94.515954	18.402509	-0.014716	0.567874
62.238108	94.246356	18.407514	-0.014686	0.567295
62.146363	93.955555	18.412519	-0.014663	0.566686
62.091896	93.637842	18.417523	-0.014649	0.566037
61.704332	93.382402	18.422528	-0.014554	0.565382
61.653626	93.082669	18.427533	-0.014541	0.564769
61.557598	92.757736	18.432538	-0.014518	0.564087
61.455103	92.455967	18.437543	-0.014492	0.563448
61.269027	92.158215	18.442547	-0.014447	0.562784
61.033871	91.896618	18.447552	-0.014389	0.562172
60.977480	91.579814	18.452557	-0.014375	0.561519
60.714135	91.294837	18.457562	-0.014310	0.560848
60.585067	90.987849	18.462567	-0.014278	0.560185
60.383233	90.690184	18.467571	-0.014229	0.559511
60.196200	90.390143	18.472576	-0.014183	0.558838
60.168463	90.070337	18.477581	-0.014175	0.558185
59.772216	89.820816	18.482586	-0.014078	0.557530
59.805548	89.513168	18.487591	-0.014086	0.556925
59.554375	89.227472	18.492595	-0.014024	0.556252
59.227371	88.956063	18.497600	-0.013944	0.555577
59.012646	88.687085	18.502605	-0.013892	0.554951
58.780585	88.403063	18.507610	-0.013835	0.554286
58.390736	88.172945	18.512615	-0.013739	0.553668
58.272667	87.895844	18.517619	-0.013710	0.553061
58.096437	87.641686	18.522624	-0.013666	0.552477
58.065927	87.365616	18.527629	-0.013659	0.551905
57.879784	87.084175	18.532634	-0.013613	0.551260
57.804126	86.789974	18.537639	-0.013594	0.550632
57.803422	86.473380	18.542643	-0.013594	0.549987
57.704111	86.149584	18.547648	-0.013569	0.549288
57.598053	85.838828	18.552653	-0.013543	0.548611
57.418191	85.536011	18.557658	-0.013499	0.547922
57.344206	85.251718	18.562663	-0.013480	0.547311
57.142704	84.956755	18.567667	-0.013431	0.546626
56.962114	84.644907	18.572672	-0.013386	0.545915
56.824186	84.334183	18.577677	-0.013352	0.545222
56.609529	84.029792	18.582682	-0.013299	0.544511
56.309626	83.756044	18.587687	-0.013226	0.543828
56.046852	83.485916	18.592691	-0.013161	0.543166
55.845387	83.215973	18.597696	-0.013112	0.542528
55.740344	82.918719	18.602701	-0.013086	0.541872
55.552306	82.621050	18.607706	-0.013040	0.541180
55.473023	82.314968	18.612711	-0.013020	0.540515
55.192659	82.045147	18.617715	-0.012951	0.539842
54.948867	81.761625	18.622720	-0.012891	0.539155
54.896920	81.463204	18.627725	-0.012878	0.538514
54.867303	81.134087	18.632730	-0.012871	0.537817
54.614675	80.880102	18.637735	-0.012809	0.537185
54.437366	80.579980	18.642739	-0.012765	0.536487
54.201557	80.300702	18.647744	-0.012707	0.535808
54.114285	79.997442	18.652749	-0.012685	0.535138
53.885346	79.705743	18.657754	-0.012629	0.534434
53.756953	79.399693	18.662759	-0.012597	0.533739
53.537553	79.116372	18.667763	-0.012543	0.533055
53.289294	78.863567	18.672768	-0.012483	0.532422
53.237615	78.562393	18.677773	-0.012470	0.531767
52.979189	78.285151	18.682778	-0.012406	0.531076
52.665584	78.030453	18.687783	-0.012329	0.530410
52.598580	77.726402	18.692787	-0.012313	0.529740
52.379784	77.441100	18.697792	-0.012259	0.529047
52.250671	77.159719	18.702797	-0.012227	0.528397
52.086883	76.882203	18.707802	-0.012187	0.527741
52.019904	76.605329	18.712807	-0.012170	0.527125
51.836140	76.312081	18.717811	-0.012125	0.526425
51.629882	76.020429	18.722816	-0.012074	0.525719
51.685896	75.688031	18.727821	-0.012087	0.525033
51.410815	75.400142	18.732826	-0.012020	0.524304
51.302615	75.098648	18.737831	-0.011993	0.523615
51.191970	74.786141	18.742835	-0.011966	0.522899
51.017003	74.502812	18.747840	-0.011923	0.522219
50.890717	74.196705	18.752845	-0.011892	0.521509
50.639928	73.904078	18.757850	-0.011830	0.520775
50.615853	73.567674	18.762855	-0.011824	0.520041
50.220509	73.308252	18.767859	-0.011727	0.519316
50.041056	73.018899	18.772864	-0.011683	0.518616
50.002293	72.695714	18.777869	-0.011673	0.517901
49.661576	72.456425	18.782874	-0.011589	0.517240
49.638486	72.136515	18.787879	-0.011583	0.516536
49.420507	71.848355	18.792883	-0.011530	0.515819
49.178763	71.552118	18.797888	-0.011470	0.515073
49.162644	71.232848	18.802893	-0.011466	0.514371
48.844351	70.964960	18.807898	-0.011388	0.513652
48.591222	70.689127	18.812903	-0.011326	0.512943
48.549417	70.406284	18.817907	-0.011315	0.512307
48.349131	70.109972	18.822912	-0.011266	0.511573
48.221118	69.817716	18.827917	-0.011235	0.510878
47.946862	69.529703	18.832922	-0.011167	0.510129
47.663760	69.265915	18.837927	-0.011098	0.509428
47.501943	68.988507	18.842931	-0.011058	0.508748
47.320014	68.706430	18.847936	-0.011013	0.508048
47.074940	68.474286	18.852941	-0.010953	0.507431
46.749276	68.217853	18.857946	-0.010873	0.506724
46.700481	67.926890	18.862951	-0.010861	0.506060
46.591330	67.643411	18.867955	-0.010834	0.505384
46.377916	67.367156	18.872960	-0.010782	0.504679
46.333308	67.069874	18.877965	-0.010770	0.503999
46.211285	66.763586	18.882970	-0.010740	0.503265
46.264164	66.456532	18.887975	-0.010753	0.502604
45.895399	66.203605	18.892979	-0.010662	0.501879
45.859075	65.875107	18.897984	-0.010653	0.501130
45.843772	65.555942	18.902989	-0.010649	0.500409
45.598483	65.265065	18.907994	-0.010589	0.499650
45.440102	64.955081	18.912999	-0.010550	0.498885
45.155260	64.689114	18.918003	-0.010480	0.498162
44.891545	64.441570	18.923008	-0.010415	0.497490
44.812148	64.126654	18.928013	-0.010395	0.496745
44.688061	63.827551	18.933018	-0.010365	0.496015
44.522957	63.532962	18.938023	-0.010324	0.495277
44.350326	63.230490	18.943027	-0.010282	0.494516
44.224832	62.930885	18.948032	-0.010251	0.493781
44.000431	62.647222	18.953037	-0.010196	0.493037
43.810838	62.379821	18.958042	-0.010149	0.492345
43.648609	62.090207	18.963047	-0.010109	0.491613
43.404354	61.801955	18.968051	-0.010049	0.490847
43.199933	61.523556	18.973056	-0.009999	0.490120
43.195154	61.206440	18.978061	-0.009997	0.489393
42.915446	60.922830	18.983066	-0.009929	0.488618
42.664996	60.675412	18.988071	-0.009867	0.487938
42.522878	60.406114	18.993075	-0.009832	0.487255
42.220211	60.137014	18.998080	-0.009758	0.486501
42.131514	59.850059	19.003085	-0.009736	0.485799
41.670803	59.631982	19.008090	-0.009623	0.485089
41.680936	59.319652	19.013095	-0.009625	0.484371
41.652143	59.016174	19.018099	-0.009618	0.483655
41.322900	58.781462	19.023104	-0.009537	0.482962
41.208134	58.508956	19.028109	-0.009509	0.482278
40.995525	58.228999	19.033114	-0.009457	0.481530
40.927137	57.937119	19.038119	-0.009440	0.480819
40.903329	57.632441	19.043123	-0.009433	0.480098
40.722415	57.327351	19.048128	-0.009389	0.479303
40.500013	57.068026	19.053133	-0.009334	0.478594
40.265305	56.808435	19.058138	-0.009277	0.477879
40.233859	56.504168	19.063143	-0.009269	0.477150
40.196012	56.195566	19.068147	-0.009259	0.476407
39.985034	55.890263	19.073152	-0.009207	0.475592
39.958790	55.583929	19.078157	-0.009200	0.474857
39.825108	55.255842	19.083162	-0.009167	0.474020
39.637876	54.971198	19.088167	-0.009121	0.473261
39.500618	54.685379	19.093171	-0.009088	0.472520
39.340574	54.382440	19.098176	-0.009048	0.471726
39.225937	54.061883	19.103181	-0.009020	0.470911
38.983556	53.771086	19.108186	-0.008960	0.470106
38.676224	53.495129	19.113191	-0.008885	0.469304
38.479496	53.209646	19.118195	-0.008836	0.468530
38.256125	52.954026	19.123200	-0.008782	0.467814
38.316710	52.625321	19.128205	-0.008796	0.467054
38.180270	52.312165	19.133210	-0.008762	0.466238
37.821580	52.049997	19.138215	-0.008674	0.465439
37.621355	51.764645	19.143219	-0.008625	0.464657
37.332433	51.495058	19.148224	-0.008554	0.463871
37.286746	51.200284	19.153229	-0.008543	0.463136
37.126015	50.914044	19.158234	-0.008503	0.462367
36.961989	50.623850	19.163239	-0.008463	0.461585
36.678364	50.358085	19.168243	-0.008393	0.460805
36.524517	50.063754	19.173248	-0.008355	0.460015
36.435584	49.767927	19.178253	-0.008333	0.459251
36.300162	49.463446	19.183258	-0.008300	0.458443
36.028497	49.224949	19.188263	-0.008233	0.457730
35.766912	48.957326	19.193267	-0.008169	0.456949
35.583238	48.683004	19.198272	-0.008124	0.456187
35.544122	48.373039	19.203277	-0.008114	0.455406
35.352151	48.095055	19.208282	-0.008067	0.454629
35.262933	47.784798	19.213287	-0.008045	0.453821
35.207512	47.497473	19.218291	-0.008031	0.453083
34.897248	47.232939	19.223296	-0.007955	0.452279
34.581208	46.988207	19.228301	-0.007877	0.451519
34.314296	46.722655	19.233306	-0.007812	0.450729
34.043954	46.478791	19.238311	-0.007745	0.449991
34.003041	46.177563	19.243315	-0.007735	0.449220
33.922847	45.889812	19.248320	-0.007715	0.448462
33.804174	45.630728	19.253325	-0.007686	0.447756
33.672433	45.339885	19.258330	-0.007653	0.446963
33.480731	45.058044	19.263335	-0.007606	0.446162
33.448806	44.756248	19.268339	-0.007598	0.445387
33.205617	44.465236	19.273344	-0.007538	0.444534
32.972387	44.212346	19.278349	-0.007481	0.443781
32.812442	43.935580	19.283354	-0.007442	0.443002
32.874407	43.613116	19.288359	-0.007457	0.442216
32.624362	43.340235	19.293363	-0.007395	0.441400
32.525588	43.031716	19.298368	-0.007371	0.440566
32.281411	42.761212	19.303373	-0.007311	0.439756
32.212194	42.444368	19.308378	-0.007293	0.438913
32.175772	42.144522	19.313383	-0.007284	0.438128
31.999766	41.857094	19.318387	-0.007241	0.437304
31.767576	41.562966	19.323392	-0.007184	0.436433
31.570138	41.281471	19.328397	-0.007135	0.435610
31.339911	40.998169	19.333402	-0.007079	0.434764
31.192001	40.701435	19.338407	-0.007042	0.433924
31.106017	40.414427	19.343411	-0.007021	0.433138
30.811671	40.155483	19.348416	-0.006949	0.432319
30.659043	39.864862	19.353421	-0.006911	0.431487
30.509640	39.569974	19.358426	-0.006874	0.430644
30.351721	39.275962	19.363431	-0.006836	0.429797
30.233487	38.979182	19.368435	-0.006806	0.428962
29.823048	38.752653	19.373440	-0.006706	0.428160
29.847724	38.450360	19.378445	-0.006711	0.427380
29.579085	38.172067	19.383450	-0.006646	0.426512
29.393838	37.894866	19.388455	-0.006600	0.425687
29.257565	37.609815	19.393459	-0.006566	0.424865
29.135625	37.306068	19.398464	-0.006536	0.424000
28.962707	37.042402	19.403469	-0.006494	0.423213
28.857830	36.747899	19.408474	-0.006468	0.422377
28.678406	36.459221	19.413479	-0.006424	0.421517
28.536596	36.168976	19.418483	-0.006389	0.420670
28.257532	35.898693	19.423488	-0.006320	0.419804
28.118770	35.620952	19.428493	-0.006286	0.418989
27.819982	35.373280	19.433498	-0.006213	0.418169
27.536744	35.129772	19.438503	-0.006143	0.417367
27.348651	34.864864	19.443507	-0.006097	0.416556
27.098102	34.609279	19.448512	-0.006035	0.415735
27.013387	34.330201	19.453517	-0.006014	0.414937
26.862401	34.051916	19.458522	-0.005977	0.414105
26.768921	33.783756	19.463527	-0.005954	0.413328
26.728520	33.492460	19.468531	-0.005944	0.412516
26.469751	33.226408	19.473536	-0.005880	0.411654
26.172706	32.989430	19.478541	-0.005808	0.410850
25.851631	32.742670	19.483546	-0.005729	0.410004
25.680791	32.489421	19.488551	-0.005687	0.409219
25.623836	32.219857	19.493555	-0.005673	0.408449
25.446793	31.966557	19.498560	-0.005629	0.407658
25.400590	31.688079	19.503565	-0.005617	0.406867
25.233655	31.406126	19.508570	-0.005576	0.405999
25.207973	31.105395	19.513575	-0.005570	0.405153
25.203498	30.800316	19.518579	-0.005568	0.404305
25.141388	30.501181	19.523584	-0.005553	0.403441
25.241703	30.164217	19.528589	-0.005577	0.402558
25.115387	29.852368	19.533594	-0.005546	0.401619
25.123880	29.510090	19.538599	-0.005548	0.400667
25.095671	29.169585	19.543603	-0.005540	0.399697
24.746415	28.890012	19.548608	-0.005455	0.398720
24.542487	28.616379	19.553613	-0.005405	0.397838
24.379242	28.305434	19.558618	-0.005364	0.396870
24.162308	28.008078	19.563623	-0.005311	0.395909
23.651741	27.780675	19.568627	-0.005186	0.394981
23.229679	27.549411	19.573632	-0.005083	0.394089
22.969424	27.314614	19.578637	-0.005019	0.393275
22.601845	27.090789	19.583642	-0.004929	0.392431
22.374512	26.847662	19.588647	-0.004873	0.391608
22.274313	26.575124	19.593651	-0.004848	0.390771
22.165050	26.297792	19.598656	-0.004821	0.389913
22.019591	26.041952	19.603661	-0.004785	0.389094
21.774609	25.814075	19.608666	-0.004725	0.388298
21.776554	25.521365	19.613671	-0.004725	0.387453
21.755906	25.227600	19.618675	-0.004720	0.386590
21.559041	24.960067	19.623680	-0.004672	0.385701
21.436929	24.682135	19.628685	-0.004641	0.384822
21.328845	24.394708	19.633690	-0.004615	0.383922
21.159195	24.136628	19.638695	-0.004573	0.383070
21.094471	23.842106	19.643699	-0.004557	0.382170
20.838464	23.577662	19.648704	-0.004494	0.381245
20.864257	23.261004	19.653709	-0.004500	0.380328
20.511712	23.018510	19.658714	-0.004414	0.379408
20.255422	22.775261	19.663719	-0.004351	0.378540
20.116107	22.511149	19.668723	-0.004316	0.377675
19.800364	22.269168	19.673728	-0.004239	0.376772
19.666828	21.995862	19.678733	-0.004206	0.375880
19.431006	21.743317	19.683738	-0.004148	0.374987
19.094952	21.520664	19.688743	-0.004066	0.374124
19.007910	21.276091	19.693747	-0.004044	0.373339
18.876323	21.004447	19.698752	-0.004012	0.372444
18.779712	20.734926	19.703757	-0.003988	0.371574
18.633564	20.468911	19.708762	-0.003952	0.370684
18.439898	20.212453	19.713767	-0.003904	0.369792
18.384004	19.937849	19.718771	-0.003890	0.368925
18.096969	19.719831	19.723776	-0.003820	0.368090
18.150320	19.411597	19.728781	-0.003833	0.367182
17.897529	19.158008	19.733786	-0.003770	0.366255
17.865911	18.860416	19.738791	-0.003762	0.365323
17.820342	18.572568	19.743795	-0.003751	0.364411
17.781704	18.281982	19.748800	-0.003741	0.363492
17.679420	17.996090	19.753805	-0.003716	0.362547
17.529561	17.706066	19.758810	-0.003679	0.361557
17.430166	17.406086	19.763815	-0.003654	0.360565
17.385339	17.099069	19.768819	-0.003643	0.359581
17.254339	16.812693	19.773824	-0.003611	0.358606
17.045442	16.543258	19.778829	-0.003559	0.357634
16.696854	16.290758	19.783834	-0.003474	0.356627
16.393046	16.036471	19.788839	-0.003399	0.355638
16.106643	15.791605	19.793843	-0.003329	0.354688
15.796722	15.562785	19.798848	-0.003253	0.353771
15.645713	15.311858	19.803853	-0.003216	0.352880
15.340655	15.079818	19.808858	-0.003141	0.351952
15.056050	14.845818	19.813863	-0.003071	0.351027
15.048343	14.563104	19.818867	-0.003069	0.350117
14.753906	14.332871	19.823872	-0.002997	0.349194
14.607305	14.097584	19.828877	-0.002961	0.348344
14.415679	13.852144	19.833882	-0.002914	0.347432
14.425886	13.563236	19.838887	-0.002916	0.346504
14.287898	13.302887	19.843891	-0.002882	0.345573
14.355988	12.992798	19.848896	-0.002898	0.344608
14.396340	12.696302	19.853901	-0.002908	0.343667
14.335344	12.399487	19.858906	-0.002893	0.342658
13.963821	12.158853	19.863911	-0.002802	0.341630
13.862452	11.876754	19.868915	-0.002777	0.340637
13.580056	11.629683	19.873920	-0.002707	0.339640
13.438990	11.372832	19.878925	-0.002672	0.338699
13.022323	11.161544	19.883930	-0.002570	0.337727
12.705218	10.934880	19.888935	-0.002493	0.336766
12.687588	10.656651	19.893939	-0.002488	0.335826
12.419295	10.418054	19.898944	-0.002422	0.334852
12.221417	10.185532	19.903949	-0.002374	0.333942
12.029920	9.950531	19.908954	-0.002327	0.333025
11.766054	9.721010	19.913959	-0.002262	0.332076
11.589411	9.482762	19.918963	-0.002218	0.331153
11.312110	9.259063	19.923968	-0.002150	0.330210
11.270073	8.999551	19.928973	-0.002140	0.329299
11.079220	8.783277	19.933978	-0.002093	0.328433
10.922350	8.538517	19.938983	-0.002054	0.327491
10.867074	8.277689	19.943987	-0.002041	0.326558
10.902804	7.984505	19.948992	-0.002049	0.325574
10.984254	7.684068	19.953997	-0.002069	0.324592
11.008655	7.392145	19.959002	-0.002074	0.323598
10.728113	7.150237	19.964007	-0.002005	0.322567
10.790079	6.842978	19.969011	-0.002020	0.321539
10.708817	6.543902	19.974016	-0.002000	0.320438
10.570708	6.271542	19.979021	-0.001966	0.319388
10.382975	6.016733	19.984026	-0.001920	0.318361
10.226115	5.739959	19.989031	-0.001881	0.317276
10.058082	5.472431	19.994035	-0.001840	0.316211
9.824607	5.207745	19.999040	-0.001782	0.315108
9.382326	5.011468	20.004045	-0.001674	0.314098
9.078286	4.791292	20.009050	-0.001600	0.313097
8.830498	4.552836	20.014055	-0.001539	0.312067
8.531412	4.337764	20.019059	-0.001465	0.311081
8.378080	4.090528	20.024064	-0.001428	0.310079
8.191789	3.863426	20.029069	-0.001382	0.309123
