Sun Feb 26 14:10:26 2017

Number of Points = 3621
Depth (nm)	Load (µN)	Time (s)	Depth (V)	Load (V)
0.961346	-0.099216	0.000000	-0.000123	0.283963

0.782152	-0.061274	0.005005	-0.000079	0.283973
0.628191	-0.032372	0.010010	-0.000041	0.283968
0.692929	-0.047017	0.015014	-0.000057	0.283960
0.756384	-0.140864	0.020019	-0.000072	0.283638
0.775245	-0.146995	0.025024	-0.000077	0.283628
0.735523	-0.154156	0.030029	-0.000067	0.283569
0.647729	-0.200882	0.035034	-0.000045	0.283315
0.597005	-0.192137	0.040038	-0.000033	0.283310
0.605523	-0.254275	0.045043	-0.000035	0.283071
0.580501	-0.269494	0.050048	-0.000029	0.282991
0.698361	-0.348278	0.055053	-0.000057	0.282770
0.731050	-0.384455	0.060058	-0.000065	0.282651
0.797367	-0.467682	0.065062	-0.000081	0.282372
0.850000	-0.538917	0.070067	-0.000094	0.282130
0.768649	-0.583362	0.075072	-0.000074	0.281889
0.772980	-0.643835	0.080077	-0.000075	0.281652
0.560277	-0.662712	0.085082	-0.000023	0.281410
0.628524	-0.752057	0.090086	-0.000040	0.281107
0.575569	-0.814077	0.095091	-0.000027	0.280817
0.318540	-0.834652	0.100096	0.000036	0.280533
0.394356	-0.907513	0.105101	0.000018	0.280301
0.331396	-0.967038	0.110106	0.000033	0.280013
0.396105	-1.055160	0.115110	0.000018	0.279710
0.385159	-1.127952	0.120115	0.000020	0.279409
0.246234	-1.173855	0.125120	0.000054	0.279115
0.364359	-1.265978	0.130125	0.000026	0.278837
0.322734	-1.349405	0.135130	0.000036	0.278468
0.291483	-1.433414	0.140134	0.000044	0.278104
0.189054	-1.496397	0.145139	0.000069	0.277769
0.208367	-1.605183	0.150144	0.000064	0.277344
0.415011	-1.739271	0.155149	0.000014	0.276965
0.102902	-1.773406	0.160154	0.000090	0.276578
0.129419	-1.883463	0.165158	0.000084	0.276152
-0.066007	-1.948560	0.170163	0.000132	0.275731
-0.195610	-2.016893	0.175168	0.000164	0.275349
-0.255920	-2.094452	0.180173	0.000178	0.274984
-0.153046	-2.222566	0.185178	0.000153	0.274543
-0.106711	-2.327589	0.190182	0.000142	0.274151
-0.342209	-2.373997	0.195187	0.000200	0.273771
-0.561003	-2.449211	0.200192	0.000254	0.273286
-0.992856	-2.454131	0.205197	0.000359	0.272917
-1.763677	-2.378136	0.210202	0.000547	0.272606
-2.038576	-2.394127	0.215206	0.000615	0.272317
-2.713001	-2.307331	0.220211	0.000779	0.272129
-2.931188	-2.318878	0.225216	0.000833	0.271904
-3.372317	-2.251542	0.230221	0.000941	0.271824
-3.691431	-2.191210	0.235226	0.001019	0.271814
-3.739678	-2.254248	0.240230	0.001031	0.271514
-4.005145	-2.202277	0.245235	0.001095	0.271513
-3.972428	-2.212112	0.250240	0.001087	0.271499
-3.918214	-2.246600	0.255245	0.001074	0.271400
-4.459927	-2.195275	0.260250	0.001207	0.271172
-4.116177	-2.263054	0.265254	0.001123	0.271171
-4.216729	-2.241500	0.270259	0.001147	0.271178
-4.066486	-2.338403	0.275264	0.001111	0.270899
-3.505151	-2.463580	0.280269	0.000974	0.270837
-3.516481	-2.533240	0.285274	0.000977	0.270539
-3.590406	-2.577712	0.290278	0.000995	0.270294
-4.107103	-2.514027	0.295283	0.001121	0.270136
-4.537107	-2.482734	0.300288	0.001226	0.269915
-4.445443	-2.537842	0.305293	0.001204	0.269761
-5.539235	-2.358136	0.310298	0.001471	0.269614
-5.545235	-2.358811	0.315302	0.001473	0.269606
-5.711995	-2.323497	0.320307	0.001513	0.269616
-6.291972	-2.212473	0.325312	0.001655	0.269604
-6.581673	-2.152356	0.330317	0.001726	0.269617
-7.070179	-2.057843	0.335322	0.001845	0.269611
-7.057831	-2.046421	0.340326	0.001842	0.269668
-6.834538	-2.027365	0.345331	0.001788	0.269930
-6.995332	-1.999593	0.350336	0.001827	0.269914
-6.434629	-2.106592	0.355341	0.001690	0.269927
-6.426036	-2.109390	0.360346	0.001688	0.269922
-6.143627	-2.218905	0.365350	0.001619	0.269697
-6.302305	-2.208356	0.370355	0.001658	0.269611
-6.143167	-2.241498	0.375360	0.001619	0.269603
-5.823102	-2.365378	0.380365	0.001541	0.269348
-5.886929	-2.373725	0.385370	0.001557	0.269261
-5.975034	-2.403452	0.390374	0.001579	0.269065
-6.177791	-2.409635	0.395379	0.001628	0.268873
-6.914268	-2.300707	0.400384	0.001808	0.268723
-6.531146	-2.404665	0.405389	0.001715	0.268603
-7.041324	-2.348997	0.410394	0.001839	0.268416
-7.333855	-2.291648	0.415398	0.001911	0.268416
-7.587323	-2.240500	0.420403	0.001973	0.268421
-7.886498	-2.254285	0.425408	0.002046	0.268117
-8.260594	-2.184021	0.430413	0.002137	0.268103
-8.705536	-2.072207	0.435418	0.002246	0.268205
-7.937093	-2.213152	0.440422	0.002058	0.268247
-8.626723	-2.112372	0.445427	0.002227	0.268102
-8.630313	-2.114167	0.450432	0.002228	0.268091
-8.441394	-2.149238	0.455437	0.002182	0.268099
-8.484068	-2.141782	0.460442	0.002192	0.268095
-8.316195	-2.176115	0.465446	0.002151	0.268089
-8.494930	-2.138008	0.470451	0.002195	0.268102
-8.484087	-2.168369	0.475456	0.002192	0.267983
-8.714586	-2.165856	0.480461	0.002249	0.267804
-8.631253	-2.183947	0.485466	0.002229	0.267796
-8.682151	-2.174683	0.490470	0.002241	0.267793
-8.638034	-2.252261	0.495475	0.002230	0.267504
-8.836220	-2.222149	0.500480	0.002279	0.267467
-9.030700	-2.184897	0.505485	0.002326	0.267462
-9.472539	-2.170601	0.510490	0.002434	0.267158
-9.264268	-2.211572	0.515494	0.002384	0.267157
-9.524953	-2.158922	0.520499	0.002447	0.267163
-9.702281	-2.126600	0.525504	0.002491	0.267152
-9.431878	-2.222750	0.530509	0.002425	0.266971
-9.887910	-2.163569	0.535514	0.002536	0.266843
-9.667222	-2.207918	0.540518	0.002482	0.266839
-9.749635	-2.203056	0.545523	0.002503	0.266791
-10.171784	-2.182204	0.550528	0.002606	0.266529
-9.947440	-2.224644	0.555533	0.002551	0.266536
-10.335945	-2.148865	0.560538	0.002646	0.266533
-10.256438	-2.210657	0.565542	0.002627	0.266339
-10.681797	-2.157998	0.570547	0.002731	0.266208
-10.804949	-2.137019	0.575552	0.002761	0.266194
-10.639656	-2.166992	0.580557	0.002720	0.266205
-10.874548	-2.121334	0.585562	0.002778	0.266202
-10.813057	-2.185862	0.590566	0.002763	0.265981
-11.084194	-2.153734	0.595571	0.002829	0.265891
-11.089062	-2.154711	0.600576	0.002830	0.265883
-11.181541	-2.134724	0.605581	0.002853	0.265890
-11.461566	-2.085145	0.610586	0.002922	0.265867
-11.392387	-2.168928	0.615590	0.002905	0.265570
-11.532947	-2.139277	0.620595	0.002939	0.265579
-11.701847	-2.109563	0.625600	0.002980	0.265564
-11.431832	-2.162305	0.630605	0.002915	0.265565
-11.712927	-2.174715	0.635610	0.002983	0.265279
-11.970834	-2.125508	0.640614	0.003046	0.265272
-12.393362	-2.039666	0.645619	0.003150	0.265284
-12.295876	-2.061063	0.650624	0.003126	0.265274
-12.042667	-2.113035	0.655629	0.003064	0.265265
-12.397138	-2.117564	0.660634	0.003151	0.264950
-12.413595	-2.115244	0.665638	0.003155	0.264946
-12.434482	-2.108198	0.670643	0.003160	0.264958
-12.778998	-2.044478	0.675648	0.003244	0.264941
-12.711056	-2.083100	0.680653	0.003228	0.264834
-13.037953	-2.064183	0.685658	0.003308	0.264642
-12.728392	-2.126163	0.690662	0.003232	0.264637
-12.665084	-2.135589	0.695667	0.003217	0.264649
-12.717212	-2.191271	0.700672	0.003230	0.264369
-12.603941	-2.220982	0.705677	0.003202	0.264337
-12.890521	-2.202014	0.710682	0.003272	0.264178
-12.997397	-2.205463	0.715686	0.003298	0.264074
-12.830144	-2.261606	0.720691	0.003257	0.263975
-13.533311	-2.178709	0.725696	0.003429	0.263740
-13.583792	-2.167763	0.730701	0.003442	0.263744
-13.785736	-2.131657	0.735706	0.003491	0.263728
-13.853049	-2.190166	0.740710	0.003508	0.263423
-14.334743	-2.093511	0.745715	0.003625	0.263431
-14.573491	-2.050006	0.750720	0.003684	0.263416
-14.389462	-2.083168	0.755725	0.003639	0.263429
-14.803540	-2.002961	0.760730	0.003740	0.263423
-14.961425	-1.973179	0.765734	0.003778	0.263418
-14.976481	-1.967703	0.770739	0.003782	0.263428
-15.152962	-1.934833	0.775744	0.003825	0.263421
-14.949354	-1.973198	0.780749	0.003776	0.263427
-14.738463	-2.021927	0.785754	0.003724	0.263396
-14.765242	-2.085488	0.790758	0.003731	0.263102
-14.956112	-2.046116	0.795763	0.003778	0.263110
-14.986247	-2.041695	0.800768	0.003785	0.263104
-14.627107	-2.162333	0.805773	0.003697	0.262890
-15.102391	-2.087521	0.810778	0.003814	0.262810
-14.751990	-2.187785	0.815782	0.003728	0.262676
-14.903487	-2.202221	0.820787	0.003765	0.262486
-14.885500	-2.246406	0.825792	0.003761	0.262312
-15.449990	-2.167823	0.830797	0.003899	0.262174
-15.554612	-2.148255	0.835802	0.003924	0.262169
-15.650445	-2.199828	0.840806	0.003948	0.261867
-16.186522	-2.095573	0.845811	0.004079	0.261862
-16.437635	-2.049869	0.850816	0.004140	0.261846
-16.251436	-2.083441	0.855821	0.004095	0.261859
-16.744978	-1.987035	0.860826	0.004215	0.261856
-17.049563	-1.928983	0.865830	0.004290	0.261848
-17.222701	-1.891337	0.870835	0.004332	0.261864
-17.154622	-1.908351	0.875840	0.004316	0.261848
-17.112395	-1.914936	0.880845	0.004305	0.261855
-16.996883	-1.949508	0.885850	0.004277	0.261804
-17.078631	-1.994768	0.890854	0.004297	0.261541
-16.995023	-2.007939	0.895859	0.004277	0.261554
-17.156915	-1.979184	0.900864	0.004317	0.261541
-16.708753	-2.083141	0.905869	0.004207	0.261473
-16.799945	-2.125827	0.910874	0.004230	0.261212
-16.691128	-2.168894	0.915878	0.004203	0.261119
-17.307719	-2.097557	0.920883	0.004354	0.260904
-17.235295	-2.113793	0.925888	0.004336	0.260895
-17.364872	-2.136069	0.930893	0.004368	0.260689
-18.402091	-1.957128	0.935898	0.004621	0.260582
-18.360253	-1.966707	0.940902	0.004611	0.260576
-18.258033	-1.983643	0.945907	0.004586	0.260589
-18.458094	-1.947116	0.950912	0.004635	0.260577
-18.348596	-1.967018	0.955917	0.004608	0.260584
-18.358761	-1.965918	0.960922	0.004611	0.260580
-18.080744	-2.082505	0.965926	0.004543	0.260312
-18.141006	-2.075670	0.970931	0.004558	0.260291
-18.199045	-2.105720	0.975936	0.004572	0.260111
-18.268837	-2.126077	0.980941	0.004589	0.259964
-18.135859	-2.166943	0.985946	0.004557	0.259900
-18.481272	-2.158050	0.990950	0.004641	0.259645
-18.674420	-2.117198	0.995955	0.004689	0.259657
-19.303485	-2.062143	1.000960	0.004842	0.259360

-19.737474	-1.975662	1.010957	0.004948	0.259365
-19.799669	-1.896970	1.020954	0.004964	0.259652
-19.807831	-1.894298	1.030950	0.004966	0.259656
-19.673773	-1.888057	1.040947	0.004933	0.259797
-19.364735	-1.911122	1.050944	0.004858	0.259959
-19.230316	-1.937029	1.060941	0.004825	0.259961
-18.664509	-2.080195	1.070938	0.004687	0.259823
-18.730524	-2.105340	1.080934	0.004703	0.259657
-18.614381	-2.127973	1.090931	0.004675	0.259658
-19.099104	-2.032960	1.100928	0.004794	0.259656
-19.170293	-2.019643	1.110925	0.004811	0.259653
-19.134450	-2.025516	1.120922	0.004802	0.259657
-19.063505	-2.038365	1.130918	0.004785	0.259662
-19.246248	-1.982998	1.140915	0.004830	0.259745
-18.902761	-1.999733	1.150912	0.004746	0.259964
-19.015493	-1.977979	1.160909	0.004774	0.259962
-19.403854	-1.892662	1.170906	0.004869	0.260001
-19.152593	-1.874020	1.180902	0.004807	0.260294
-18.872446	-1.929336	1.190899	0.004739	0.260292
-18.677514	-1.955591	1.200896	0.004692	0.260344
-18.090928	-2.069440	1.210893	0.004549	0.260350
-17.822605	-2.135985	1.220890	0.004483	0.260290
-17.767023	-2.195420	1.230886	0.004470	0.260080
-17.700248	-2.235564	1.240883	0.004454	0.259963
-18.256366	-2.126470	1.250880	0.004589	0.259962
-18.971561	-1.985891	1.260877	0.004764	0.259961
-19.564183	-1.808675	1.270874	0.004909	0.260223
-19.325028	-1.771637	1.280870	0.004851	0.260585
-18.949580	-1.772238	1.290867	0.004759	0.260900
-18.411633	-1.827939	1.300864	0.004628	0.261115
-17.624791	-1.974906	1.310861	0.004436	0.261147
-17.157183	-2.124108	1.320858	0.004322	0.260900
-16.935888	-2.218742	1.330854	0.004268	0.260680
-17.148822	-2.206380	1.340851	0.004320	0.260552
-17.642716	-2.172190	1.350848	0.004441	0.260281
-18.132036	-2.036190	1.360845	0.004560	0.260452
-18.220146	-1.988851	1.370842	0.004582	0.260581
-18.317016	-1.940156	1.380838	0.004606	0.260708
-18.058478	-1.946563	1.390835	0.004543	0.260899
-18.064752	-1.901362	1.400832	0.004544	0.261088
-17.818134	-1.921071	1.410829	0.004484	0.261211
-17.568303	-1.968738	1.420826	0.004423	0.261217
-17.620958	-1.958645	1.430822	0.004436	0.261215
-17.379018	-2.005433	1.440819	0.004377	0.261218
-17.241144	-2.032940	1.450816	0.004344	0.261216
-17.010863	-2.078913	1.460813	0.004288	0.261213
-17.254004	-2.030208	1.470810	0.004347	0.261216
-16.927388	-2.094212	1.480806	0.004268	0.261216
-16.747832	-2.129442	1.490803	0.004224	0.261216
-16.958972	-2.088078	1.500800	0.004275	0.261215
-17.098739	-2.060373	1.510797	0.004310	0.261216
-17.473560	-1.985733	1.520794	0.004401	0.261220
-17.458119	-1.920335	1.530790	0.004398	0.261513
-17.627957	-1.856760	1.540787	0.004439	0.261642
-17.193686	-1.891654	1.550784	0.004333	0.261858
-17.317385	-1.849599	1.560781	0.004364	0.261934
-16.556767	-1.968299	1.570778	0.004178	0.262066
-16.392898	-2.029243	1.580774	0.004138	0.261942
-15.630150	-2.198237	1.590771	0.003952	0.261860
-15.649816	-2.262013	1.600768	0.003957	0.261569
-16.048798	-2.212859	1.610765	0.004055	0.261443
-16.633201	-2.085736	1.620762	0.004197	0.261495
-16.986396	-2.003714	1.630758	0.004284	0.261549
-17.160316	-1.931700	1.640755	0.004326	0.261711
-17.165335	-1.880368	1.650752	0.004328	0.261926
-16.672035	-1.921000	1.660749	0.004207	0.262167
-16.430986	-1.967942	1.670746	0.004148	0.262169
-16.494981	-1.925336	1.680742	0.004164	0.262297
-15.814485	-2.018758	1.690739	0.003998	0.262469
-15.870679	-2.050039	1.700736	0.004012	0.262288
-15.361952	-2.177139	1.710733	0.003888	0.262171
-15.268024	-2.228649	1.720730	0.003865	0.262029
-15.463578	-2.230076	1.730726	0.003913	0.261858
-15.725439	-2.178338	1.740723	0.003977	0.261859
-16.439505	-2.038497	1.750720	0.004152	0.261856
-16.575980	-1.943301	1.760717	0.004185	0.262149
-16.630212	-1.877979	1.770714	0.004198	0.262382
-16.450843	-1.863036	1.780710	0.004155	0.262596
-15.939901	-1.912189	1.790707	0.004030	0.262815
-15.203116	-2.058046	1.800704	0.003850	0.262810
-15.214329	-2.056298	1.810701	0.003853	0.262808
-14.733870	-2.198505	1.820698	0.003736	0.262603
-14.898900	-2.193579	1.830694	0.003776	0.262485
-15.408288	-2.093663	1.840691	0.003901	0.262484
-15.855484	-2.006766	1.850688	0.004010	0.262479
-15.815037	-1.962346	1.860685	0.004000	0.262703
-15.674382	-1.964465	1.870682	0.003966	0.262811
-15.662271	-1.930753	1.880678	0.003963	0.262965
-15.218796	-1.984106	1.890675	0.003855	0.263109
-14.641012	-2.098572	1.900672	0.003714	0.263105
-14.352703	-2.211811	1.910669	0.003644	0.262863
-14.198969	-2.256291	1.920666	0.003606	0.262801
-14.994700	-2.161398	1.930662	0.003801	0.262538
-15.074897	-2.081926	1.940659	0.003820	0.262810
-15.837037	-1.919983	1.950656	0.004007	0.262862
-16.034512	-1.805565	1.960653	0.004055	0.263184
-15.686907	-1.793088	1.970650	0.003970	0.263528
-14.619427	-1.951396	1.980646	0.003710	0.263747
-13.769661	-2.154211	1.990643	0.003502	0.263594
-13.247838	-2.324971	2.000640	0.003375	0.263303
-13.621770	-2.316601	2.010637	0.003466	0.263025
-14.663856	-2.159597	2.020634	0.003721	0.262820
-14.752353	-2.075431	2.030630	0.003743	0.263105
-15.011276	-2.024386	2.040627	0.003806	0.263105
-15.304225	-1.894347	2.050624	0.003878	0.263414
-15.133409	-1.859816	2.060621	0.003836	0.263703
-14.529778	-1.946353	2.070618	0.003689	0.263839
-13.897712	-2.078557	2.080614	0.003535	0.263805
-13.591860	-2.153236	2.090611	0.003460	0.263743
-13.299883	-2.230076	2.100608	0.003389	0.263659
-14.008428	-2.145879	2.110605	0.003562	0.263424
-14.230642	-2.058671	2.120602	0.003616	0.263610
-14.203654	-2.032123	2.130598	0.003610	0.263745
-14.196287	-2.033396	2.140595	0.003608	0.263745
-13.902337	-2.091648	2.150592	0.003537	0.263743
-13.801564	-2.048318	2.160589	0.003512	0.264011
-13.742682	-2.043824	2.170586	0.003498	0.264079
-13.400192	-2.125300	2.180582	0.003414	0.264018
-13.542802	-2.135732	2.190579	0.003449	0.263854
-13.529136	-2.127874	2.200576	0.003446	0.263898
-13.744476	-2.056359	2.210573	0.003499	0.264022
-13.957115	-2.001040	2.220570	0.003551	0.264079
-14.068917	-1.950097	2.230566	0.003578	0.264202
-13.491669	-2.031500	2.240563	0.003437	0.264338
-13.565768	-2.017015	2.250560	0.003455	0.264337
-13.501678	-2.030493	2.260557	0.003440	0.264333
-13.068512	-2.067779	2.270554	0.003334	0.264536
-13.013976	-2.125332	2.280550	0.003321	0.264336
-12.711433	-2.185111	2.290547	0.003247	0.264335
-12.663350	-2.194450	2.300544	0.003236	0.264335
-13.010889	-2.126714	2.310541	0.003321	0.264332
-13.057241	-2.117848	2.320538	0.003332	0.264330
-13.522319	-2.024119	2.330534	0.003446	0.264340
-13.281283	-1.999801	2.340531	0.003387	0.264644
-13.382007	-1.980107	2.350528	0.003412	0.264643
-13.030550	-1.982390	2.360525	0.003326	0.264926
-12.430783	-2.094767	2.370522	0.003180	0.264948
-12.362437	-2.163737	2.380518	0.003163	0.264713
-12.217992	-2.208882	2.390515	0.003128	0.264641
-12.641519	-2.125431	2.400512	0.003232	0.264642
-12.678145	-2.118574	2.410509	0.003241	0.264640
-12.665854	-2.063234	2.420506	0.003238	0.264884
-12.878069	-2.005871	2.430502	0.003290	0.264950
-12.682216	-2.044596	2.440499	0.003242	0.264949
-12.501766	-2.028402	2.450496	0.003198	0.265167
-12.183061	-2.066427	2.460493	0.003120	0.265271
-11.926091	-2.144801	2.470490	0.003058	0.265152
-12.003196	-2.177360	2.480486	0.003077	0.264950
-11.918139	-2.193291	2.490483	0.003056	0.264953
-12.162693	-2.146001	2.500480	0.003116	0.264949
-12.378819	-2.044638	2.510477	0.003169	0.265198
-12.439561	-2.014540	2.520474	0.003184	0.265275
-12.307367	-2.024954	2.530470	0.003151	0.265340
-11.881540	-2.053040	2.540467	0.003047	0.265575
-11.576107	-2.113993	2.550464	0.002973	0.265570
-11.595030	-2.146167	2.560461	0.002978	0.265418
-11.671675	-2.165288	2.570458	0.002997	0.265273
-11.474896	-2.203027	2.580454	0.002949	0.265277
-11.858956	-2.109113	2.590451	0.003043	0.265354
-11.765805	-2.076177	2.600448	0.003020	0.265571
-12.137314	-2.003533	2.610445	0.003111	0.265569
-11.852226	-1.994239	2.620442	0.003041	0.265844
-11.570751	-2.038453	2.630438	0.002973	0.265891
-11.150082	-2.121547	2.640435	0.002870	0.265889
-11.031374	-2.144797	2.650432	0.002841	0.265888
-11.201852	-2.111841	2.660429	0.002883	0.265886
-11.238937	-2.104544	2.670426	0.002892	0.265885
-11.259497	-2.099740	2.680422	0.002897	0.265888
-10.660388	-2.217605	2.690419	0.002751	0.265887
-11.017808	-2.173876	2.700416	0.002838	0.265775
-10.936907	-2.164500	2.710413	0.002819	0.265881
-11.479437	-2.057046	2.720410	0.002951	0.265884
-11.673551	-1.992577	2.730406	0.002999	0.265995
-11.178909	-2.040792	2.740403	0.002878	0.266201
-10.866608	-2.102276	2.750400	0.002802	0.266200
-10.737913	-2.127080	2.760397	0.002771	0.266202
-10.886234	-2.097372	2.770394	0.002807	0.266204
-10.631269	-2.098921	2.780390	0.002745	0.266408
-10.865836	-2.026080	2.790387	0.002802	0.266521
-10.910870	-2.013482	2.800384	0.002813	0.266536
-10.889111	-1.988048	2.810381	0.002808	0.266661
-10.050112	-2.179167	2.820378	0.002603	0.266550
-9.699275	-2.250588	2.830374	0.002518	0.266539
-9.716321	-2.309577	2.840371	0.002522	0.266276
-9.951560	-2.279869	2.850368	0.002580	0.266206
-10.556568	-2.161722	2.860365	0.002728	0.266202
-11.055041	-2.022183	2.870362	0.002849	0.266377
-11.360990	-1.888679	2.880358	0.002924	0.266686
-11.224203	-1.838482	2.890355	0.002891	0.267010
-10.506038	-1.937472	2.900352	0.002716	0.267186
-9.753371	-2.071769	2.910349	0.002532	0.267243
-8.923081	-2.255824	2.920346	0.002329	0.267155
-9.100519	-2.290942	2.930342	0.002373	0.266860
-8.845688	-2.388852	2.940339	0.002311	0.266658
-9.518519	-2.285866	2.950336	0.002475	0.266535
-9.987380	-2.193883	2.960333	0.002590	0.266534
-10.662275	-2.018263	2.970330	0.002755	0.266715
-10.683604	-1.954867	2.980326	0.002760	0.266963
-10.213229	-2.000545	2.990323	0.002645	0.267159
-9.868023	-1.998953	3.000320	0.002561	0.267450
-9.087202	-2.148461	3.010317	0.002370	0.267467
-9.147053	-2.208697	3.020314	0.002385	0.267164
-9.162465	-2.207357	3.030310	0.002389	0.267156
-9.148354	-2.210135	3.040307	0.002386	0.267156
-9.256601	-2.187636	3.050304	0.002412	0.267161
-9.516798	-2.137659	3.060301	0.002476	0.267155
-9.593203	-2.101596	3.070298	0.002495	0.267243
-9.054626	-2.152497	3.080294	0.002363	0.267474
-9.078840	-2.148209	3.090291	0.002369	0.267471
-9.114152	-2.141341	3.100288	0.002378	0.267470
-8.859381	-2.191536	3.110285	0.002316	0.267470
-8.925895	-2.177707	3.120282	0.002332	0.267472
-9.230235	-2.117563	3.130278	0.002407	0.267473
-9.388196	-2.084442	3.140275	0.002446	0.267482
-9.595348	-1.967666	3.150272	0.002496	0.267800
-9.208438	-2.003266	3.160269	0.002402	0.267969
-8.738305	-2.065726	3.170266	0.002287	0.268094
-8.296163	-2.152128	3.180262	0.002179	0.268096
-8.080364	-2.256102	3.190259	0.002127	0.267837
-8.039330	-2.274361	3.200256	0.002117	0.267794
-7.810165	-2.356221	3.210253	0.002061	0.267640
-8.242679	-2.312747	3.220250	0.002167	0.267465
-8.531219	-2.255191	3.230246	0.002237	0.267468
-8.996620	-2.124555	3.240243	0.002351	0.267632
-8.919019	-2.100173	3.250240	0.002332	0.267798
-9.295933	-1.966008	3.260237	0.002424	0.268049
-8.964583	-1.956008	3.270234	0.002344	0.268363
-8.607685	-2.013311	3.280230	0.002256	0.268416
-8.421429	-1.975037	3.290227	0.002211	0.268729
-7.883887	-2.079358	3.300224	0.002080	0.268734
-7.287202	-2.232760	3.310221	0.001934	0.268583
-6.857517	-2.374097	3.320218	0.001830	0.268344
-6.691543	-2.476864	3.330214	0.001789	0.268050
-6.897851	-2.496000	3.340211	0.001840	0.267800
-8.075200	-2.293648	3.350208	0.002127	0.267678
-8.616170	-2.157264	3.360205	0.002260	0.267804
-9.363688	-1.918576	3.370202	0.002442	0.268188
-9.143631	-1.861408	3.380198	0.002389	0.268607
-8.906304	-1.804965	3.390195	0.002331	0.269037
-7.575551	-2.002762	3.400192	0.002006	0.269302
-6.892938	-2.175311	3.410189	0.001839	0.269142
-5.941715	-2.406311	3.420186	0.001607	0.268957
-5.957496	-2.502603	3.430182	0.001611	0.268542
-6.277647	-2.527757	3.440179	0.001689	0.268173
-6.974531	-2.409577	3.450176	0.001860	0.268094
-7.979750	-2.212251	3.460173	0.002105	0.268093
-8.973267	-1.938741	3.470170	0.002348	0.268420
-8.721944	-1.871744	3.480166	0.002287	0.268906
-8.251286	-1.884633	3.490163	0.002172	0.269238
-7.576826	-1.945322	3.500160	0.002007	0.269537
-6.819742	-2.076910	3.510157	0.001822	0.269608
-5.763025	-2.336343	3.520154	0.001565	0.269392
-5.470830	-2.456903	3.530150	0.001493	0.269128
-5.445951	-2.552291	3.540147	0.001487	0.268750
-6.211407	-2.481103	3.550144	0.001675	0.268418
-7.581105	-2.202857	3.560141	0.002009	0.268456
-7.871370	-2.067036	3.570138	0.002080	0.268785
-7.818505	-1.997875	3.580134	0.002067	0.269116
-7.941632	-1.906489	3.590131	0.002097	0.269396
-7.462362	-1.912382	3.600128	0.001980	0.269763
-6.447372	-2.074393	3.610125	0.001733	0.269918
-5.791457	-2.216645	3.620122	0.001573	0.269862
-5.540326	-2.326989	3.630118	0.001511	0.269608
-5.200491	-2.452304	3.640115	0.001429	0.269364
-5.239564	-2.505588	3.650112	0.001438	0.269110
-5.934408	-2.379969	3.660109	0.001608	0.269064
-6.778608	-2.212656	3.670106	0.001814	0.269069
-7.289351	-2.078363	3.680102	0.001939	0.269210
-7.108135	-2.039933	3.690099	0.001895	0.269518
-7.003303	-1.998324	3.700096	0.001870	0.269777
-6.613045	-2.034037	3.710093	0.001774	0.269947
-6.102947	-2.062460	3.720090	0.001650	0.270245
-5.438925	-2.221863	3.730086	0.001488	0.270124
-5.489927	-2.260238	3.740083	0.001500	0.269923
-5.210298	-2.315677	3.750080	0.001432	0.269920
-5.221174	-2.365328	3.760077	0.001435	0.269704
-5.421829	-2.349100	3.770074	0.001484	0.269607
-5.124770	-2.406973	3.780070	0.001412	0.269609
-5.385731	-2.354722	3.790067	0.001476	0.269613
-6.047042	-2.225025	3.800064	0.001637	0.269611
-6.635142	-2.067214	3.810061	0.001781	0.269787
-6.596581	-2.001770	3.820058	0.001772	0.270090
-6.448604	-1.952362	3.830054	0.001736	0.270416
-6.293178	-1.920443	3.840051	0.001698	0.270674
-5.025878	-2.125092	3.850048	0.001388	0.270858
-4.429098	-2.293922	3.860045	0.001243	0.270644
-4.067755	-2.416637	3.870042	0.001155	0.270429
-4.113940	-2.465456	3.880038	0.001166	0.270188
-4.117577	-2.528583	3.890035	0.001167	0.269922
-4.965305	-2.434377	3.900032	0.001374	0.269621
-5.787305	-2.210937	3.910029	0.001575	0.269878
-5.901855	-2.122662	3.920026	0.001603	0.270151
-6.302988	-1.976683	3.930022	0.001701	0.270429
-5.760282	-1.992578	3.940019	0.001569	0.270805
-5.234953	-2.058745	3.950016	0.001441	0.270958
-4.503979	-2.210006	3.960013	0.001262	0.270926
-4.474357	-2.233535	3.970010	0.001255	0.270853
-4.130840	-2.300056	3.980006	0.001171	0.270856
-3.776213	-2.405603	3.990003	0.001085	0.270707
-4.188921	-2.364012	4.000000	0.001186	0.270543
-4.498781	-2.303837	4.009997	0.001262	0.270540
-4.522393	-2.299953	4.019994	0.001267	0.270536
-4.496449	-2.304332	4.029990	0.001261	0.270539
-4.826745	-2.218621	4.039987	0.001342	0.270625
-4.821110	-2.163905	4.049984	0.001341	0.270856
-4.894547	-2.104964	4.059981	0.001359	0.271040
-4.871948	-2.078009	4.069978	0.001353	0.271169
-4.486845	-2.079627	4.079974	0.001259	0.271475
-3.882228	-2.190876	4.089971	0.001112	0.271506
-3.513712	-2.290304	4.099968	0.001022	0.271394
-3.234682	-2.399274	4.109965	0.000954	0.271169
-3.370720	-2.424122	4.119962	0.000987	0.270955
-3.794856	-2.365090	4.129958	0.001091	0.270854
-3.787863	-2.365702	4.139955	0.001089	0.270857
-4.007465	-2.322754	4.149952	0.001143	0.270856
-4.136799	-2.244637	4.159949	0.001175	0.271074
-4.348197	-2.179736	4.169946	0.001227	0.271170
-4.332175	-2.116620	4.179942	0.001223	0.271444
-3.743462	-2.216252	4.189939	0.001079	0.271510
-3.639486	-2.237903	4.199936	0.001054	0.271504
-3.565432	-2.252535	4.209933	0.001036	0.271503
-3.371035	-2.246525	4.219930	0.000989	0.271686
-3.168374	-2.330330	4.229926	0.000939	0.271504
-3.027869	-2.357239	4.239923	0.000905	0.271506
-3.028511	-2.357493	4.249920	0.000905	0.271504
-3.300800	-2.304379	4.259917	0.000972	0.271502
-3.242023	-2.315925	4.269914	0.000958	0.271502
-3.370897	-2.290644	4.279910	0.000989	0.271501
-3.344240	-2.284696	4.289907	0.000983	0.271547
-3.004692	-2.287270	4.299904	0.000900	0.271811
-3.012190	-2.285633	4.309901	0.000902	0.271812
-3.435835	-2.202305	4.319898	0.001006	0.271812
-3.487132	-2.179607	4.329894	0.001018	0.271863
-3.040173	-2.203215	4.339891	0.000909	0.272128
-2.818939	-2.247172	4.349888	0.000855	0.272126
-2.282830	-2.352937	4.359885	0.000724	0.272123
-2.303276	-2.403914	4.369882	0.000730	0.271896
-2.552563	-2.374743	4.379878	0.000791	0.271814
-3.011994	-2.263513	4.389875	0.000903	0.271900
-2.972332	-2.215591	4.399872	0.000893	0.272129
-2.981251	-2.206569	4.409869	0.000896	0.272159
-2.552116	-2.223179	4.419866	0.000791	0.272438
-2.207262	-2.290745	4.429862	0.000707	0.272438
-1.936326	-2.390282	4.439859	0.000641	0.272247
-2.062218	-2.394602	4.449856	0.000672	0.272127
-2.126811	-2.382083	4.459853	0.000688	0.272126
-2.750342	-2.244521	4.469850	0.000840	0.272187
-2.380334	-2.256209	4.479846	0.000750	0.272438
-2.615941	-2.209499	4.489843	0.000807	0.272440
-2.300072	-2.228724	4.499840	0.000730	0.272616
-2.030164	-2.244480	4.509837	0.000664	0.272769
-1.866773	-2.276997	4.519834	0.000625	0.272766
-1.653226	-2.318209	4.529830	0.000573	0.272769
-1.585329	-2.400509	4.539827	0.000556	0.272485
-1.566968	-2.415100	4.549824	0.000552	0.272439
-1.741615	-2.381073	4.559821	0.000595	0.272438
-1.688801	-2.391457	4.569818	0.000582	0.272437
-1.912683	-2.331051	4.579814	0.000637	0.272504
-2.011141	-2.247601	4.589811	0.000661	0.272768
-2.413615	-2.142474	4.599808	0.000759	0.272875
-2.335207	-2.108896	4.609805	0.000740	0.273076
-1.932528	-2.113728	4.619802	0.000642	0.273380
-1.772739	-2.145200	4.629798	0.000603	0.273380
-1.420900	-2.193997	4.639795	0.000517	0.273463
-1.156789	-2.208901	4.649792	0.000453	0.273614
-1.206969	-2.256301	4.659789	0.000465	0.273379
-1.172940	-2.263670	4.669786	0.000457	0.273376
-1.244283	-2.172964	4.679782	0.000474	0.273690
-1.188553	-2.181876	4.689779	0.000461	0.273698
-1.318940	-2.156134	4.699776	0.000493	0.273698
-1.137590	-2.192023	4.709773	0.000449	0.273696
-1.783856	-2.029647	4.719770	0.000607	0.273841
-1.754961	-1.970197	4.729766	0.000600	0.274107
-1.363807	-2.008482	4.739763	0.000504	0.274265
-1.004923	-2.052883	4.749760	0.000417	0.274371
-0.995833	-2.004809	4.759757	0.000415	0.274575
-1.134127	-1.977901	4.769754	0.000448	0.274573
-1.135174	-1.951900	4.779750	0.000449	0.274678
-0.972401	-1.933259	4.789747	0.000409	0.274885
-0.824670	-1.961802	4.799744	0.000373	0.274886
-0.711757	-1.949885	4.809741	0.000346	0.275025
-0.522167	-1.942409	4.819738	0.000299	0.275207
-0.542347	-1.938002	4.829734	0.000305	0.275208
-0.465101	-1.953051	4.839731	0.000286	0.275209
-0.457985	-1.954156	4.849728	0.000284	0.275209
-0.422522	-1.961581	4.859725	0.000276	0.275207
-0.459986	-1.900910	4.869722	0.000285	0.275424
-0.407526	-1.892018	4.879718	0.000272	0.275502
-0.237274	-1.923558	4.889715	0.000231	0.275509
-0.222459	-1.925882	4.899712	0.000227	0.275511
-0.390442	-1.847269	4.909709	0.000268	0.275696
-0.509649	-1.793782	4.919706	0.000298	0.275818
-0.692545	-1.703732	4.929702	0.000342	0.276038
-0.745660	-1.639903	4.939699	0.000355	0.276255
-0.744444	-1.568625	4.949696	0.000355	0.276545
-0.676775	-1.521040	4.959693	0.000339	0.276791
-0.538552	-1.475137	4.969690	0.000305	0.277087
-0.343428	-1.453164	4.979686	0.000257	0.277331
-0.354869	-1.411738	4.989683	0.000260	0.277489
-0.360419	-1.350248	4.999680	0.000262	0.277733
-0.444038	-1.267179	5.009677	0.000282	0.278001
-0.437327	-1.199934	5.019674	0.000281	0.278278
-0.387991	-1.138390	5.029670	0.000269	0.278564
-0.173697	-1.114583	5.039667	0.000216	0.278829
0.078429	-1.121570	5.049664	0.000155	0.279000
0.321504	-1.113511	5.059661	0.000096	0.279224
0.363909	-1.120742	5.069658	0.000085	0.279228
0.213955	-1.036424	5.079654	0.000122	0.279448
0.211883	-1.003029	5.089651	0.000123	0.279580
0.053283	-0.904712	5.099648	0.000162	0.279849
-0.036506	-0.814882	5.109645	0.000184	0.280138
-0.018665	-0.746382	5.119642	0.000179	0.280426
0.014359	-0.677897	5.129638	0.000171	0.280725
0.100532	-0.616972	5.139635	0.000150	0.281036
0.129741	-0.540134	5.149632	0.000143	0.281365
0.066003	-0.452020	5.159629	0.000159	0.281666
0.049446	-0.364231	5.169626	0.000163	0.282002
0.004783	-0.255459	5.179622	0.000174	0.282400
0.031058	-0.164014	5.189619	0.000168	0.282783
-0.136003	-0.032366	5.199616	0.000208	0.283175
0.000000	0.032976	5.209613	0.000175	0.283539

0.101274	0.065034	5.214618	0.000151	0.283744
-0.001858	0.147409	5.219622	0.000176	0.283989
-0.017920	0.207707	5.224627	0.000180	0.284215
0.165764	0.249781	5.229632	0.000135	0.284523
0.140824	0.326904	5.234637	0.000141	0.284808
0.196307	0.404726	5.239642	0.000127	0.285157
0.231418	0.482516	5.244646	0.000119	0.285490
0.283626	0.563947	5.249651	0.000106	0.285850
0.427155	0.632960	5.254656	0.000071	0.286231
0.208822	0.770606	5.259661	0.000124	0.286602
0.402746	0.852023	5.264666	0.000077	0.287069
0.370605	0.969179	5.269670	0.000085	0.287502
0.412885	1.074105	5.274675	0.000074	0.287944
0.366004	1.214356	5.279680	0.000086	0.288454
0.513848	1.312449	5.284685	0.000050	0.288948
0.552397	1.413973	5.289690	0.000040	0.289371
0.472326	1.573210	5.294694	0.000060	0.289927
0.367788	1.739420	5.299699	0.000085	0.290490
0.569774	1.859471	5.304704	0.000036	0.291106
0.572549	2.012597	5.309709	0.000035	0.291697
0.677646	2.156936	5.314714	0.000009	0.292331
0.627296	2.329737	5.319718	0.000022	0.292956
0.650526	2.501100	5.324723	0.000016	0.293629
0.633719	2.671251	5.329728	0.000020	0.294265
0.626349	2.860050	5.334733	0.000022	0.294979
0.694299	3.037221	5.339738	0.000005	0.295703
0.778384	3.218563	5.344742	-0.000016	0.296452
0.782394	3.423980	5.349747	-0.000017	0.297232
0.898230	3.606538	5.354752	-0.000045	0.298005
0.833425	3.831234	5.359757	-0.000029	0.298802
1.047747	3.992650	5.364762	-0.000082	0.299566
1.009173	4.215374	5.369766	-0.000072	0.300370
1.045743	4.443996	5.374771	-0.000081	0.301250
1.192187	4.647758	5.379776	-0.000117	0.302114
1.098380	4.898462	5.384781	-0.000094	0.302976
1.114777	5.143834	5.389786	-0.000099	0.303895
1.052341	5.399354	5.394790	-0.000083	0.304792
0.960922	5.679884	5.399795	-0.000061	0.305757
1.108723	5.926960	5.404800	-0.000097	0.306768
0.980610	6.222708	5.409805	-0.000066	0.307756
1.029434	6.500415	5.414810	-0.000078	0.308802
0.957680	6.790713	5.419814	-0.000061	0.309804
1.139200	7.053566	5.424819	-0.000105	0.310883
1.223937	7.345560	5.429824	-0.000126	0.311995
1.322833	7.628099	5.434829	-0.000151	0.313079
1.563218	7.884599	5.439834	-0.000210	0.314165
1.486668	8.200760	5.444838	-0.000191	0.315239
1.596256	8.500969	5.449843	-0.000218	0.316382
1.706993	8.808685	5.454848	-0.000245	0.317548
1.665247	9.136958	5.459853	-0.000235	0.318677
1.586293	9.479034	5.464858	-0.000216	0.319824
1.507477	9.848548	5.469862	-0.000197	0.321064
1.450620	10.220929	5.474867	-0.000183	0.322324
1.392824	10.604446	5.479872	-0.000169	0.323617
1.228355	11.006203	5.484877	-0.000129	0.324896
1.384265	11.373669	5.489882	-0.000168	0.326267
1.271890	11.799969	5.494886	-0.000140	0.327655
1.371753	12.173910	5.499891	-0.000165	0.328999
1.609969	12.538112	5.504896	-0.000223	0.330398
1.657206	12.939842	5.509901	-0.000235	0.331791
1.934780	13.311278	5.514906	-0.000303	0.333227
2.136521	13.668981	5.519910	-0.000353	0.334562
2.473805	14.021311	5.524915	-0.000435	0.335963
2.824386	14.366813	5.529920	-0.000521	0.337343
2.830227	14.764172	5.534925	-0.000523	0.338666
2.997783	15.142973	5.539930	-0.000564	0.340027
2.946667	15.575102	5.544934	-0.000552	0.341417
2.966190	16.004800	5.549939	-0.000557	0.342839
3.000705	16.430309	5.554944	-0.000565	0.344250
2.911477	16.894387	5.559949	-0.000544	0.345703
2.740091	17.397543	5.564954	-0.000502	0.347224
2.671005	17.883226	5.569958	-0.000486	0.348746
2.606533	18.374444	5.574963	-0.000470	0.350282
2.551391	18.894668	5.579968	-0.000457	0.351910
2.429757	19.427600	5.584973	-0.000428	0.353530
2.542325	19.924596	5.589978	-0.000455	0.355173
2.592784	20.448450	5.594982	-0.000468	0.356855
2.605897	20.982680	5.599987	-0.000472	0.358539
2.647872	21.514446	5.604992	-0.000482	0.360225
2.886765	22.025940	5.609997	-0.000541	0.361960
3.305899	22.491817	5.615002	-0.000644	0.363654
3.354409	23.023210	5.620006	-0.000656	0.365319
3.474095	23.559765	5.625011	-0.000685	0.367035
3.589308	24.092487	5.630016	-0.000714	0.368728
3.517125	24.660893	5.635021	-0.000696	0.370411
3.712201	25.213610	5.640026	-0.000744	0.372197
3.687784	25.791124	5.645030	-0.000739	0.373919
3.630022	26.394358	5.650035	-0.000725	0.375691
3.542009	27.032682	5.655040	-0.000704	0.377542
3.487023	27.647883	5.660045	-0.000691	0.379334
3.554032	28.281076	5.665050	-0.000708	0.381241
3.601433	28.914470	5.670054	-0.000720	0.383127
3.601838	29.561419	5.675059	-0.000720	0.385017
3.759440	30.204235	5.680064	-0.000759	0.386975
3.833350	30.839419	5.685069	-0.000777	0.388854
3.957043	31.488937	5.690074	-0.000808	0.390793
4.018073	32.160942	5.695078	-0.000823	0.392752
4.093938	32.821678	5.700083	-0.000842	0.394677
4.385294	33.472567	5.705088	-0.000914	0.396684
4.373207	34.157980	5.710093	-0.000911	0.398612
4.323462	34.882259	5.715098	-0.000900	0.400618
4.479588	35.576053	5.720102	-0.000938	0.402641
4.364480	36.319924	5.725107	-0.000911	0.404647
4.385536	37.073214	5.730112	-0.000916	0.406741
4.298717	37.832188	5.735117	-0.000896	0.408783
4.372712	38.596925	5.740122	-0.000914	0.410916
4.318048	39.391989	5.745126	-0.000901	0.413052
4.245452	40.196813	5.750131	-0.000884	0.415194
4.388015	40.994544	5.755136	-0.000919	0.417419
4.563307	41.759308	5.760141	-0.000963	0.419561
4.769748	42.555609	5.765146	-0.001014	0.421793
5.136941	43.298003	5.770150	-0.001104	0.423952
5.243668	44.099674	5.775155	-0.001130	0.426124
5.667348	44.842051	5.780160	-0.001234	0.428290
5.644156	45.658775	5.785165	-0.001229	0.430413
5.932897	46.442990	5.790170	-0.001300	0.432598
6.218904	47.199483	5.795174	-0.001371	0.434700
6.219184	48.042637	5.800179	-0.001371	0.436870
6.310343	48.857034	5.805184	-0.001394	0.439002
6.261363	49.723121	5.810189	-0.001383	0.441186
6.109188	50.629746	5.815194	-0.001346	0.443410
6.057597	51.531185	5.820198	-0.001334	0.445660
6.080859	52.433266	5.825203	-0.001340	0.447937
5.973527	53.371158	5.830208	-0.001315	0.450228
5.976259	54.316174	5.835213	-0.001316	0.452578
5.857249	55.292010	5.840218	-0.001287	0.454933
5.814294	56.288831	5.845222	-0.001278	0.457364
5.940731	57.240151	5.850227	-0.001309	0.459752
6.048270	58.234737	5.855232	-0.001336	0.462224
6.213883	59.200326	5.860237	-0.001377	0.464640
6.554833	60.154073	5.865242	-0.001461	0.467096
6.585357	61.139890	5.870246	-0.001469	0.469472
6.797985	62.133289	5.875251	-0.001522	0.471939
7.069669	63.091709	5.880256	-0.001589	0.474337
7.224480	64.093891	5.885261	-0.001627	0.476772
7.511309	65.052624	5.890266	-0.001698	0.479153
7.471418	66.112241	5.895270	-0.001689	0.481610
7.515096	67.139453	5.900275	-0.001700	0.484017
7.519974	68.223621	5.905280	-0.001702	0.486525
7.465229	69.287279	5.910285	-0.001689	0.488947
7.523344	70.392144	5.915290	-0.001704	0.491502
7.508118	71.495634	5.920294	-0.001701	0.494007
7.496369	72.640348	5.925299	-0.001699	0.496595
7.500546	73.774012	5.930304	-0.001701	0.499152
7.509778	74.944423	5.935309	-0.001704	0.501779
7.601352	76.102789	5.940314	-0.001727	0.504402
7.688334	77.281466	5.945318	-0.001749	0.507054
8.029070	78.397733	5.950323	-0.001833	0.509664
8.256522	79.553197	5.955328	-0.001889	0.512298
8.363678	80.717873	5.960333	-0.001916	0.514887
8.594799	81.882214	5.965338	-0.001974	0.517515
8.818911	83.039541	5.970342	-0.002029	0.520112
8.951233	84.228658	5.975347	-0.002062	0.522725
9.218115	85.400560	5.980352	-0.002128	0.525345
9.155764	86.626667	5.985357	-0.002114	0.527931
9.330659	87.836645	5.990362	-0.002157	0.530568
9.363744	89.075065	5.995366	-0.002166	0.533193
9.638067	90.289071	6.000371	-0.002234	0.535853
9.621112	91.556442	6.005376	-0.002231	0.538493
9.676085	92.835200	6.010381	-0.002245	0.541172
9.847313	94.095864	6.015386	-0.002288	0.543848
9.976984	95.385701	6.020390	-0.002320	0.546553
9.960191	96.678193	6.025395	-0.002317	0.549193
9.993090	98.021456	6.030400	-0.002326	0.551943
9.898741	99.385704	6.035405	-0.002304	0.554672
10.048117	100.735087	6.040410	-0.002341	0.557453
10.121638	102.100725	6.045414	-0.002360	0.560223
10.159242	103.486499	6.050419	-0.002370	0.563005
10.252772	104.903382	6.055424	-0.002394	0.565857
10.338885	106.279503	6.060429	-0.002416	0.568612
10.367115	107.733572	6.065434	-0.002424	0.571484
10.535291	109.144982	6.070438	-0.002466	0.574311
10.601824	110.603304	6.075443	-0.002483	0.577178
10.866243	112.028419	6.080448	-0.002549	0.580040
10.928327	113.492707	6.085453	-0.002565	0.582888
11.148597	114.964506	6.090458	-0.002620	0.585795
11.250474	116.422536	6.095462	-0.002645	0.588618
11.261932	117.940722	6.100467	-0.002649	0.591509
11.309920	119.462060	6.105472	-0.002662	0.594404
11.327203	120.999043	6.110477	-0.002667	0.597304
11.369253	122.566895	6.115482	-0.002679	0.600257
11.521218	124.113799	6.120486	-0.002717	0.603195
11.738786	125.667854	6.125491	-0.002771	0.606156
11.897468	127.216362	6.130496	-0.002811	0.609071
11.984490	128.808494	6.135501	-0.002833	0.612027
12.332836	130.362565	6.140506	-0.002919	0.614991
12.582428	131.917548	6.145510	-0.002981	0.617909
12.620129	133.534190	6.150515	-0.002991	0.620850
12.880735	135.119099	6.155520	-0.003056	0.623797
13.061532	136.714659	6.160525	-0.003101	0.626722
13.188312	138.328035	6.165530	-0.003134	0.629646
13.440860	139.931771	6.170534	-0.003196	0.632583
13.636288	141.550842	6.175539	-0.003245	0.635514
13.920720	143.143689	6.180544	-0.003316	0.638415
13.970918	144.800460	6.185549	-0.003329	0.641336
13.985072	146.490350	6.190554	-0.003334	0.644290
14.032045	148.172370	6.195558	-0.003346	0.647227
14.133012	149.876284	6.200563	-0.003372	0.650207
14.180169	151.594750	6.205568	-0.003385	0.653180
14.210824	153.350135	6.210573	-0.003393	0.656198
14.442269	155.068281	6.215578	-0.003451	0.659204
14.380498	156.862110	6.220582	-0.003437	0.662229
14.603919	158.630185	6.225587	-0.003493	0.665289
14.859044	160.377164	6.230592	-0.003557	0.668310
14.956211	162.166154	6.235597	-0.003582	0.671337
15.102446	163.953358	6.240602	-0.003618	0.674363
15.283636	165.740867	6.245606	-0.003664	0.677387
15.513834	167.536230	6.250611	-0.003721	0.680427
15.895763	169.295655	6.255616	-0.003816	0.683441
16.080692	171.083922	6.260621	-0.003862	0.686427
16.240124	172.889165	6.265626	-0.003902	0.689420
16.278810	174.728763	6.270630	-0.003913	0.692419
16.270711	176.606331	6.275635	-0.003912	0.695451
16.424605	178.462290	6.280640	-0.003951	0.698485
16.481403	180.362948	6.285645	-0.003966	0.701548
16.608042	182.267702	6.290650	-0.003999	0.704625
16.799369	184.145214	6.295654	-0.004047	0.707665
16.943506	186.059288	6.300659	-0.004083	0.710736
17.055896	187.986951	6.305664	-0.004112	0.713805
17.229135	189.910815	6.310669	-0.004156	0.716873
17.459142	191.850948	6.315674	-0.004213	0.719971
17.587137	193.790944	6.320678	-0.004246	0.723024
17.800960	195.736292	6.325683	-0.004299	0.726099
18.017355	197.687876	6.330688	-0.004353	0.729171
18.287929	199.620504	6.335693	-0.004421	0.732216
18.599152	201.570318	6.340698	-0.004498	0.735287
18.805633	203.507885	6.345702	-0.004550	0.738296
18.953589	205.486308	6.350707	-0.004587	0.741338
19.032716	207.510086	6.355712	-0.004608	0.744416
19.218803	209.484360	6.360717	-0.004655	0.747438
19.374163	211.498286	6.365722	-0.004694	0.750498
19.531584	213.507130	6.370726	-0.004734	0.753538
19.736638	215.509862	6.375731	-0.004786	0.756571
19.956300	217.547541	6.380736	-0.004841	0.759647
20.076561	219.572602	6.385741	-0.004871	0.762665
20.129508	221.659187	6.390746	-0.004886	0.765742
20.249450	223.723095	6.395750	-0.004916	0.768792
20.324666	225.817285	6.400755	-0.004936	0.771861
20.570419	227.918107	6.405760	-0.004998	0.774975
20.594000	230.026051	6.410765	-0.005005	0.778026
20.763156	232.165032	6.415770	-0.005048	0.781149
20.910250	234.312329	6.420774	-0.005085	0.784266
21.089716	236.425130	6.425779	-0.005130	0.787330
21.457395	238.541529	6.430784	-0.005222	0.790437
21.562914	240.682822	6.435789	-0.005249	0.793498
21.755413	242.832423	6.440794	-0.005297	0.796581
21.939718	245.008887	6.445798	-0.005344	0.799688
22.126234	247.161718	6.450803	-0.005391	0.802751
22.445139	249.318594	6.455808	-0.005470	0.805842
22.558744	251.491996	6.460813	-0.005500	0.808891
22.747275	253.673329	6.465818	-0.005547	0.811959
22.801090	255.907250	6.470822	-0.005562	0.815052
22.739956	258.157928	6.475827	-0.005548	0.818127
22.761580	260.455990	6.480832	-0.005555	0.821277
22.843627	262.760103	6.485837	-0.005577	0.824438
22.921702	265.050850	6.490842	-0.005598	0.827568
23.032620	267.383985	6.495846	-0.005626	0.830751
23.314229	269.677278	6.500851	-0.005697	0.833913
23.538128	271.975949	6.505856	-0.005753	0.837055
23.656500	274.316845	6.510861	-0.005783	0.840215
23.925158	276.637360	6.515866	-0.005851	0.843373
24.370141	278.898144	6.520870	-0.005961	0.846485
24.494726	281.227448	6.525875	-0.005993	0.849596
24.775579	283.534340	6.530880	-0.006063	0.852705
24.815618	285.889640	6.535885	-0.006074	0.855806
24.913387	288.273161	6.540890	-0.006100	0.858947
25.325165	290.583684	6.545894	-0.006202	0.862059
25.670353	292.900715	6.550899	-0.006288	0.865152
25.755831	295.260168	6.555904	-0.006311	0.868225
25.713447	297.655153	6.560909	-0.006302	0.871303
25.857298	300.078653	6.565914	-0.006339	0.874450
26.042396	302.465095	6.570918	-0.006386	0.877550
26.070827	304.909184	6.575923	-0.006394	0.880674
26.182645	307.391447	6.580928	-0.006423	0.883855
26.592370	309.752598	6.585933	-0.006525	0.886943
26.995963	312.150593	6.590938	-0.006625	0.890064
27.112000	314.590349	6.595942	-0.006655	0.893160
27.325856	317.003515	6.600947	-0.006709	0.896234
27.509760	319.476758	6.605952	-0.006756	0.899366
27.947148	321.853827	6.610957	-0.006864	0.902426
27.996521	324.319728	6.615962	-0.006878	0.905496
28.086486	326.798032	6.620966	-0.006902	0.908580
28.131011	329.271618	6.625971	-0.006914	0.911638
28.366242	331.773528	6.630976	-0.006973	0.914764
28.397524	334.281044	6.635981	-0.006983	0.917839
28.536484	336.816015	6.640986	-0.007018	0.920962
28.657497	339.377914	6.645990	-0.007050	0.924103
28.967282	341.848570	6.650995	-0.007127	0.927166
29.117310	344.416340	6.656000	-0.007166	0.930300
29.236457	346.987534	6.661005	-0.007196	0.933420
29.510615	349.508444	6.666010	-0.007265	0.936504
29.670456	352.101350	6.671014	-0.007306	0.939639
30.039785	354.630594	6.676019	-0.007398	0.942733
30.364390	357.147389	6.681024	-0.007479	0.945793
30.498295	359.708899	6.686029	-0.007513	0.948854
30.692277	362.254765	6.691034	-0.007563	0.951900
30.880608	364.833919	6.696038	-0.007610	0.954974
30.889274	367.443154	6.701043	-0.007614	0.958034
31.151459	370.046339	6.706048	-0.007680	0.961132
31.291730	372.661213	6.711053	-0.007716	0.964208
31.594670	375.223805	6.716058	-0.007792	0.967248
31.632530	377.879431	6.721062	-0.007803	0.970329
31.718915	380.543146	6.726067	-0.007826	0.973421
31.814350	383.202981	6.731072	-0.007851	0.976499
31.996550	385.892731	6.736077	-0.007897	0.979621
32.051722	388.613140	6.741082	-0.007913	0.982741
32.442205	391.273894	6.746086	-0.008010	0.985854
32.974214	393.872911	6.751091	-0.008142	0.988917
33.151645	396.518710	6.756096	-0.008187	0.991948
33.225006	399.193144	6.761101	-0.008207	0.994982
33.613129	401.834617	6.766106	-0.008303	0.998034
33.897436	404.460276	6.771110	-0.008375	1.001038
34.066175	407.131713	6.776115	-0.008418	1.004059
34.267713	409.779751	6.781120	-0.008469	1.007053
34.450565	412.436026	6.786125	-0.008515	1.010043
34.589041	415.144526	6.791130	-0.008551	1.013073
34.645092	417.846568	6.796134	-0.008566	1.016070
34.873700	420.557779	6.801139	-0.008624	1.019103
35.174922	423.257533	6.806144	-0.008700	1.022129
35.173176	425.979423	6.811149	-0.008701	1.025109
35.305447	428.739997	6.816154	-0.008735	1.028150
35.475185	431.474096	6.821158	-0.008779	1.031161
35.602046	434.249102	6.826163	-0.008812	1.034198
35.682728	437.056514	6.831168	-0.008833	1.037253
35.920572	439.831314	6.836173	-0.008893	1.040294
36.278416	442.603354	6.841178	-0.008983	1.043347
36.470869	445.347225	6.846182	-0.009031	1.046329
36.544380	448.167042	6.851187	-0.009051	1.049360
36.937836	450.938631	6.856192	-0.009149	1.052393
37.254254	453.675286	6.861197	-0.009229	1.055366
37.539734	456.455754	6.866202	-0.009300	1.058370
37.693910	459.231847	6.871206	-0.009340	1.061336
37.776458	462.039662	6.876211	-0.009362	1.064313
37.992432	464.852256	6.881216	-0.009417	1.067312
38.342823	467.584922	6.886221	-0.009504	1.070245
38.478301	470.410395	6.891226	-0.009539	1.073226
38.615589	473.199125	6.896230	-0.009575	1.076161
38.595618	476.074765	6.901235	-0.009572	1.079148
38.801152	478.934850	6.906240	-0.009624	1.082154
38.815191	481.791861	6.911245	-0.009629	1.085111
39.005174	484.699088	6.916250	-0.009678	1.088146
39.235106	487.554934	6.921254	-0.009736	1.091127
39.365113	490.456068	6.926259	-0.009770	1.094127
39.695915	493.347346	6.931264	-0.009852	1.097146
39.752956	496.259471	6.936269	-0.009868	1.100128
39.888848	499.202838	6.941274	-0.009904	1.103148
40.212388	502.074115	6.946278	-0.009985	1.106121
40.736842	504.903080	6.951283	-0.010115	1.109080
40.910752	507.803533	6.956288	-0.010159	1.112039
41.060428	510.669176	6.961293	-0.010198	1.114950
41.198902	513.603918	6.966298	-0.010234	1.117922
41.414136	516.496424	6.971302	-0.010288	1.120857
41.580325	519.412353	6.976307	-0.010331	1.123799
41.741704	522.341927	6.981312	-0.010372	1.126746
41.825705	525.276142	6.986317	-0.010395	1.129676
42.136922	528.228013	6.991322	-0.010473	1.132656
42.200028	531.175501	6.996326	-0.010490	1.135580
42.227964	534.194791	7.001331	-0.010499	1.138561
42.462312	537.195913	7.006336	-0.010558	1.141553
42.600780	540.180861	7.011341	-0.010594	1.144504
43.131444	543.132666	7.016346	-0.010726	1.147485
43.610760	545.993199	7.021350	-0.010845	1.150359
43.801895	548.916956	7.026355	-0.010894	1.153238
43.983367	551.854392	7.031360	-0.010940	1.156120
44.301482	554.762295	7.036365	-0.011020	1.158991
44.744635	557.642133	7.041370	-0.011130	1.161849
45.045787	560.486367	7.046374	-0.011206	1.164642
45.049712	563.429894	7.051379	-0.011209	1.167471
45.337975	566.298928	7.056384	-0.011281	1.170272
45.133457	569.314037	7.061389	-0.011233	1.173120
45.116117	572.326297	7.066394	-0.011231	1.175991
45.345496	575.339191	7.071398	-0.011289	1.178898
45.294659	578.400436	7.076403	-0.011279	1.181796
45.598852	581.403631	7.081408	-0.011355	1.184692
45.956745	584.402249	7.086413	-0.011445	1.187585
46.199651	587.375791	7.091418	-0.011506	1.190429
46.444134	590.397366	7.096422	-0.011568	1.193311
46.551534	593.407214	7.101427	-0.011596	1.196152
46.827635	596.437507	7.106432	-0.011666	1.199034
47.138809	599.443703	7.111437	-0.011744	1.201892
47.385186	602.381148	7.116442	-0.011806	1.204668
47.755863	605.380839	7.121446	-0.011899	1.207517
47.824096	608.361540	7.126451	-0.011918	1.210291
48.215491	611.350721	7.131456	-0.012015	1.213120
48.530209	614.285593	7.136461	-0.012094	1.215879
48.515665	617.310600	7.141466	-0.012093	1.218662
48.895272	620.292894	7.146470	-0.012187	1.221463
48.832522	623.315233	7.151475	-0.012174	1.224222
48.972331	626.381001	7.156480	-0.012210	1.227047
49.092356	629.393621	7.161485	-0.012242	1.229815
49.190495	632.481647	7.166490	-0.012268	1.232641
49.201444	635.577358	7.171494	-0.012273	1.235454
49.246435	638.711858	7.176499	-0.012286	1.238300
49.518056	641.842891	7.181504	-0.012354	1.241174
49.508424	644.974111	7.186509	-0.012354	1.243996
49.768011	648.141939	7.191514	-0.012420	1.246887
50.016102	651.241230	7.196518	-0.012483	1.249709
50.386495	654.368472	7.201523	-0.012575	1.252568
50.848382	657.417076	7.206528	-0.012690	1.255365
51.114882	660.488523	7.211533	-0.012757	1.258146
51.584988	663.521464	7.216538	-0.012874	1.260918
51.914582	666.507257	7.221542	-0.012957	1.263620
52.326202	669.484145	7.226547	-0.013060	1.266321
52.522605	672.454489	7.231552	-0.013110	1.268977
52.621595	675.504724	7.236557	-0.013136	1.271683
52.823656	678.482935	7.241562	-0.013187	1.274335
52.877069	681.571462	7.246566	-0.013203	1.277056
52.661515	684.685456	7.251571	-0.013152	1.279752
52.767643	687.857621	7.256576	-0.013180	1.282542
52.698243	691.003502	7.261581	-0.013165	1.285276
53.056477	694.153825	7.266586	-0.013255	1.288075
53.387400	697.289845	7.271590	-0.013338	1.290850
53.552036	700.398718	7.276595	-0.013380	1.293570
53.846988	703.558041	7.281600	-0.013455	1.296349
54.167533	706.651569	7.286605	-0.013535	1.299068
54.924297	709.672191	7.291610	-0.013722	1.301785
55.184182	712.598795	7.296614	-0.013788	1.304340
55.578288	715.594390	7.301619	-0.013886	1.306970
55.908686	718.534417	7.306624	-0.013969	1.309537
55.873193	721.569795	7.311629	-0.013962	1.312126
56.004631	724.575565	7.316634	-0.013996	1.314709
56.214056	727.632023	7.321638	-0.014050	1.317342
56.044109	730.716272	7.326643	-0.014010	1.319937
56.049899	733.872401	7.331648	-0.014014	1.322614
56.126828	737.003369	7.336653	-0.014035	1.325275
56.187968	740.174150	7.341658	-0.014052	1.327961
56.294035	743.382935	7.346662	-0.014080	1.330681
56.337470	746.578257	7.351667	-0.014093	1.333375
56.596629	749.820504	7.356672	-0.014158	1.336134
56.768615	753.009436	7.361677	-0.014203	1.338830
57.145851	756.211250	7.366682	-0.014297	1.341561
57.365808	759.352240	7.371686	-0.014353	1.344213
57.625769	762.531432	7.376691	-0.014419	1.346898
58.020618	765.657888	7.381696	-0.014517	1.349552
58.335488	768.784090	7.386701	-0.014596	1.352190
58.834102	771.833248	7.391706	-0.014720	1.354786
59.213767	774.896518	7.396710	-0.014815	1.357370
59.372995	777.947460	7.401715	-0.014856	1.359909
59.594056	781.029521	7.406720	-0.014912	1.362476
59.779090	784.076776	7.411725	-0.014960	1.365006
59.866710	787.178505	7.416730	-0.014983	1.367561
59.946604	790.313006	7.421734	-0.015005	1.370137
60.152340	793.409065	7.426739	-0.015057	1.372695
60.348617	796.548482	7.431744	-0.015107	1.375282
60.261702	799.732380	7.436749	-0.015088	1.377861
60.432980	802.915806	7.441754	-0.015132	1.380470
60.483838	806.127905	7.446758	-0.015147	1.383081
60.676349	809.326636	7.451763	-0.015196	1.385696
61.077307	812.470926	7.456768	-0.015296	1.388291
61.325671	815.652305	7.461773	-0.015359	1.390890
61.684724	818.727055	7.466778	-0.015449	1.393414
61.970560	821.897619	7.471782	-0.015521	1.396000
62.209306	824.974149	7.476787	-0.015581	1.398499
62.638652	828.107029	7.481792	-0.015689	1.401065
62.996188	831.071227	7.486797	-0.015778	1.403482
63.141787	834.181625	7.491802	-0.015816	1.405982
63.384885	837.210385	7.496806	-0.015877	1.408426
63.518449	840.322743	7.501811	-0.015912	1.410917
63.508112	843.421863	7.506816	-0.015912	1.413373
63.574770	846.609051	7.511821	-0.015930	1.415906
63.654038	849.747623	7.516826	-0.015952	1.418397
63.847166	852.971038	7.521830	-0.016001	1.420966
63.884781	856.088967	7.526835	-0.016012	1.423426
64.137049	859.325370	7.531840	-0.016076	1.426004
64.365331	862.459570	7.536845	-0.016134	1.428495
64.817167	865.611734	7.541850	-0.016247	1.431024
65.183356	868.685250	7.546854	-0.016338	1.433477
65.236216	871.861027	7.551859	-0.016353	1.435963
65.666721	874.940484	7.556864	-0.016461	1.438420
66.064773	878.019509	7.561869	-0.016560	1.440868
66.178726	881.030362	7.566874	-0.016590	1.443221
66.419267	884.166030	7.571878	-0.016651	1.445684
66.555267	887.209739	7.576883	-0.016686	1.448058
66.680302	890.366720	7.581888	-0.016719	1.450514
66.635339	893.490235	7.586893	-0.016710	1.452917
66.777765	896.679491	7.591898	-0.016747	1.455392
66.872085	899.871662	7.596902	-0.016772	1.457859
67.036817	903.083361	7.601907	-0.016815	1.460345
67.251859	906.244549	7.606912	-0.016870	1.462795
67.566975	909.423339	7.611917	-0.016949	1.465268
67.714869	912.561580	7.616922	-0.016987	1.467684
68.150947	915.726018	7.621926	-0.017096	1.470152
68.544467	918.753561	7.626931	-0.017194	1.472508
68.884290	921.859997	7.631936	-0.017279	1.474912
69.301847	924.863755	7.636941	-0.017383	1.477244
69.386557	927.945126	7.641946	-0.017406	1.479589
69.625886	930.987479	7.646950	-0.017467	1.481920
69.875945	933.985739	7.651955	-0.017530	1.484216
69.997295	937.079112	7.656960	-0.017562	1.486564
70.060790	940.147360	7.661965	-0.017579	1.488881
70.067992	943.303311	7.666970	-0.017583	1.491254
70.245517	946.404921	7.671974	-0.017629	1.493603
70.328188	949.583185	7.676979	-0.017651	1.495995
70.469188	952.737517	7.681984	-0.017688	1.498372
70.762486	955.899489	7.686989	-0.017762	1.500770
70.913955	958.984101	7.691994	-0.017801	1.503088
71.090229	962.188153	7.696998	-0.017846	1.505495
71.329691	965.274316	7.702003	-0.017907	1.507819
71.746032	968.433908	7.707008	-0.018010	1.510215
71.811277	971.507815	7.712013	-0.018029	1.512501
72.184032	974.637146	7.717018	-0.018122	1.514862
72.409035	977.728023	7.722022	-0.018179	1.517173
72.540098	980.864688	7.727027	-0.018213	1.519502
72.758022	983.956220	7.732032	-0.018268	1.521805
72.978617	987.040397	7.737037	-0.018324	1.524100
73.344516	990.108582	7.742042	-0.018416	1.526397
73.698083	993.154202	7.747046	-0.018504	1.528673
73.762259	996.242077	7.752051	-0.018522	1.530941
74.061037	999.280126	7.757056	-0.018597	1.533198
74.223902	1002.378261	7.762061	-0.018639	1.535478
74.494484	1005.387387	7.767066	-0.018707	1.537704
74.761893	1008.483534	7.772070	-0.018775	1.539989
74.791884	1011.507709	7.777075	-0.018784	1.542190
74.909487	1014.633352	7.782080	-0.018815	1.544471
75.179765	1017.664449	7.787085	-0.018883	1.546700
75.054877	1020.815147	7.792090	-0.018855	1.548964
75.171696	1023.982687	7.797094	-0.018886	1.551265
75.280496	1027.100866	7.802099	-0.018914	1.553527
75.488051	1030.313492	7.807104	-0.018967	1.555866
75.746676	1033.433475	7.812109	-0.019033	1.558140
75.989057	1036.595637	7.817114	-0.019094	1.560439
76.491695	1039.623890	7.822118	-0.019219	1.562670
76.568585	1042.761423	7.827123	-0.019240	1.564926
76.817209	1045.836333	7.832128	-0.019303	1.567153
77.043441	1048.954449	7.837133	-0.019360	1.569406
77.112472	1052.049735	7.842138	-0.019379	1.571621
77.419102	1055.177194	7.847142	-0.019456	1.573883
77.638505	1058.254282	7.852147	-0.019512	1.576096
77.911341	1061.349829	7.857152	-0.019581	1.578325
78.135482	1064.436986	7.862157	-0.019638	1.580540
78.260760	1067.460165	7.867162	-0.019670	1.582694
78.505059	1070.604641	7.872166	-0.019732	1.584945
78.572983	1073.632552	7.877171	-0.019751	1.587091
78.954773	1076.770118	7.882176	-0.019846	1.589347
79.366129	1079.745192	7.887181	-0.019949	1.591488
79.483790	1082.802870	7.892186	-0.019980	1.593651
79.679660	1085.877673	7.897190	-0.020030	1.595832
79.721519	1088.929766	7.902195	-0.020042	1.597977
80.011899	1092.029180	7.907200	-0.020115	1.600180
80.205467	1095.007924	7.912205	-0.020165	1.602285
80.464106	1098.092273	7.917210	-0.020230	1.604468
80.816464	1101.091589	7.922214	-0.020318	1.606599
81.116684	1104.092151	7.927219	-0.020393	1.608723
81.214682	1107.119667	7.932224	-0.020419	1.610839
81.467482	1110.100382	7.937229	-0.020483	1.612938
81.536866	1113.177323	7.942234	-0.020502	1.615080
81.723712	1116.196948	7.947238	-0.020550	1.617192
81.757095	1119.290676	7.952243	-0.020560	1.619336
82.040538	1122.327670	7.957248	-0.020632	1.621466
82.186806	1125.396881	7.962253	-0.020670	1.623600
82.320077	1128.455536	7.967258	-0.020704	1.625722
82.705668	1131.473356	7.972262	-0.020801	1.627842
82.897372	1134.527169	7.977267	-0.020850	1.629962
83.056799	1137.513146	7.982272	-0.020891	1.632029
83.282546	1140.583074	7.987277	-0.020948	1.634159
83.405386	1143.612271	7.992282	-0.020980	1.636246
83.559475	1146.693753	7.997286	-0.021020	1.638370
83.726868	1149.739834	8.002291	-0.021063	1.640468
84.163922	1152.695105	8.007296	-0.021171	1.642532
84.478305	1155.734321	8.012301	-0.021250	1.644636
84.676187	1158.650903	8.017306	-0.021301	1.646642
84.967096	1161.674404	8.022310	-0.021374	1.648728
85.245948	1164.607799	8.027315	-0.021444	1.650749
85.345741	1167.563835	8.032320	-0.021470	1.652763
85.496016	1170.595173	8.037325	-0.021509	1.654831
85.506997	1173.554983	8.042330	-0.021514	1.656832
85.686951	1176.653623	8.047334	-0.021560	1.658944
85.855831	1179.622320	8.052339	-0.021603	1.660964
86.035604	1182.631896	8.057344	-0.021649	1.663010
86.259879	1185.688203	8.062349	-0.021706	1.665090
86.341277	1188.670624	8.067354	-0.021728	1.667103
86.548709	1191.768759	8.072358	-0.021781	1.669204
86.565209	1194.799411	8.077363	-0.021787	1.671236
86.734926	1197.918695	8.082368	-0.021831	1.673342
86.823192	1201.023111	8.087373	-0.021854	1.675427
86.992464	1204.127012	8.092378	-0.021898	1.677517
87.301750	1207.264976	8.097382	-0.021976	1.679643
87.567149	1210.219424	8.102387	-0.022043	1.681639
88.148868	1213.272351	8.107392	-0.022187	1.683731
88.450012	1216.203769	8.112397	-0.022262	1.685711
88.584665	1219.197316	8.117402	-0.022297	1.687711
88.767243	1222.222345	8.122406	-0.022344	1.689736
88.950761	1225.143551	8.127411	-0.022391	1.691689
89.265709	1228.155043	8.132416	-0.022470	1.693713
89.571959	1231.072546	8.137421	-0.022547	1.695672
89.660295	1234.046268	8.142426	-0.022570	1.697643
89.863132	1237.064853	8.147430	-0.022622	1.699653
89.985105	1239.947194	8.152435	-0.022654	1.701563
90.287940	1242.958049	8.157440	-0.022730	1.703574
90.371975	1245.910549	8.162445	-0.022752	1.705521
90.410812	1248.892742	8.167450	-0.022764	1.707480
90.573818	1251.973207	8.172454	-0.022806	1.709515
90.791604	1254.872931	8.177459	-0.022861	1.711435
90.951167	1257.953076	8.182464	-0.022902	1.713465
90.923859	1261.011262	8.187469	-0.022898	1.715458
91.235762	1264.014053	8.192474	-0.022976	1.717448
91.456648	1267.104520	8.197478	-0.023032	1.719483
91.606627	1270.026573	8.202483	-0.023071	1.721399
91.760728	1273.141677	8.207488	-0.023111	1.723439
92.054284	1276.137224	8.212493	-0.023184	1.725413
92.190647	1279.155548	8.217498	-0.023220	1.727384
92.525912	1282.215924	8.222502	-0.023304	1.729400
92.632409	1285.150925	8.227507	-0.023332	1.731309
92.923515	1288.213400	8.232512	-0.023405	1.733317
93.073059	1291.233752	8.237517	-0.023444	1.735281
93.444190	1294.170780	8.242522	-0.023536	1.737212
93.773149	1297.168363	8.247526	-0.023619	1.739175
93.898211	1300.024958	8.252531	-0.023651	1.741024
94.033209	1303.049373	8.257536	-0.023686	1.742981
94.261421	1306.016459	8.262541	-0.023744	1.744908
94.501603	1308.904102	8.267546	-0.023805	1.746783
94.655923	1311.930009	8.272550	-0.023845	1.748736
94.851847	1314.819421	8.277555	-0.023894	1.750603
95.154470	1317.776045	8.282560	-0.023970	1.752523
95.439657	1320.721392	8.287565	-0.024042	1.754431
95.552469	1323.599005	8.292570	-0.024072	1.756276
95.812540	1326.575162	8.297574	-0.024137	1.758197
95.917448	1329.479686	8.302579	-0.024165	1.760055
96.200198	1332.366652	8.307584	-0.024236	1.761918
96.137675	1335.388685	8.312589	-0.024223	1.763830
96.309186	1338.297305	8.317594	-0.024267	1.765691
96.343680	1341.362305	8.322598	-0.024277	1.767635
96.526338	1344.361466	8.327603	-0.024324	1.769551
96.854176	1347.304785	8.332608	-0.024406	1.771443
97.329352	1350.264335	8.337613	-0.024524	1.773359
97.456324	1353.188552	8.342618	-0.024557	1.775215
97.653688	1356.121933	8.347622	-0.024607	1.777083
97.822125	1359.085341	8.352627	-0.024651	1.778964
98.192627	1361.919137	8.357632	-0.024743	1.780782
98.457294	1364.838694	8.362637	-0.024810	1.782641
98.700405	1367.700774	8.367642	-0.024871	1.784460
98.936414	1370.526590	8.372646	-0.024931	1.786254
99.203623	1373.371648	8.377651	-0.024998	1.788061
99.307225	1376.237761	8.382656	-0.025025	1.789864
99.284551	1379.130032	8.387661	-0.025022	1.791668
99.352651	1382.079851	8.392666	-0.025040	1.793516
99.455725	1385.031532	8.397670	-0.025068	1.795366
99.438011	1388.030717	8.402675	-0.025065	1.797232
99.581565	1391.078907	8.407680	-0.025103	1.799143
99.718946	1394.004191	8.412685	-0.025138	1.800974
99.911081	1397.057293	8.417690	-0.025187	1.802888
100.217648	1400.055095	8.422694	-0.025264	1.804777
100.408467	1403.000793	8.427699	-0.025313	1.806620
100.566994	1406.052747	8.432704	-0.025354	1.808525
101.005818	1408.941385	8.437709	-0.025463	1.810353
101.230086	1411.874506	8.442714	-0.025520	1.812186
101.431349	1414.871196	8.447718	-0.025571	1.814054
101.533191	1417.759015	8.452723	-0.025598	1.815844
101.730963	1420.764955	8.457728	-0.025648	1.817713
101.844425	1423.714760	8.462733	-0.025678	1.819539
102.043833	1426.614350	8.467738	-0.025729	1.821339
102.205919	1429.633574	8.472742	-0.025770	1.823208
102.175661	1432.603707	8.477747	-0.025765	1.825027
102.490209	1435.606576	8.482752	-0.025844	1.826896
102.704623	1438.632950	8.487757	-0.025898	1.828769
102.716267	1441.570438	8.492762	-0.025903	1.830566
103.089364	1444.611247	8.497766	-0.025996	1.832458
103.184257	1447.619668	8.502771	-0.026022	1.834303
103.434003	1450.593431	8.507776	-0.026085	1.836139
103.911486	1453.562598	8.512781	-0.026203	1.837991
104.018533	1456.466173	8.517786	-0.026232	1.839768
104.463950	1459.336429	8.522790	-0.026342	1.841554
104.638497	1462.247690	8.527795	-0.026387	1.843337
104.852618	1465.106559	8.532800	-0.026441	1.845091
105.057857	1468.009272	8.537805	-0.026493	1.846869
105.347051	1470.880796	8.542810	-0.026566	1.848634
105.631554	1473.669367	8.547814	-0.026638	1.850347
105.725350	1476.553975	8.552819	-0.026662	1.852099
105.888765	1479.451880	8.557824	-0.026704	1.853863
106.012033	1482.318093	8.562829	-0.026736	1.855603
106.054595	1485.261869	8.567834	-0.026749	1.857381
106.160386	1488.199316	8.572839	-0.026777	1.859159
106.244597	1491.101356	8.577843	-0.026799	1.860911
106.640318	1494.054701	8.582848	-0.026898	1.862722
106.753814	1496.951662	8.587853	-0.026928	1.864471
106.835440	1499.873958	8.592858	-0.026950	1.866231
107.114347	1502.871113	8.597863	-0.027020	1.868052
107.267949	1505.734871	8.602867	-0.027059	1.869780
107.559204	1508.642757	8.607872	-0.027133	1.871545
107.641260	1511.640797	8.612877	-0.027155	1.873343
107.763903	1514.522505	8.617882	-0.027187	1.875074
108.051200	1517.487145	8.622887	-0.027259	1.876868
108.334368	1520.422828	8.627891	-0.027330	1.878642
108.499406	1523.226075	8.632896	-0.027372	1.880325
108.652770	1526.192578	8.637901	-0.027412	1.882102
108.651070	1529.163405	8.642906	-0.027413	1.883867
108.782074	1532.108972	8.647911	-0.027448	1.885626
108.828276	1535.136585	8.652915	-0.027461	1.887426
109.016418	1538.141618	8.657920	-0.027509	1.889222
109.205399	1541.135984	8.662925	-0.027557	1.891011
109.295408	1544.200548	8.667930	-0.027581	1.892831
109.672903	1547.180667	8.672935	-0.027676	1.894624
110.045363	1550.107054	8.677939	-0.027769	1.896384
110.209641	1553.131079	8.682944	-0.027811	1.898181
110.325757	1555.995051	8.687949	-0.027841	1.899878
110.664364	1558.932587	8.692954	-0.027926	1.901637
111.237249	1561.833593	8.697959	-0.028068	1.903393
111.279918	1564.613500	8.702963	-0.028080	1.905029
111.608890	1567.492891	8.707968	-0.028163	1.906748
111.919576	1570.354027	8.712973	-0.028240	1.908453
111.964670	1573.082386	8.717978	-0.028253	1.910055
112.108319	1576.018359	8.722983	-0.028290	1.911786
112.265514	1578.879144	8.727987	-0.028331	1.913472
112.423712	1581.710536	8.732992	-0.028371	1.915140
112.451156	1584.679953	8.737997	-0.028380	1.916876
112.658137	1587.563770	8.743002	-0.028433	1.918575
112.801926	1590.417075	8.748007	-0.028470	1.920250
112.910546	1593.377188	8.753011	-0.028498	1.921983
112.992734	1596.343700	8.758016	-0.028520	1.923715
113.406168	1599.226980	8.763021	-0.028623	1.925427
113.761966	1602.101945	8.768026	-0.028712	1.927127
114.008936	1604.972694	8.773031	-0.028775	1.928813
114.098567	1607.785493	8.778035	-0.028799	1.930451
114.350566	1610.687547	8.783040	-0.028862	1.932153
114.627964	1613.550915	8.788045	-0.028932	1.933833
114.895994	1616.322879	8.793050	-0.028999	1.935459
115.198667	1619.172933	8.798055	-0.029075	1.937131
115.281644	1621.967111	8.803059	-0.029097	1.938750
115.414018	1624.756824	8.808064	-0.029132	1.940370
115.517772	1627.649685	8.813069	-0.029159	1.942045
115.544129	1630.498267	8.818074	-0.029167	1.943687
115.736060	1633.363446	8.823079	-0.029216	1.945351
115.837652	1636.282360	8.828083	-0.029243	1.947037
115.987001	1639.184217	8.833088	-0.029282	1.948715
116.172096	1642.055534	8.838093	-0.029329	1.950378
116.260012	1645.001838	8.843098	-0.029352	1.952074
116.317137	1648.001397	8.848103	-0.029368	1.953796
116.461650	1650.904660	8.853107	-0.029406	1.955469
116.800473	1653.901860	8.858112	-0.029490	1.957211
117.118495	1656.770638	8.863117	-0.029570	1.958876
117.272171	1659.618943	8.868122	-0.029610	1.960514
117.509347	1662.579491	8.873127	-0.029670	1.962222
117.474879	1665.493497	8.878131	-0.029663	1.963879
117.641680	1668.446325	8.883136	-0.029706	1.965573
117.808061	1671.430102	8.888141	-0.029749	1.967284
117.881194	1674.389889	8.893146	-0.029769	1.968971
118.170257	1677.340723	8.898151	-0.029841	1.970670
118.327401	1680.370379	8.903155	-0.029882	1.972402
118.418761	1683.327003	8.908160	-0.029906	1.974085
118.723444	1686.310189	8.913165	-0.029983	1.975799
118.896772	1689.287518	8.918170	-0.030027	1.977497
119.145633	1692.204668	8.923175	-0.030090	1.979167
119.375031	1695.100114	8.928179	-0.030148	1.980821
119.724527	1698.048483	8.933184	-0.030235	1.982513
120.057108	1700.888379	8.938189	-0.030318	1.984142
120.239175	1703.719534	8.943194	-0.030365	1.985751
120.580701	1706.603724	8.948199	-0.030450	1.987403
120.770326	1709.379667	8.953203	-0.030499	1.988979
120.888682	1712.218341	8.958208	-0.030529	1.990584
121.030249	1715.142725	8.963213	-0.030566	1.992237
121.195335	1717.963687	8.968218	-0.030608	1.993833
121.386189	1720.828598	8.973223	-0.030657	1.995455
121.333306	1723.758871	8.978227	-0.030646	1.997091
121.528388	1726.663378	8.983232	-0.030696	1.998733
121.591726	1729.575331	8.988237	-0.030713	2.000366
121.726301	1732.538823	8.993242	-0.030748	2.002033
121.838813	1735.530705	8.998247	-0.030778	2.003712
121.852160	1738.510749	9.003251	-0.030783	2.005375
122.161318	1741.547964	9.008256	-0.030861	2.007092
122.333490	1744.527888	9.013261	-0.030905	2.008765
122.565414	1747.450839	9.018266	-0.030963	2.010410
122.948524	1750.470851	9.023271	-0.031059	2.012120
123.292848	1753.329908	9.028275	-0.031145	2.013736
123.566799	1756.194550	9.033280	-0.031214	2.015347
123.886567	1759.080538	9.038285	-0.031294	2.016973
124.017964	1761.883540	9.043290	-0.031328	2.018537
124.274325	1764.720835	9.048295	-0.031393	2.020128
124.338391	1767.602152	9.053299	-0.031410	2.021727
124.573203	1770.444922	9.058304	-0.031470	2.023317
124.690655	1773.268251	9.063309	-0.031500	2.024886
124.805625	1776.173113	9.068314	-0.031530	2.026498
125.135140	1779.050986	9.073319	-0.031613	2.028111
125.378889	1781.807029	9.078323	-0.031674	2.029649
125.454528	1784.714889	9.083328	-0.031695	2.031256
125.674758	1787.597950	9.088333	-0.031751	2.032859
125.858421	1790.367599	9.093338	-0.031797	2.034396
126.110656	1793.264268	9.098343	-0.031861	2.036007
126.295497	1796.123507	9.103347	-0.031908	2.037591
126.377923	1798.870210	9.108352	-0.031930	2.039104
126.606327	1801.777774	9.113357	-0.031988	2.040715
126.787782	1804.613459	9.118362	-0.032034	2.042282
126.994217	1807.434364	9.123367	-0.032087	2.043841
127.225993	1810.263835	9.128371	-0.032145	2.045407
127.459335	1813.117895	9.133376	-0.032204	2.046984
127.704534	1815.907006	9.138381	-0.032266	2.048526
127.645230	1818.738542	9.143386	-0.032253	2.050065
127.818790	1821.673460	9.148391	-0.032298	2.051678
128.032958	1824.509430	9.153395	-0.032352	2.053240
128.186843	1827.354530	9.158400	-0.032392	2.054800
128.423687	1830.267786	9.163405	-0.032452	2.056402
128.772992	1833.054913	9.168410	-0.032539	2.057944
128.946834	1835.803161	9.173415	-0.032583	2.059449
129.221267	1838.638969	9.178419	-0.032652	2.061009
129.353564	1841.462159	9.183424	-0.032686	2.062550
129.329569	1844.259071	9.188429	-0.032683	2.064063
129.813213	1847.062341	9.193434	-0.032803	2.065618
130.031290	1849.892729	9.198439	-0.032858	2.067166
130.208475	1852.569331	9.203443	-0.032903	2.068626
130.285671	1855.391348	9.208448	-0.032924	2.070156
130.550240	1858.231047	9.213453	-0.032990	2.071709
130.593079	1861.017333	9.218458	-0.033003	2.073215
130.821080	1863.826564	9.223463	-0.033060	2.074746
130.789723	1866.728433	9.228467	-0.033055	2.076306
131.049673	1869.567019	9.233472	-0.033120	2.077854
131.103622	1872.370813	9.238477	-0.033135	2.079365
131.164429	1875.309092	9.243482	-0.033152	2.080949
131.282469	1878.263618	9.248487	-0.033183	2.082544
131.323139	1881.150773	9.253491	-0.033195	2.084096
131.577241	1884.133384	9.258496	-0.033259	2.085714
131.840128	1887.112476	9.263501	-0.033325	2.087330
132.033578	1889.922003	9.268506	-0.033375	2.088848
132.369345	1892.857747	9.273511	-0.033459	2.090443
132.435476	1895.808491	9.278515	-0.033477	2.092025
132.677631	1898.656223	9.283520	-0.033538	2.093564
132.805878	1901.598565	9.288525	-0.033571	2.095144
132.978341	1904.533414	9.293530	-0.033615	2.096722
133.050621	1907.453279	9.298535	-0.033635	2.098283
133.227340	1910.362977	9.303539	-0.033680	2.099845
133.283394	1913.376995	9.308544	-0.033696	2.101453
133.374042	1916.376134	9.313549	-0.033720	2.103054
133.526933	1919.333557	9.318554	-0.033760	2.104637
133.895710	1922.356183	9.323559	-0.033852	2.106269
134.124832	1925.281619	9.328563	-0.033910	2.107837
134.312273	1928.170066	9.333568	-0.033958	2.109382
134.585813	1931.155644	9.338573	-0.034027	2.110983
134.617865	1934.092126	9.343578	-0.034036	2.112540
134.836517	1937.033883	9.348583	-0.034092	2.114111
135.086217	1940.016396	9.353587	-0.034155	2.115706
135.225592	1942.970228	9.358592	-0.034191	2.117276
135.475926	1945.803045	9.363597	-0.034254	2.118789
135.725444	1948.748544	9.368602	-0.034317	2.120360
136.126297	1951.677539	9.373607	-0.034417	2.121933
136.283685	1954.457694	9.378611	-0.034457	2.123408
136.458985	1957.343591	9.383616	-0.034502	2.124939
136.683006	1960.255125	9.388621	-0.034559	2.126486
136.908054	1963.039683	9.393626	-0.034616	2.127965
137.223820	1965.853171	9.398631	-0.034695	2.129465
137.274615	1968.732681	9.403635	-0.034709	2.130979
137.545971	1971.576435	9.408640	-0.034778	2.132490
137.597393	1974.397689	9.413645	-0.034792	2.133971
137.660219	1977.318077	9.418650	-0.034809	2.135504
137.825969	1980.261225	9.423655	-0.034852	2.137056
138.038204	1983.002632	9.428659	-0.034906	2.138504
138.142373	1985.945091	9.433664	-0.034933	2.140049
138.307190	1988.927974	9.438669	-0.034976	2.141617
138.393282	1991.783870	9.443674	-0.034999	2.143113
138.688272	1994.715344	9.448679	-0.035073	2.144662
138.768967	1997.680151	9.453683	-0.035094	2.146212
138.893304	2000.583483	9.458688	-0.035127	2.147732
139.218533	2003.497189	9.463693	-0.035208	2.149271
139.394771	2006.438143	9.468698	-0.035253	2.150812
139.499029	2009.394792	9.473703	-0.035281	2.152355
139.716918	2012.262699	9.478707	-0.035336	2.153859
139.933068	2015.230771	9.483712	-0.035391	2.155413
140.149085	2018.179367	9.488717	-0.035446	2.156957
140.319261	2020.945858	9.493722	-0.035489	2.158401
140.384287	2023.947181	9.498727	-0.035507	2.159959
140.600006	2026.926051	9.503731	-0.035562	2.161515
140.750976	2029.816293	9.508736	-0.035601	2.163019
140.771955	2032.815339	9.513741	-0.035608	2.164569
140.965982	2035.814894	9.518746	-0.035657	2.166130
141.179849	2038.795776	9.523751	-0.035712	2.167683
141.394805	2041.735364	9.528755	-0.035766	2.169212
141.808563	2044.678981	9.533760	-0.035869	2.170757
142.099085	2047.605248	9.538765	-0.035942	2.172283
142.154387	2050.458909	9.543770	-0.035958	2.173754
142.533304	2053.392772	9.548775	-0.036052	2.175288
142.615109	2056.301866	9.553779	-0.036074	2.176788
142.896403	2059.071325	9.558784	-0.036145	2.178228
143.168415	2061.967602	9.563789	-0.036213	2.179732
143.451811	2064.800703	9.568794	-0.036285	2.181204
143.579975	2067.589237	9.573799	-0.036318	2.182640
143.657042	2070.393922	9.578803	-0.036339	2.184081
143.918890	2073.307866	9.583808	-0.036405	2.185589
144.070957	2076.170675	9.588813	-0.036444	2.187063
144.267962	2078.873393	9.593818	-0.036494	2.188456
144.448618	2081.816020	9.598823	-0.036540	2.189971
144.530576	2084.696354	9.603827	-0.036562	2.191445
144.737332	2087.489099	9.608832	-0.036614	2.192883
145.050775	2090.346223	9.613837	-0.036693	2.194359
145.258882	2093.199989	9.618842	-0.036746	2.195826
145.421833	2096.003496	9.623847	-0.036787	2.197263
145.767129	2098.713232	9.628851	-0.036874	2.198664
145.967624	2101.530754	9.633856	-0.036925	2.200109
146.205622	2104.324805	9.638861	-0.036985	2.201543
146.300167	2107.029916	9.643866	-0.037010	2.202922
146.544866	2109.819658	9.648871	-0.037071	2.204353
146.512915	2112.681584	9.653875	-0.037066	2.205801
146.596220	2115.510718	9.658880	-0.037088	2.207239
146.765873	2118.302612	9.663885	-0.037131	2.208663
146.793674	2121.234975	9.668890	-0.037140	2.210147
146.809507	2124.228721	9.673895	-0.037146	2.211661
146.804457	2127.143521	9.678899	-0.037147	2.213133
146.883364	2130.194733	9.683904	-0.037168	2.214677
147.121645	2133.269734	9.688909	-0.037228	2.216244
147.236074	2136.144189	9.693914	-0.037258	2.217700
147.291274	2139.242797	9.698919	-0.037274	2.219264
147.343148	2142.352740	9.703923	-0.037289	2.220832
147.776403	2145.354480	9.708928	-0.037397	2.222371
148.129884	2148.329629	9.713933	-0.037485	2.223890
148.370392	2151.301188	9.718938	-0.037546	2.225398
148.651874	2154.267480	9.723943	-0.037617	2.226905
148.947886	2157.108105	9.728947	-0.037691	2.228349
149.173304	2160.033617	9.733952	-0.037748	2.229831
149.616763	2162.935148	9.738957	-0.037858	2.231313
149.711520	2165.687724	9.743962	-0.037883	2.232697
149.989471	2168.549678	9.748967	-0.037953	2.234147
150.290700	2171.398588	9.753971	-0.038029	2.235591
150.440593	2174.133259	9.758976	-0.038067	2.236967
150.683101	2176.883291	9.763981	-0.038129	2.238355
150.858361	2179.676273	9.768986	-0.038173	2.239760
151.122146	2182.514413	9.773991	-0.038240	2.241193
151.300881	2185.176428	9.778995	-0.038285	2.242531
151.422139	2187.974713	9.784000	-0.038317	2.243932
151.502398	2190.824777	9.789005	-0.038338	2.245356
151.554931	2193.662446	9.794010	-0.038353	2.246770
151.596985	2196.468430	9.799015	-0.038365	2.248167
151.704959	2199.410178	9.804019	-0.038394	2.249636
151.829864	2202.369254	9.809024	-0.038426	2.251112
151.897379	2205.286894	9.814029	-0.038445	2.252564
152.012135	2208.241459	9.819034	-0.038475	2.254036
152.406555	2211.230400	9.824039	-0.038573	2.255542
152.491744	2214.149643	9.829043	-0.038596	2.256993
152.709933	2217.006843	9.834048	-0.038651	2.258421
153.157058	2219.948802	9.839053	-0.038763	2.259904
153.166706	2222.834761	9.844058	-0.038767	2.261331
153.489282	2225.613038	9.849063	-0.038848	2.262724
153.617858	2228.524957	9.854067	-0.038881	2.264169
153.833591	2231.406094	9.859072	-0.038936	2.265603
154.034699	2234.253327	9.864077	-0.038987	2.267020
154.116005	2237.076270	9.869082	-0.039009	2.268415
154.355230	2240.015081	9.874087	-0.039069	2.269877
154.336642	2242.961087	9.879091	-0.039067	2.271325
154.448433	2245.815641	9.884096	-0.039096	2.272735
154.500927	2248.835517	9.889101	-0.039111	2.274222
154.489618	2251.891179	9.894106	-0.039110	2.275721
154.667165	2254.886913	9.899111	-0.039156	2.277202
154.919299	2257.863108	9.904115	-0.039219	2.278678
154.820008	2260.975485	9.909120	-0.039197	2.280196
154.993894	2264.097625	9.914125	-0.039242	2.281736
155.221702	2267.097444	9.919130	-0.039300	2.283218
155.685699	2270.183449	9.924135	-0.039415	2.284757
155.908148	2273.213645	9.929139	-0.039471	2.286252
155.957815	2276.141426	9.934144	-0.039486	2.287685
156.227752	2279.212625	9.939149	-0.039554	2.289200
156.601281	2282.176407	9.944154	-0.039647	2.290669
156.760480	2285.158499	9.949159	-0.039688	2.292133
156.860647	2288.124874	9.954163	-0.039714	2.293584
157.182439	2291.091026	9.959168	-0.039795	2.295048
157.621894	2294.013402	9.964173	-0.039904	2.296497
157.829297	2296.738137	9.969178	-0.039957	2.297835
158.065378	2299.673240	9.974183	-0.040017	2.299276
158.186283	2302.558897	9.979187	-0.040048	2.300684
158.582220	2305.313921	9.984192	-0.040147	2.302046
158.781438	2308.114128	9.989197	-0.040197	2.303416
158.935365	2310.975706	9.994202	-0.040237	2.304813
159.123528	2313.808202	9.999207	-0.040285	2.306197
159.398321	2316.495788	10.004211	-0.040354	2.307515
159.554919	2319.307692	10.009216	-0.040394	2.308885
159.735073	2322.137646	10.014221	-0.040440	2.310264
159.909439	2324.932272	10.019226	-0.040485	2.311625
160.196778	2327.662315	10.024231	-0.040557	2.312962
160.413058	2330.454583	10.029235	-0.040611	2.314323
160.427563	2333.311059	10.034240	-0.040617	2.315701
160.648274	2335.986953	10.039245	-0.040673	2.317005
160.644431	2338.781382	10.044250	-0.040674	2.318351
160.881628	2341.693097	10.049255	-0.040734	2.319768
160.873740	2344.570896	10.054259	-0.040734	2.321152
160.901787	2347.404572	10.059264	-0.040743	2.322516
160.969544	2350.414173	10.064269	-0.040761	2.323967
161.138465	2353.369168	10.069274	-0.040804	2.325397
161.297080	2356.339053	10.074279	-0.040845	2.326832
161.381792	2359.281844	10.079283	-0.040868	2.328249
161.345616	2362.375418	10.084288	-0.040861	2.329730
161.677156	2365.450111	10.089293	-0.040944	2.331223
161.824041	2368.371693	10.094298	-0.040982	2.332631
162.120510	2371.430038	10.099303	-0.041057	2.334113
162.451455	2374.441280	10.104307	-0.041140	2.335573
162.664075	2377.263708	10.109312	-0.041194	2.336935
162.908633	2380.232847	10.114317	-0.041255	2.338368
162.984391	2383.182136	10.119322	-0.041276	2.339780
163.223356	2386.155709	10.124327	-0.041336	2.341213
163.239138	2389.033061	10.129331	-0.041342	2.342586
163.442778	2392.039686	10.134336	-0.041394	2.344031
163.593446	2395.089035	10.139341	-0.041433	2.345492
163.759884	2397.963765	10.144346	-0.041476	2.346870
164.036119	2400.969805	10.149351	-0.041545	2.348316
164.263831	2403.954667	10.154355	-0.041603	2.349749
164.564510	2406.872686	10.159360	-0.041678	2.351153
164.829033	2409.714530	10.164365	-0.041745	2.352518
165.001448	2412.658903	10.169370	-0.041789	2.353925
165.231744	2415.557934	10.174375	-0.041847	2.355313
165.272878	2418.426225	10.179379	-0.041859	2.356675
165.492010	2421.261239	10.184384	-0.041915	2.358031
165.706816	2424.283222	10.189389	-0.041969	2.359474
165.878184	2427.137620	10.194394	-0.042013	2.360834
166.152720	2429.972481	10.199399	-0.042082	2.362191
166.220747	2432.909666	10.204403	-0.042101	2.363582
166.442477	2435.823022	10.209408	-0.042157	2.364971
166.820990	2438.631127	10.214413	-0.042252	2.366319

166.922057	2441.310838	10.219418	-0.042278	2.367589
167.168050	2444.067592	10.224423	-0.042340	2.368903
167.299579	2446.759731	10.229427	-0.042374	2.370179
167.442193	2449.350496	10.234432	-0.042411	2.371407
167.826873	2451.873547	10.239437	-0.042506	2.372617
167.839000	2454.389762	10.244442	-0.042511	2.373802
167.953381	2456.902102	10.249447	-0.042541	2.374990
168.319410	2459.302572	10.254451	-0.042632	2.376139
168.311321	2461.523255	10.259456	-0.042631	2.377182
168.483244	2463.931641	10.264461	-0.042675	2.378323
168.700519	2466.195156	10.269466	-0.042730	2.379397
168.767011	2468.494830	10.274471	-0.042747	2.380480
168.896534	2470.591236	10.279475	-0.042781	2.381470
168.878777	2472.789488	10.284480	-0.042778	2.382500
169.063189	2475.052865	10.289485	-0.042824	2.383571
169.011626	2477.221921	10.294490	-0.042813	2.384583
169.058365	2479.424041	10.299495	-0.042826	2.385617
169.114495	2481.479451	10.304499	-0.042841	2.386581
169.175455	2483.597200	10.309504	-0.042858	2.387575
169.413883	2485.729897	10.314509	-0.042917	2.388586
169.522780	2487.757972	10.319514	-0.042945	2.389540
169.687217	2489.801386	10.324519	-0.042987	2.390504
169.768723	2491.698084	10.329523	-0.043008	2.391394
170.011169	2493.581257	10.334528	-0.043068	2.392287
170.086362	2495.496919	10.339533	-0.043088	2.393185
170.277111	2497.303267	10.344538	-0.043136	2.394039
170.271975	2499.211207	10.349543	-0.043136	2.394928
170.390019	2501.000769	10.354547	-0.043166	2.395768
170.631442	2502.541469	10.359552	-0.043226	2.396500
170.898525	2504.287351	10.364557	-0.043293	2.397329
170.958442	2505.862936	10.369562	-0.043308	2.398065
171.129010	2507.502511	10.374567	-0.043351	2.398838
171.257253	2509.090477	10.379571	-0.043383	2.399584
171.392270	2510.545194	10.384576	-0.043417	2.400269
171.549280	2512.013411	10.389581	-0.043457	2.400960
171.536743	2513.392809	10.394586	-0.043455	2.401601
171.746754	2514.818722	10.399591	-0.043507	2.402276
171.832712	2516.199182	10.404595	-0.043529	2.402922
172.155313	2517.502815	10.409600	-0.043608	2.403546
172.276787	2518.770727	10.414605	-0.043639	2.404141
172.365163	2520.002348	10.419610	-0.043661	2.404718
172.358908	2521.260043	10.424615	-0.043661	2.405302
172.620767	2522.421812	10.429619	-0.043725	2.405856
172.568729	2523.425601	10.434624	-0.043713	2.406318
172.663738	2524.635339	10.439629	-0.043737	2.406885
172.751651	2525.723691	10.444634	-0.043760	2.407394
172.756186	2526.806362	10.449639	-0.043761	2.407897
172.782691	2527.996365	10.454643	-0.043769	2.408450
172.933928	2529.031850	10.459648	-0.043806	2.408938
173.030355	2530.083050	10.464653	-0.043830	2.409431
172.957469	2531.136718	10.469658	-0.043813	2.409915
173.133776	2532.112480	10.474663	-0.043857	2.410376
173.248933	2533.176530	10.479667	-0.043886	2.410876
173.347749	2533.968309	10.484672	-0.043911	2.411248
173.340432	2534.917588	10.489677	-0.043909	2.411687
173.431209	2535.886047	10.494682	-0.043932	2.412140
173.630710	2536.684813	10.499687	-0.043981	2.412521
173.698855	2537.526476	10.504691	-0.043999	2.412914
173.705992	2538.475998	10.509696	-0.044001	2.413354
173.799859	2539.273962	10.514701	-0.044024	2.413728
173.855279	2540.021395	10.519706	-0.044038	2.414077
173.965233	2540.814263	10.524711	-0.044066	2.414450
174.057585	2541.535454	10.529715	-0.044089	2.414788
174.031746	2542.248590	10.534720	-0.044083	2.415116
174.232052	2543.010827	10.539725	-0.044132	2.415480
174.157111	2543.712946	10.544730	-0.044114	2.415800
174.251059	2544.255610	10.549735	-0.044138	2.416056
174.169501	2544.933018	10.554739	-0.044118	2.416364
174.162348	2545.618982	10.559744	-0.044117	2.416681
174.175977	2546.360975	10.564749	-0.044121	2.417024
174.223760	2547.001867	10.569754	-0.044133	2.417323
174.368234	2547.650293	10.574759	-0.044168	2.417630
174.426248	2548.301938	10.579763	-0.044183	2.417934
174.498898	2548.959997	10.584768	-0.044201	2.418242
174.610321	2549.569770	10.589773	-0.044229	2.418530
174.670374	2550.055319	10.594778	-0.044244	2.418757
174.798264	2550.563416	10.599783	-0.044275	2.418999
174.878678	2550.981614	10.604787	-0.044295	2.419196
174.946328	2551.663319	10.609792	-0.044312	2.419515
175.024036	2552.036595	10.614797	-0.044331	2.419691
175.068137	2552.288106	10.619802	-0.044342	2.419810
175.157175	2552.981935	10.624807	-0.044364	2.420135
175.147884	2553.241706	10.629811	-0.044362	2.420254
175.066894	2553.668333	10.634816	-0.044343	2.420446
175.175178	2554.231346	10.639821	-0.044370	2.420712
175.290038	2554.372082	10.644826	-0.044398	2.420783
175.358439	2554.884178	10.649831	-0.044415	2.421023
175.294939	2554.931914	10.654835	-0.044399	2.421042
175.218824	2555.549751	10.659840	-0.044381	2.421322
175.384928	2555.734061	10.664845	-0.044422	2.421416
175.385702	2556.213566	10.669850	-0.044422	2.421637
175.501285	2556.359700	10.674855	-0.044450	2.421711
175.453094	2556.924842	10.679859	-0.044439	2.421969
175.580342	2556.890380	10.684864	-0.044470	2.421960
175.667068	2557.513657	10.689869	-0.044491	2.422252
175.634652	2557.520690	10.694874	-0.044483	2.422254
175.657538	2557.769312	10.699879	-0.044489	2.422369
175.696615	2558.211134	10.704883	-0.044499	2.422575
175.624637	2558.208083	10.709888	-0.044481	2.422570
175.817550	2558.669136	10.714893	-0.044529	2.422793
175.695525	2558.877538	10.719898	-0.044499	2.422882
175.676215	2558.895171	10.724903	-0.044494	2.422889
175.673628	2559.528230	10.729907	-0.044494	2.423181
175.783657	2559.579241	10.734912	-0.044521	2.423210
175.868300	2559.606234	10.739917	-0.044541	2.423227
175.837498	2560.164863	10.744922	-0.044534	2.423483
175.892086	2560.270097	10.749927	-0.044548	2.423534
175.995713	2560.249700	10.754931	-0.044573	2.423531
175.850335	2560.421342	10.759936	-0.044537	2.423602
176.019864	2560.939369	10.764941	-0.044579	2.423850
175.975231	2560.924837	10.769946	-0.044568	2.423841
175.980189	2560.939180	10.774951	-0.044569	2.423847
175.942409	2561.088234	10.779955	-0.044560	2.423914
176.005918	2561.607726	10.784960	-0.044576	2.424157
176.091678	2561.621040	10.789965	-0.044597	2.424168
176.072263	2561.592582	10.794970	-0.044592	2.424153
176.207159	2561.591772	10.799975	-0.044625	2.424161
176.315450	2561.580980	10.804979	-0.044651	2.424162
176.226655	2562.041438	10.809984	-0.044630	2.424369
176.542508	2562.277655	10.814989	-0.044707	2.424495
176.466455	2562.254735	10.819994	-0.044689	2.424480
176.531905	2562.255948	10.824999	-0.044704	2.424484
176.551501	2562.255286	10.830003	-0.044709	2.424485
176.621388	2562.234594	10.835008	-0.044726	2.424480
176.575870	2562.270689	10.840013	-0.044715	2.424494
176.483208	2562.253862	10.845018	-0.044692	2.424481
176.367131	2562.283633	10.850023	-0.044664	2.424488
176.333033	2562.285443	10.855027	-0.044656	2.424487
176.331884	2562.271371	10.860032	-0.044655	2.424480
176.309963	2562.301200	10.865037	-0.044650	2.424493
176.220254	2562.285031	10.870042	-0.044628	2.424480
176.289333	2562.281054	10.875047	-0.044645	2.424482
176.345854	2562.284371	10.880051	-0.044658	2.424487
176.238405	2562.278502	10.885056	-0.044632	2.424478
176.316354	2562.431129	10.890061	-0.044651	2.424553
176.340540	2562.906382	10.895066	-0.044657	2.424773
176.436113	2562.909354	10.900071	-0.044681	2.424780
176.563152	2562.898657	10.905075	-0.044712	2.424782
176.528565	2562.882891	10.910080	-0.044703	2.424773
176.629959	2562.909911	10.915085	-0.044728	2.424791
176.529724	2562.888236	10.920090	-0.044703	2.424775
176.547827	2562.899627	10.925095	-0.044708	2.424781
176.428631	2562.917229	10.930099	-0.044678	2.424783
176.586855	2562.872211	10.935104	-0.044717	2.424771
176.663760	2562.889327	10.940109	-0.044736	2.424783
176.552921	2562.888953	10.945114	-0.044709	2.424777
176.646489	2562.888099	10.950119	-0.044731	2.424782
176.693211	2562.641988	10.955123	-0.044743	2.424671
176.626437	2562.235072	10.960128	-0.044726	2.424480
176.673361	2562.263635	10.965133	-0.044737	2.424496
176.686492	2562.233920	10.970138	-0.044740	2.424483
176.646377	2562.238159	10.975143	-0.044731	2.424482
176.713284	2562.239872	10.980147	-0.044747	2.424487
176.626653	2562.229432	10.985152	-0.044726	2.424477
176.731665	2562.247866	10.990157	-0.044751	2.424491
176.706617	2562.226872	10.995162	-0.044745	2.424480
176.815541	2562.225161	11.000167	-0.044772	2.424486
176.739933	2562.241524	11.005171	-0.044753	2.424489
176.654984	2562.229183	11.010176	-0.044732	2.424479
176.658793	2562.260964	11.015181	-0.044733	2.424493
176.579730	2562.250280	11.020186	-0.044714	2.424484
176.699918	2562.240416	11.025191	-0.044743	2.424486
176.754760	2562.250720	11.030195	-0.044756	2.424494
176.697074	2561.567401	11.035200	-0.044742	2.424176
176.842241	2561.535841	11.040205	-0.044777	2.424170
176.796346	2561.516034	11.045210	-0.044766	2.424158
176.873469	2561.506328	11.050215	-0.044785	2.424158
176.936567	2561.506468	11.055219	-0.044800	2.424161
176.831917	2561.499245	11.060224	-0.044774	2.424152
176.956178	2561.510242	11.065229	-0.044805	2.424164
176.980590	2561.094673	11.070234	-0.044810	2.423974
176.959762	2560.816865	11.075239	-0.044805	2.423845
176.880621	2560.832642	11.080243	-0.044786	2.423848
176.817709	2560.815252	11.085248	-0.044770	2.423836
176.867274	2560.841788	11.090253	-0.044782	2.423851
176.618735	2560.848036	11.095258	-0.044721	2.423840
176.567264	2560.864849	11.100263	-0.044709	2.423845
176.714771	2560.852666	11.105267	-0.044745	2.423848
176.591443	2560.856199	11.110272	-0.044715	2.423843
176.598921	2560.882439	11.115277	-0.044716	2.423855
176.512999	2560.861751	11.120282	-0.044695	2.423841
176.656208	2560.865009	11.125287	-0.044730	2.423850
176.626004	2560.873466	11.130291	-0.044723	2.423852
176.610828	2560.856361	11.135296	-0.044719	2.423844
176.759562	2560.311120	11.140301	-0.044755	2.423601
176.854090	2560.144377	11.145306	-0.044778	2.423529
176.760053	2560.168072	11.150311	-0.044755	2.423535
176.954140	2560.148514	11.155315	-0.044802	2.423537
176.851950	2560.140322	11.160320	-0.044777	2.423527
176.927011	2560.159677	11.165325	-0.044795	2.423541
176.958780	2560.126683	11.170330	-0.044803	2.423527
177.004111	2559.492428	11.175335	-0.044814	2.423238
176.966925	2559.478350	11.180339	-0.044804	2.423229
176.947672	2559.455646	11.185344	-0.044800	2.423217
176.940754	2559.489396	11.190349	-0.044798	2.423233
176.914126	2559.462846	11.195354	-0.044791	2.423219
176.921551	2559.190833	11.200359	-0.044793	2.423094
176.916420	2558.773626	11.205363	-0.044791	2.422901
176.861707	2558.744744	11.210368	-0.044778	2.422885
176.975713	2558.759679	11.215373	-0.044806	2.422898
176.824581	2558.760514	11.220378	-0.044769	2.422890
176.807292	2558.762991	11.225383	-0.044764	2.422890
176.881411	2558.769912	11.230387	-0.044782	2.422898
176.879246	2558.238861	11.235392	-0.044781	2.422653
176.870117	2558.078036	11.240397	-0.044779	2.422578
176.828934	2558.065129	11.245402	-0.044769	2.422570
176.923277	2558.058398	11.250407	-0.044792	2.422572
177.028495	2558.061185	11.255411	-0.044818	2.422579
177.063080	2558.027518	11.260416	-0.044826	2.422566
177.048155	2557.448967	11.265421	-0.044822	2.422298
177.027610	2557.369174	11.270426	-0.044817	2.422261
176.936649	2557.378604	11.275431	-0.044794	2.422260
176.940410	2557.385629	11.280435	-0.044795	2.422263
176.861626	2557.374941	11.285440	-0.044776	2.422254
176.964505	2557.054805	11.290445	-0.044801	2.422112
176.990775	2556.714898	11.295450	-0.044807	2.421957
176.934031	2556.739127	11.300455	-0.044793	2.421965
176.880573	2556.752453	11.305459	-0.044780	2.421968
176.834373	2556.727631	11.310464	-0.044769	2.421954
177.037249	2556.727643	11.315469	-0.044818	2.421965
176.913582	2556.317976	11.320474	-0.044787	2.421770
176.894870	2556.039830	11.325479	-0.044783	2.421640
176.861735	2556.046952	11.330483	-0.044775	2.421642
176.946566	2556.022745	11.335488	-0.044795	2.421635
177.005649	2556.037244	11.340493	-0.044810	2.421645
176.935813	2556.025472	11.345498	-0.044792	2.421636
177.004338	2555.483024	11.350503	-0.044809	2.421390
176.821721	2555.387141	11.355507	-0.044764	2.421335
176.949197	2555.342829	11.360512	-0.044795	2.421322
176.912292	2555.382923	11.365517	-0.044786	2.421338
176.909440	2555.357224	11.370522	-0.044785	2.421326
176.979622	2555.337853	11.375527	-0.044802	2.421321
177.005658	2554.768826	11.380531	-0.044808	2.421061
176.892801	2554.679687	11.385536	-0.044780	2.421013
177.027464	2554.690373	11.390541	-0.044813	2.421026
176.917111	2554.680844	11.395546	-0.044786	2.421015
176.995345	2554.673358	11.400551	-0.044805	2.421016
176.935837	2554.487301	11.405555	-0.044791	2.420927
176.964037	2554.170346	11.410560	-0.044797	2.420782
176.986148	2554.190363	11.415565	-0.044803	2.420793
176.968962	2554.177931	11.420570	-0.044798	2.420786
176.974658	2554.178621	11.425575	-0.044800	2.420787
176.849974	2554.202334	11.430579	-0.044769	2.420791
176.880171	2553.623445	11.435584	-0.044776	2.420525
177.056076	2553.457441	11.440589	-0.044819	2.420459
176.997998	2553.445941	11.445594	-0.044805	2.420450
176.907270	2553.450615	11.450599	-0.044782	2.420447
177.020539	2553.464917	11.455603	-0.044810	2.420460
177.032802	2553.046379	11.460608	-0.044813	2.420268
177.113907	2552.751143	11.465613	-0.044832	2.420136
177.018554	2552.753337	11.470618	-0.044809	2.420132
177.152848	2552.739679	11.475623	-0.044842	2.420133
177.113664	2552.560690	11.480627	-0.044832	2.420048
177.124314	2552.044266	11.485632	-0.044834	2.419811
177.328415	2552.048818	11.490637	-0.044884	2.419824
177.317114	2551.975767	11.495642	-0.044881	2.419790
177.183086	2551.414457	11.500647	-0.044848	2.419523
177.256434	2551.411959	11.505651	-0.044866	2.419526
177.276658	2551.387184	11.510656	-0.044870	2.419516
177.255691	2550.812808	11.515661	-0.044865	2.419250
177.253013	2550.685598	11.520666	-0.044864	2.419191
177.209592	2550.701084	11.525671	-0.044853	2.419196
177.156459	2550.361464	11.530675	-0.044840	2.419036
177.013709	2550.032816	11.535680	-0.044805	2.418876
176.918346	2550.072917	11.540685	-0.044782	2.418890
176.943172	2550.051983	11.545690	-0.044788	2.418881
176.915725	2550.045893	11.550695	-0.044781	2.418877
177.002520	2549.984909	11.555699	-0.044802	2.418854
176.913991	2549.362122	11.560704	-0.044780	2.418561
176.823612	2549.404656	11.565709	-0.044758	2.418576
176.995232	2549.360036	11.570714	-0.044799	2.418565
176.980420	2549.355110	11.575719	-0.044796	2.418562
177.076376	2549.370478	11.580723	-0.044819	2.418574
177.105462	2548.830804	11.585728	-0.044826	2.418327
177.216617	2548.686011	11.590733	-0.044853	2.418266
177.185232	2548.667891	11.595738	-0.044845	2.418256
177.204563	2548.565780	11.600743	-0.044850	2.418210
177.222925	2547.964929	11.605747	-0.044854	2.417934
177.216638	2547.932585	11.610752	-0.044852	2.417918
177.360394	2547.947172	11.615757	-0.044887	2.417933
177.269130	2547.310418	11.620762	-0.044864	2.417634
177.273702	2547.251051	11.625767	-0.044865	2.417607
177.360422	2547.264150	11.630771	-0.044887	2.417618
177.148025	2546.642293	11.635776	-0.044834	2.417319
177.176533	2546.590827	11.640781	-0.044841	2.417297
177.161582	2546.578823	11.645786	-0.044837	2.417290
177.070134	2546.549463	11.650791	-0.044815	2.417272
176.954646	2545.990569	11.655795	-0.044786	2.417007
177.019287	2545.961058	11.660800	-0.044802	2.416997
176.978189	2545.980989	11.665805	-0.044792	2.417004
176.950101	2545.975665	11.670810	-0.044785	2.417000
177.004364	2545.965679	11.675815	-0.044798	2.416998
176.965796	2545.402177	11.680819	-0.044788	2.416736
176.875995	2545.259393	11.685824	-0.044766	2.416665
176.910756	2545.282213	11.690829	-0.044775	2.416677
176.996463	2545.251817	11.695834	-0.044795	2.416668
176.936940	2545.256762	11.700839	-0.044781	2.416667
177.177965	2544.990030	11.705843	-0.044839	2.416557
177.115155	2544.558700	11.710848	-0.044824	2.416355
177.144960	2544.576038	11.715853	-0.044831	2.416364
177.193425	2544.555269	11.720858	-0.044843	2.416357
177.083745	2544.155394	11.725863	-0.044816	2.416167
177.285409	2543.891491	11.730867	-0.044865	2.416056
177.143669	2543.889601	11.735872	-0.044830	2.416047
177.349431	2543.761726	11.740877	-0.044880	2.416000
177.185809	2543.387773	11.745882	-0.044840	2.415818
177.270864	2543.368948	11.750887	-0.044860	2.415814
177.242292	2543.406603	11.755891	-0.044853	2.415829
177.355955	2542.645343	11.760896	-0.044881	2.415484
177.281136	2542.671760	11.765901	-0.044862	2.415492
177.338038	2542.618879	11.770906	-0.044876	2.415471
177.172175	2541.978419	11.775911	-0.044835	2.415166
177.215805	2541.993039	11.780915	-0.044846	2.415175
177.087231	2541.987864	11.785920	-0.044814	2.415165
177.125014	2541.732962	11.790925	-0.044823	2.415049
177.100701	2541.300239	11.795930	-0.044817	2.414848
177.061621	2541.305729	11.800935	-0.044807	2.414848
177.019258	2541.327834	11.805939	-0.044797	2.414856
176.951467	2541.292255	11.810944	-0.044780	2.414836
177.041691	2540.799281	11.815949	-0.044802	2.414613
177.026109	2540.667481	11.820954	-0.044798	2.414551
176.970726	2540.662810	11.825959	-0.044784	2.414546
176.996082	2540.679323	11.830963	-0.044790	2.414555
177.036943	2540.650710	11.835968	-0.044800	2.414544
177.202095	2539.958501	11.840973	-0.044840	2.414234
177.122968	2539.935130	11.845978	-0.044821	2.414218
177.007591	2539.950641	11.850983	-0.044792	2.414219
177.266572	2539.784562	11.855987	-0.044856	2.414157
177.281790	2539.227974	11.860992	-0.044859	2.413900
177.409079	2539.248203	11.865997	-0.044890	2.413917
177.462587	2538.974956	11.871002	-0.044903	2.413793
177.474902	2538.538308	11.876007	-0.044905	2.413592
177.537839	2538.545820	11.881011	-0.044921	2.413599
177.245391	2537.893044	11.886016	-0.044849	2.413281
177.509076	2537.888108	11.891021	-0.044913	2.413293
177.311553	2537.734456	11.896026	-0.044865	2.413211
177.301370	2537.173097	11.901031	-0.044862	2.412951
177.246753	2537.207157	11.906035	-0.044848	2.412964
177.066417	2537.199587	11.911040	-0.044804	2.412950
177.000556	2536.649841	11.916045	-0.044788	2.412692
176.810194	2536.560493	11.921050	-0.044741	2.412640
176.760476	2536.551095	11.926055	-0.044729	2.412633
176.816647	2536.564487	11.931059	-0.044742	2.412642
176.760655	2536.543035	11.936064	-0.044729	2.412629
176.836771	2536.563431	11.941069	-0.044747	2.412643
176.797084	2536.557865	11.946074	-0.044737	2.412638
176.956072	2536.352815	11.951079	-0.044776	2.412552
176.993582	2535.854600	11.956083	-0.044785	2.412323
176.934977	2535.838870	11.961088	-0.044770	2.412313
177.161487	2535.826993	11.966093	-0.044826	2.412320
177.137157	2535.826969	11.971098	-0.044820	2.412319
177.215088	2535.338687	11.976103	-0.044838	2.412097
177.244407	2535.193427	11.981107	-0.044845	2.412032
177.106761	2535.184018	11.986112	-0.044812	2.412020
177.234644	2534.971689	11.991117	-0.044843	2.411929
177.267143	2534.459706	11.996122	-0.044850	2.411693
177.238701	2534.466260	12.001127	-0.044843	2.411695
177.159378	2534.490184	12.006131	-0.044824	2.411701
177.115341	2533.815959	12.011136	-0.044813	2.411387
177.061737	2533.838078	12.016141	-0.044799	2.411394
177.159422	2533.808253	12.021146	-0.044823	2.411386
177.185494	2533.688052	12.026151	-0.044829	2.411332
177.081804	2533.164234	12.031155	-0.044804	2.411083
177.084044	2533.145104	12.036160	-0.044804	2.411075
177.040584	2533.173735	12.041165	-0.044793	2.411085
176.990362	2533.165761	12.046170	-0.044781	2.411079
177.098178	2532.761392	12.051175	-0.044807	2.410898
177.118569	2532.617296	12.056179	-0.044812	2.410832
177.061265	2532.593671	12.061184	-0.044798	2.410818
176.979440	2532.626331	12.066189	-0.044778	2.410828
177.081963	2532.449909	12.071194	-0.044803	2.410752
177.089346	2531.868768	12.076199	-0.044804	2.410484
177.120572	2531.891939	12.081203	-0.044812	2.410496
177.105866	2531.857361	12.086208	-0.044808	2.410479
177.260358	2531.633116	12.091213	-0.044845	2.410384
177.246726	2531.172962	12.096218	-0.044842	2.410171
177.201180	2531.170491	12.101223	-0.044831	2.410167
177.219952	2531.192489	12.106227	-0.044835	2.410178
177.350712	2530.497243	12.111232	-0.044866	2.409864
177.262180	2530.495331	12.116237	-0.044845	2.409858
177.145491	2530.495190	12.121242	-0.044816	2.409851
177.246359	2530.000863	12.126247	-0.044840	2.409628
177.113316	2529.884774	12.131251	-0.044808	2.409566
177.138022	2529.849755	12.136256	-0.044814	2.409551
177.120763	2529.876506	12.141261	-0.044809	2.409563
177.189252	2529.174249	12.146266	-0.044826	2.409241
177.120908	2529.143581	12.151271	-0.044809	2.409223
177.160944	2529.157903	12.156275	-0.044819	2.409232
177.126251	2528.993372	12.161280	-0.044810	2.409154
177.005026	2528.505563	12.166285	-0.044780	2.408921
177.064441	2528.495265	12.171290	-0.044794	2.408920
177.064557	2528.478772	12.176295	-0.044794	2.408912
176.983395	2528.502919	12.181299	-0.044774	2.408919
176.887676	2528.252917	12.186304	-0.044751	2.408797
177.007525	2527.829571	12.191309	-0.044780	2.408608
177.070894	2527.819124	12.196314	-0.044795	2.408607
177.057962	2527.806257	12.201319	-0.044792	2.408600
177.036000	2527.829534	12.206323	-0.044787	2.408610
177.001013	2527.242997	12.211328	-0.044777	2.408336
177.009019	2527.156149	12.216333	-0.044779	2.408296
176.929484	2527.177064	12.221338	-0.044760	2.408301
176.962821	2527.160874	12.226343	-0.044768	2.408295
177.063232	2527.168781	12.231347	-0.044792	2.408305
177.078372	2526.522272	12.236352	-0.044796	2.408006
177.167928	2526.431479	12.241357	-0.044817	2.407969
177.201766	2526.414891	12.246362	-0.044826	2.407963
177.227810	2526.269595	12.251367	-0.044832	2.407897
177.321218	2525.732111	12.256371	-0.044854	2.407654
177.274390	2525.717354	12.261376	-0.044843	2.407644
177.348189	2525.621098	12.266381	-0.044861	2.407604
177.394658	2525.035232	12.271386	-0.044871	2.407335
177.286882	2525.025274	12.276391	-0.044845	2.407324
177.329367	2524.876984	12.281395	-0.044855	2.407258
177.267024	2524.388069	12.286400	-0.044840	2.407027
177.268338	2524.405781	12.291405	-0.044840	2.407036
177.148849	2524.414438	12.296410	-0.044811	2.407033
177.065131	2523.709056	12.301415	-0.044790	2.406701
176.983008	2523.748131	12.306419	-0.044769	2.406714
176.838904	2523.741977	12.311424	-0.044734	2.406703
176.935272	2523.753387	12.316429	-0.044758	2.406714
176.767588	2523.767972	12.321434	-0.044717	2.406711
176.795276	2523.751471	12.326439	-0.044723	2.406705
176.841090	2523.460425	12.331443	-0.044734	2.406573
176.789859	2523.091460	12.336448	-0.044721	2.406399
176.925432	2523.084246	12.341453	-0.044755	2.406403
177.048847	2523.063381	12.346458	-0.044785	2.406400
176.981813	2523.062902	12.351463	-0.044768	2.406396
177.039162	2523.083144	12.356467	-0.044782	2.406409
177.052700	2522.534599	12.361472	-0.044785	2.406155
177.204537	2522.385718	12.366477	-0.044822	2.406095
177.272979	2522.367573	12.371482	-0.044839	2.406090
177.198135	2522.244213	12.376487	-0.044820	2.406029
177.262779	2521.883289	12.381491	-0.044836	2.405865
177.277901	2521.848819	12.386496	-0.044839	2.405850
177.379584	2521.741451	12.391501	-0.044864	2.405806
177.289541	2521.138150	12.396506	-0.044841	2.405521
177.232755	2521.142474	12.401511	-0.044827	2.405520
177.200296	2521.164329	12.406515	-0.044820	2.405528
177.118041	2520.512375	12.411520	-0.044799	2.405221
177.105014	2520.490796	12.416525	-0.044796	2.405210
177.094965	2520.481970	12.421530	-0.044793	2.405205
176.885679	2520.487900	12.426535	-0.044742	2.405196
176.991000	2520.282888	12.431539	-0.044767	2.405107
176.990009	2519.780490	12.436544	-0.044767	2.404874
176.802087	2519.820798	12.441549	-0.044721	2.404882
176.716372	2519.831711	12.446554	-0.044700	2.404882
176.728101	2519.817180	12.451559	-0.044703	2.404876
176.977104	2519.814827	12.456563	-0.044763	2.404889
176.905857	2519.786960	12.461568	-0.044746	2.404872
176.850984	2519.496408	12.466573	-0.044732	2.404734
176.915887	2519.163219	12.471578	-0.044748	2.404583
177.049635	2519.138382	12.476583	-0.044780	2.404579
177.008920	2519.163602	12.481587	-0.044770	2.404588
176.949610	2519.143353	12.486592	-0.044756	2.404576
177.202393	2518.918221	12.491597	-0.044817	2.404486
177.061145	2518.450699	12.496602	-0.044783	2.404260
177.184820	2518.422393	12.501607	-0.044813	2.404254
177.150686	2518.443438	12.506611	-0.044804	2.404262
176.994094	2518.151696	12.511616	-0.044766	2.404118
177.116053	2517.765162	12.516621	-0.044795	2.403945
177.051296	2517.777872	12.521626	-0.044779	2.403947
177.049003	2517.759019	12.526631	-0.044779	2.403939
177.120332	2517.702188	12.531635	-0.044796	2.403916
176.957668	2517.087482	12.536640	-0.044756	2.403622
176.933044	2517.113406	12.541645	-0.044750	2.403632
176.877057	2517.124363	12.546650	-0.044736	2.403634
176.817653	2517.122631	12.551655	-0.044721	2.403630
176.830680	2517.142910	12.556659	-0.044725	2.403640
176.738173	2517.120711	12.561664	-0.044702	2.403624
176.905230	2516.996965	12.566669	-0.044743	2.403576
176.956850	2516.452442	12.571674	-0.044755	2.403326
176.880707	2516.446722	12.576679	-0.044736	2.403319
177.044592	2516.459850	12.581683	-0.044776	2.403335
176.928836	2516.440857	12.586688	-0.044748	2.403319
176.942620	2516.461711	12.591693	-0.044751	2.403330
176.988050	2516.055140	12.596698	-0.044762	2.403144
176.981231	2515.710490	12.601703	-0.044760	2.402983
177.100040	2515.728826	12.606707	-0.044789	2.402999
176.994690	2515.715280	12.611712	-0.044763	2.402986
177.121817	2515.639491	12.616717	-0.044794	2.402958
177.126438	2515.026286	12.621722	-0.044795	2.402674
177.141935	2515.007269	12.626727	-0.044798	2.402666
177.101985	2515.037425	12.631731	-0.044788	2.402677
177.028416	2515.025010	12.636736	-0.044770	2.402667
177.142820	2514.427925	12.641741	-0.044798	2.402397
176.952814	2514.367361	12.646746	-0.044751	2.402358
176.885169	2514.357245	12.651751	-0.044735	2.402349
176.849974	2514.386140	12.656755	-0.044726	2.402360
176.723350	2514.383290	12.661760	-0.044695	2.402352
176.868877	2514.379168	12.666765	-0.044731	2.402358
177.032393	2514.072108	12.671770	-0.044770	2.402225
177.016978	2513.710843	12.676775	-0.044766	2.402056
176.992737	2513.742082	12.681779	-0.044760	2.402069
176.843863	2513.735259	12.686784	-0.044724	2.402058
176.881412	2513.740070	12.691789	-0.044733	2.402062
176.914338	2513.734699	12.696794	-0.044741	2.402061
176.971854	2513.016110	12.701799	-0.044754	2.401731
177.080174	2513.022947	12.706803	-0.044781	2.401740
177.057311	2513.013030	12.711808	-0.044775	2.401734
177.056956	2513.027884	12.716813	-0.044775	2.401741
177.173529	2512.660503	12.721818	-0.044803	2.401577
177.123828	2512.328416	12.726823	-0.044791	2.401420
177.089841	2512.367567	12.731827	-0.044782	2.401436
176.915319	2512.358208	12.736832	-0.044740	2.401422
176.923349	2512.366654	12.741837	-0.044742	2.401426
176.879616	2511.952579	12.746842	-0.044731	2.401231
176.900713	2511.688723	12.751847	-0.044735	2.401110
176.938483	2511.713650	12.756851	-0.044745	2.401123
176.752595	2511.713424	12.761856	-0.044699	2.401113
176.796489	2511.726515	12.766861	-0.044710	2.401121
176.750262	2511.724855	12.771866	-0.044698	2.401118
176.731285	2511.710098	12.776871	-0.044694	2.401110
176.742834	2511.737250	12.781875	-0.044697	2.401123
176.766702	2511.702434	12.786880	-0.044702	2.401108
176.763688	2511.216237	12.791885	-0.044701	2.400882
176.865284	2511.207771	12.796890	-0.044726	2.400884
176.788823	2511.194730	12.801895	-0.044707	2.400873
176.825792	2511.213373	12.806899	-0.044716	2.400884
176.806452	2511.200341	12.811904	-0.044711	2.400877
176.955195	2511.195465	12.816909	-0.044748	2.400883
177.141614	2511.142289	12.821914	-0.044793	2.400869
177.078815	2510.438881	12.826919	-0.044777	2.400539
177.213055	2510.450897	12.831923	-0.044810	2.400552
177.012526	2510.452488	12.836928	-0.044761	2.400541
177.043480	2510.459446	12.841933	-0.044768	2.400546
176.977900	2509.922995	12.846938	-0.044752	2.400293
177.024395	2509.768904	12.851943	-0.044763	2.400224
176.951927	2509.790294	12.856947	-0.044745	2.400230
176.927433	2509.777903	12.861952	-0.044739	2.400222
176.830013	2509.804719	12.866957	-0.044715	2.400229
176.770095	2509.801061	12.871962	-0.044701	2.400224
176.794155	2509.383204	12.876967	-0.044706	2.400031
176.899927	2509.112054	12.881971	-0.044732	2.399911
176.709418	2509.114773	12.886976	-0.044685	2.399902
176.639672	2509.133812	12.891981	-0.044668	2.399906
176.728163	2509.121249	12.896986	-0.044690	2.399906
176.676241	2509.114257	12.901991	-0.044677	2.399899
176.805206	2509.134632	12.906995	-0.044708	2.399916
176.885906	2509.096176	12.912000	-0.044728	2.399903
177.067057	2509.089973	12.917005	-0.044772	2.399910
177.073618	2508.516911	12.922010	-0.044773	2.399644
177.021799	2508.447147	12.927015	-0.044761	2.399609
177.283519	2508.438048	12.932019	-0.044824	2.399620
177.072431	2508.431900	12.937024	-0.044773	2.399605
177.137589	2507.811410	12.942029	-0.044788	2.399320
177.257531	2507.721135	12.947034	-0.044817	2.399285
177.121046	2507.724583	12.952039	-0.044784	2.399278
176.964910	2507.764014	12.957043	-0.044746	2.399288
176.956902	2507.085863	12.962048	-0.044743	2.398972
176.866210	2507.092053	12.967053	-0.044721	2.398969
176.794892	2507.108938	12.972058	-0.044704	2.398973
176.765910	2507.081676	12.977063	-0.044697	2.398959
176.896070	2507.096177	12.982067	-0.044728	2.398973
176.736054	2507.103540	12.987072	-0.044689	2.398967
176.779181	2507.105630	12.992077	-0.044700	2.398971
176.872787	2506.871318	12.997082	-0.044722	2.398867
176.882457	2506.403803	13.002087	-0.044724	2.398650
176.862227	2506.435854	13.007091	-0.044719	2.398664
176.877330	2506.400807	13.012096	-0.044723	2.398648
176.853675	2506.416170	13.017101	-0.044717	2.398654
176.951032	2506.416597	13.022106	-0.044741	2.398660
176.945465	2506.390811	13.027111	-0.044739	2.398648
176.767913	2505.863591	13.032115	-0.044695	2.398392
177.041541	2505.734239	13.037120	-0.044762	2.398348
177.110841	2505.737120	13.042125	-0.044779	2.398353
177.125742	2505.730615	13.047130	-0.044783	2.398351
177.027876	2505.635384	13.052135	-0.044759	2.398301
177.127577	2505.034437	13.057139	-0.044782	2.398027
177.058236	2505.010159	13.062144	-0.044765	2.398011
177.218655	2505.013526	13.067149	-0.044805	2.398022
177.184500	2504.890321	13.072154	-0.044796	2.397963
177.097602	2504.331610	13.077159	-0.044774	2.397698
177.215581	2504.339876	13.082163	-0.044803	2.397708
177.105460	2504.333384	13.087168	-0.044776	2.397699
177.012704	2504.231519	13.092173	-0.044753	2.397646
176.974164	2503.686028	13.097178	-0.044744	2.397390
177.044673	2503.650525	13.102183	-0.044761	2.397378
176.999211	2503.688025	13.107187	-0.044750	2.397393
176.883706	2503.685556	13.112192	-0.044721	2.397385
176.765196	2503.707600	13.117197	-0.044692	2.397388
176.836541	2503.583473	13.122202	-0.044710	2.397334
176.722598	2503.063129	13.127207	-0.044681	2.397086
176.924830	2503.065000	13.132211	-0.044731	2.397098
176.811587	2503.060579	13.137216	-0.044703	2.397090
176.810155	2503.061457	13.142221	-0.044702	2.397090
176.952820	2503.059958	13.147226	-0.044737	2.397097
176.938739	2503.043623	13.152231	-0.044734	2.397089
177.213234	2502.684541	13.157235	-0.044801	2.396937
177.029648	2502.337816	13.162240	-0.044755	2.396765
177.124264	2502.326828	13.167245	-0.044778	2.396766
177.133907	2502.343099	13.172250	-0.044781	2.396774
176.905711	2502.005937	13.177255	-0.044725	2.396604
177.207691	2501.662957	13.182259	-0.044798	2.396461
177.161174	2501.651305	13.187264	-0.044787	2.396453
177.130156	2501.664889	13.192269	-0.044779	2.396458
177.110081	2501.388869	13.197274	-0.044774	2.396328
176.947240	2501.007174	13.202279	-0.044734	2.396141
176.947730	2501.040658	13.207283	-0.044734	2.396157
176.882430	2501.020607	13.212288	-0.044718	2.396143
176.794740	2501.037842	13.217293	-0.044696	2.396146
176.830527	2501.051213	13.222298	-0.044705	2.396155
176.793166	2501.000898	13.227303	-0.044696	2.396129
176.773506	2500.595514	13.232307	-0.044691	2.395939
176.830555	2500.567716	13.237312	-0.044705	2.395929
176.877833	2500.556877	13.242317	-0.044716	2.395927
176.818973	2500.580938	13.247322	-0.044702	2.395935
176.717738	2500.573709	13.252327	-0.044677	2.395926
176.862646	2500.576606	13.257331	-0.044712	2.395935
176.831840	2500.565365	13.262336	-0.044705	2.395928
176.785642	2500.560717	13.267341	-0.044693	2.395923
176.803623	2500.194276	13.272346	-0.044697	2.395754
176.668327	2499.856525	13.277351	-0.044664	2.395589
176.715099	2499.882270	13.282355	-0.044675	2.395603
176.769181	2499.858862	13.287360	-0.044688	2.395595
176.913041	2499.844459	13.292365	-0.044724	2.395597
176.806699	2499.870033	13.297370	-0.044697	2.395603
176.758769	2499.849854	13.302375	-0.044686	2.395591
176.683856	2499.894996	13.307379	-0.044667	2.395607
176.771221	2499.857422	13.312384	-0.044689	2.395595
176.931839	2499.840613	13.317389	-0.044728	2.395596
176.860923	2499.237288	13.322394	-0.044710	2.395311
176.938241	2499.146349	13.327399	-0.044729	2.395273
177.009730	2499.165348	13.332403	-0.044746	2.395286
176.975217	2499.144854	13.337408	-0.044738	2.395275
176.776204	2499.174515	13.342413	-0.044689	2.395277
176.811187	2499.182951	13.347418	-0.044698	2.395283
176.720199	2499.043141	13.352423	-0.044675	2.395212
176.785383	2498.509847	13.357427	-0.044691	2.394968
176.642489	2498.499744	13.362432	-0.044656	2.394955
176.638952	2498.503562	13.367437	-0.044655	2.394956
176.736488	2498.511295	13.372442	-0.044678	2.394965
176.631403	2498.495848	13.377447	-0.044653	2.394952
176.828862	2498.497924	13.382451	-0.044701	2.394965
176.860717	2498.483296	13.387456	-0.044709	2.394960
176.797351	2498.484798	13.392461	-0.044693	2.394957
177.045633	2498.469200	13.397466	-0.044754	2.394964
176.989643	2498.061472	13.402471	-0.044740	2.394770
177.030395	2497.842770	13.407475	-0.044749	2.394671
177.063607	2497.807880	13.412480	-0.044757	2.394656
176.998691	2497.820628	13.417485	-0.044742	2.394659
177.027524	2497.836184	13.422490	-0.044748	2.394667
176.925340	2497.143867	13.427495	-0.044723	2.394339
176.894522	2497.150723	13.432499	-0.044715	2.394340
176.826952	2497.135335	13.437504	-0.044699	2.394329
176.898531	2497.129861	13.442509	-0.044716	2.394331
176.969711	2497.145198	13.447514	-0.044734	2.394342
176.548722	2497.168504	13.452519	-0.044631	2.394329
176.715129	2497.172732	13.457523	-0.044671	2.394340
176.714492	2497.154088	13.462528	-0.044671	2.394331
176.739849	2496.715986	13.467533	-0.044677	2.394129
176.803003	2496.483520	13.472538	-0.044692	2.394024
176.881740	2496.447022	13.477543	-0.044711	2.394011
176.869459	2496.478038	13.482547	-0.044708	2.394025
176.823822	2496.458937	13.487552	-0.044697	2.394014
176.941962	2496.446026	13.492557	-0.044726	2.394014
177.067085	2496.448658	13.497562	-0.044756	2.394023
176.940691	2495.843230	13.502567	-0.044725	2.393733
176.986861	2495.794358	13.507571	-0.044736	2.393713
176.852403	2495.800982	13.512576	-0.044703	2.393708
176.794254	2495.800508	13.517581	-0.044689	2.393705
176.824564	2495.815871	13.522586	-0.044696	2.393714
176.675895	2495.807514	13.527591	-0.044660	2.393701
176.804409	2495.818092	13.532595	-0.044691	2.393714
176.689026	2495.814990	13.537600	-0.044663	2.393705
176.683250	2495.640975	13.542605	-0.044661	2.393624
176.714032	2495.176888	13.547610	-0.044669	2.393409
176.651685	2495.143794	13.552615	-0.044653	2.393390
176.658686	2495.169404	13.557619	-0.044655	2.393403
176.739548	2495.157754	13.562624	-0.044675	2.393402
176.900456	2495.130172	13.567629	-0.044714	2.393398
176.862600	2495.147274	13.572634	-0.044704	2.393404
176.833001	2495.126195	13.577639	-0.044697	2.393392
176.929206	2495.138423	13.582643	-0.044721	2.393404
176.949684	2494.902599	13.587648	-0.044725	2.393295
176.900675	2494.428365	13.592653	-0.044713	2.393071
176.812825	2494.445629	13.597658	-0.044692	2.393074
176.790030	2494.432750	13.602663	-0.044686	2.393067
176.855757	2494.455773	13.607667	-0.044702	2.393081
176.778376	2494.442956	13.612672	-0.044683	2.393071
176.771315	2494.443526	13.617677	-0.044681	2.393070
176.852957	2494.445166	13.622682	-0.044701	2.393076
176.827732	2493.968703	13.627687	-0.044694	2.392852
176.959305	2493.750639	13.632691	-0.044726	2.392758
177.005657	2493.735561	13.637696	-0.044738	2.392754
176.989127	2493.730945	13.642701	-0.044734	2.392751
176.961973	2493.747724	13.647706	-0.044727	2.392757
176.865194	2493.732292	13.652711	-0.044703	2.392744
177.106845	2493.194411	13.657715	-0.044762	2.392507
177.041183	2493.051320	13.662720	-0.044746	2.392436
176.942040	2493.052249	13.667725	-0.044721	2.392431
176.848679	2493.083582	13.672730	-0.044698	2.392440
176.837151	2493.061616	13.677735	-0.044696	2.392429
176.919718	2492.964424	13.682739	-0.044716	2.392389
176.864754	2492.423193	13.687744	-0.044702	2.392133
176.772174	2492.439706	13.692749	-0.044679	2.392136
176.912047	2492.443829	13.697754	-0.044713	2.392146
176.760951	2492.432458	13.702759	-0.044676	2.392131
176.862565	2492.445334	13.707763	-0.044701	2.392143
176.787190	2492.436296	13.712768	-0.044682	2.392135
176.864492	2492.426420	13.717773	-0.044701	2.392135
176.853987	2492.278867	13.722778	-0.044699	2.392065
176.847100	2491.723729	13.727783	-0.044696	2.391806
177.036101	2491.723434	13.732787	-0.044743	2.391816
176.982867	2491.721360	13.737792	-0.044729	2.391812
177.104503	2491.693948	13.742797	-0.044759	2.391807
177.135085	2491.478101	13.747802	-0.044766	2.391708
177.014024	2491.044221	13.752807	-0.044736	2.391498
176.919101	2491.084107	13.757811	-0.044713	2.391511
176.937463	2491.061459	13.762816	-0.044718	2.391502
176.980981	2491.052420	13.767821	-0.044728	2.391500
176.883004	2491.078301	13.772826	-0.044704	2.391506
176.725653	2490.455980	13.777831	-0.044665	2.391207
176.798750	2490.429898	13.782835	-0.044683	2.391199
176.874826	2490.402443	13.787840	-0.044702	2.391190
177.010167	2490.385707	13.792845	-0.044735	2.391190
176.904760	2490.412843	13.797850	-0.044709	2.391197
176.870361	2490.394393	13.802855	-0.044700	2.391186
176.816382	2490.428870	13.807859	-0.044687	2.391199
176.771735	2490.226745	13.812864	-0.044676	2.391102
176.653418	2489.899992	13.817869	-0.044647	2.390943
176.770946	2489.898503	13.822874	-0.044675	2.390949
176.590716	2489.902138	13.827879	-0.044631	2.390940
176.850304	2489.891741	13.832883	-0.044695	2.390951
176.764265	2489.883371	13.837888	-0.044674	2.390942
176.746184	2489.890658	13.842893	-0.044669	2.390944
176.877725	2489.890107	13.847898	-0.044701	2.390951
176.761590	2489.877775	13.852903	-0.044673	2.390939
176.884977	2489.893952	13.857907	-0.044703	2.390954
177.044886	2489.343482	13.862912	-0.044741	2.390706
177.049616	2489.140296	13.867917	-0.044742	2.390611
177.139429	2489.146919	13.872922	-0.044764	2.390619
177.054397	2489.129066	13.877927	-0.044743	2.390606
177.087875	2488.857796	13.882931	-0.044751	2.390481
177.000088	2488.467840	13.887936	-0.044730	2.390294
177.002784	2488.456504	13.892941	-0.044730	2.390289
177.016389	2488.476913	13.897946	-0.044733	2.390299
176.905699	2488.459906	13.902951	-0.044706	2.390285
176.858253	2488.300332	13.907955	-0.044695	2.390208
176.655735	2487.817346	13.912960	-0.044645	2.389971
176.727775	2487.804769	13.917965	-0.044662	2.389969
176.734015	2487.831102	13.922970	-0.044664	2.389981
176.798057	2487.795115	13.927975	-0.044679	2.389968
176.722972	2487.830527	13.932979	-0.044661	2.389981
176.738485	2487.812589	13.937984	-0.044665	2.389973
176.611349	2487.821361	13.942989	-0.044633	2.389970
176.685305	2487.829271	13.947994	-0.044651	2.389978
176.688541	2487.810850	13.952999	-0.044652	2.389969
176.792438	2487.814381	13.958003	-0.044677	2.389977
176.769400	2487.816599	13.963008	-0.044672	2.389977
176.787380	2487.691389	13.968013	-0.044676	2.389919
176.816235	2487.196828	13.973018	-0.044683	2.389690
176.871702	2487.150208	13.978023	-0.044696	2.389671
176.965186	2487.164719	13.983027	-0.044719	2.389683
176.995228	2487.162362	13.988032	-0.044726	2.389684
177.112977	2487.126068	13.993037	-0.044755	2.389674
177.084583	2486.716855	13.998042	-0.044748	2.389481
176.967630	2486.435957	14.003047	-0.044719	2.389343
177.062206	2486.445648	14.008051	-0.044742	2.389353
176.984899	2486.455599	14.013056	-0.044723	2.389353
176.951639	2486.450731	14.018061	-0.044715	2.389349
176.906136	2486.116881	14.023066	-0.044703	2.389191
176.851856	2485.780133	14.028071	-0.044690	2.389030
176.807733	2485.810362	14.033075	-0.044679	2.389042
176.769201	2485.805816	14.038080	-0.044669	2.389037
176.635363	2485.798387	14.043085	-0.044637	2.389026
176.655137	2485.846421	14.048090	-0.044641	2.389050
176.549383	2485.827824	14.053095	-0.044616	2.389035
176.594683	2485.844624	14.058099	-0.044627	2.389045
176.476762	2485.842572	14.063104	-0.044598	2.389037
176.513153	2485.826729	14.068109	-0.044607	2.389032
176.568251	2485.845321	14.073114	-0.044620	2.389044
176.580318	2485.817792	14.078119	-0.044623	2.389032
176.762271	2485.831344	14.083123	-0.044667	2.389049
176.799228	2485.806074	14.088128	-0.044676	2.389039
176.910431	2485.775606	14.093133	-0.044703	2.389031
176.941043	2485.473793	14.098138	-0.044710	2.388892
177.000201	2485.097626	14.103143	-0.044725	2.388720
177.027023	2485.118050	14.108147	-0.044731	2.388731
177.125477	2485.091502	14.113152	-0.044755	2.388724
177.027149	2485.087025	14.118157	-0.044731	2.388716
177.170928	2484.577447	14.123162	-0.044766	2.388486
177.070776	2484.423872	14.128167	-0.044741	2.388409
177.045293	2484.449781	14.133171	-0.044735	2.388419
176.984111	2484.455063	14.138176	-0.044720	2.388418
176.823827	2484.410506	14.143181	-0.044681	2.388388
176.709648	2483.792716	14.148186	-0.044652	2.388093
176.809679	2483.752612	14.153191	-0.044676	2.388080
176.776689	2483.771432	14.158195	-0.044668	2.388087
176.733352	2483.771830	14.163200	-0.044658	2.388084
176.584506	2483.796676	14.168205	-0.044621	2.388087
176.699739	2483.794767	14.173210	-0.044649	2.388093
176.723513	2483.757779	14.178215	-0.044655	2.388077
176.852542	2483.763176	14.183219	-0.044687	2.388087
176.815372	2483.757131	14.188224	-0.044677	2.388082
176.792799	2483.756956	14.193229	-0.044672	2.388081
176.899101	2483.482273	14.198234	-0.044698	2.387959
176.873588	2483.071002	14.203239	-0.044691	2.387765
176.904703	2483.084203	14.208243	-0.044699	2.387773
176.791892	2483.089551	14.213248	-0.044671	2.387769
176.686522	2483.103660	14.218253	-0.044645	2.387769
176.880263	2483.093340	14.223258	-0.044692	2.387776
176.786419	2483.077965	14.228263	-0.044669	2.387763
176.977029	2483.073377	14.233267	-0.044716	2.387772
176.774125	2482.530878	14.238272	-0.044666	2.387507
176.846518	2482.410393	14.243277	-0.044683	2.387454
176.978779	2482.409368	14.248282	-0.044716	2.387462
176.931829	2482.388512	14.253287	-0.044704	2.387449
177.051102	2482.405127	14.258291	-0.044733	2.387464
177.028115	2482.382633	14.263296	-0.044728	2.387452
177.109545	2481.747823	14.268301	-0.044747	2.387160
177.065548	2481.769008	14.273306	-0.044736	2.387167
176.746908	2481.776541	14.278311	-0.044658	2.387152
176.928640	2481.776716	14.283315	-0.044703	2.387163
176.896528	2481.775057	14.288320	-0.044695	2.387160
176.760027	2481.777342	14.293325	-0.044661	2.387153
176.590484	2481.228189	14.298330	-0.044619	2.386887
176.536989	2481.102996	14.303335	-0.044606	2.386825
176.439745	2481.185873	14.308339	-0.044582	2.386858
176.452868	2481.819935	14.313344	-0.044586	2.387155
176.465714	2481.813029	14.318349	-0.044589	2.387153
176.445021	2481.839334	14.323354	-0.044584	2.387164
176.613791	2481.793039	14.328359	-0.044625	2.387152
176.879644	2481.625516	14.333363	-0.044690	2.387089
176.812213	2481.094077	14.338368	-0.044673	2.386837
176.713607	2481.095668	14.343373	-0.044649	2.386832
176.949840	2481.083728	14.348378	-0.044706	2.386840
177.015721	2481.039859	14.353383	-0.044722	2.386823
177.046570	2481.048411	14.358387	-0.044730	2.386829
177.124438	2480.788402	14.363392	-0.044749	2.386712
177.153611	2480.356203	14.368397	-0.044755	2.386511
177.160761	2480.385721	14.373402	-0.044757	2.386526
176.957409	2480.376289	14.378407	-0.044707	2.386509
176.954146	2480.396085	14.383411	-0.044707	2.386518
176.780567	2479.765485	14.388416	-0.044664	2.386213
176.847727	2479.728139	14.393421	-0.044680	2.386200
176.712531	2479.768990	14.398426	-0.044647	2.386211
176.610734	2479.755632	14.403431	-0.044622	2.386199
176.676311	2479.761535	14.408435	-0.044638	2.386205
176.661651	2479.766057	14.413440	-0.044634	2.386207
176.494505	2479.774498	14.418445	-0.044593	2.386201
176.744196	2479.775891	14.423450	-0.044654	2.386216
176.648774	2479.746722	14.428455	-0.044631	2.386197
176.865484	2479.740531	14.433459	-0.044684	2.386207
176.797682	2479.749984	14.438464	-0.044667	2.386207
176.880903	2479.723325	14.443469	-0.044688	2.386199
176.933108	2479.314389	14.448474	-0.044700	2.386011
176.830694	2479.238705	14.453479	-0.044675	2.385970
176.888051	2479.249299	14.458483	-0.044689	2.385978
176.908988	2479.240722	14.463488	-0.044694	2.385975
176.972455	2479.223859	14.468493	-0.044709	2.385971
176.739701	2479.274158	14.473498	-0.044652	2.385981
176.643155	2479.267827	14.478503	-0.044629	2.385972
176.696273	2478.957256	14.483507	-0.044641	2.385830
176.560979	2478.605043	14.488512	-0.044608	2.385658
176.735475	2478.539018	14.493517	-0.044651	2.385637
176.765931	2478.566297	14.498522	-0.044658	2.385651
176.708393	2478.540776	14.503527	-0.044644	2.385636
176.799444	2478.554187	14.508531	-0.044666	2.385648
176.670820	2478.573200	14.513536	-0.044635	2.385649
176.728954	2478.550326	14.518541	-0.044649	2.385642
176.898155	2478.548022	14.523546	-0.044690	2.385650
176.920506	2478.526591	14.528551	-0.044695	2.385642
176.937290	2478.456135	14.533555	-0.044699	2.385610
176.715916	2477.879774	14.538560	-0.044645	2.385327
176.707242	2477.871875	14.543565	-0.044643	2.385323
176.737974	2477.886770	14.548570	-0.044650	2.385332
176.599371	2477.883671	14.553575	-0.044616	2.385322
176.856308	2477.871795	14.558579	-0.044679	2.385331
176.792176	2477.875457	14.563584	-0.044663	2.385329
176.852627	2477.858969	14.568589	-0.044678	2.385325
176.826204	2477.885303	14.573594	-0.044671	2.385336
176.716671	2477.875589	14.578599	-0.044644	2.385325
176.710688	2477.889708	14.583603	-0.044643	2.385331
176.771715	2477.619601	14.588608	-0.044658	2.385208
176.669369	2477.190007	14.593613	-0.044632	2.385001
176.719138	2477.221881	14.598618	-0.044644	2.385019
176.619454	2477.209615	14.603623	-0.044620	2.385008
176.595920	2477.217574	14.608627	-0.044614	2.385010
176.532640	2477.230472	14.613632	-0.044599	2.385012
176.476313	2477.221157	14.618637	-0.044585	2.385005
176.432002	2477.247377	14.623642	-0.044574	2.385014
176.485256	2477.220441	14.628647	-0.044587	2.385005
176.622053	2477.218150	14.633651	-0.044620	2.385012
176.831654	2477.191466	14.638656	-0.044671	2.385011
176.770954	2477.175356	14.643661	-0.044656	2.385000
176.938512	2477.181918	14.648666	-0.044697	2.385013
176.866018	2477.163937	14.653671	-0.044680	2.385000
176.935387	2477.170359	14.658675	-0.044696	2.385008
177.082262	2476.873604	14.663680	-0.044732	2.384877
176.973015	2476.510301	14.668685	-0.044705	2.384701
176.913965	2476.558696	14.673690	-0.044691	2.384720
176.776447	2476.539796	14.678695	-0.044657	2.384703
176.728213	2476.569170	14.683699	-0.044645	2.384714
176.615839	2476.575162	14.688704	-0.044618	2.384710
176.631280	2476.554596	14.693709	-0.044621	2.384702
176.675372	2476.575162	14.698714	-0.044632	2.384714
176.708684	2476.547038	14.703719	-0.044640	2.384702
176.741413	2476.554341	14.708723	-0.044648	2.384708
176.649527	2476.249277	14.713728	-0.044625	2.384560
176.605774	2475.855879	14.718733	-0.044614	2.384373
176.759950	2475.878097	14.723738	-0.044652	2.384392
176.679990	2475.866391	14.728743	-0.044632	2.384382
176.720571	2475.865379	14.733747	-0.044642	2.384384
176.747782	2475.868697	14.738752	-0.044649	2.384387
176.890020	2475.821699	14.743757	-0.044683	2.384373
176.909458	2475.854664	14.748762	-0.044688	2.384390
176.790051	2475.841524	14.753767	-0.044659	2.384377
176.807156	2475.853102	14.758771	-0.044663	2.384383
176.921924	2475.509053	14.763776	-0.044691	2.384229
176.915146	2475.157126	14.768781	-0.044689	2.384064
176.758172	2475.203682	14.773786	-0.044650	2.384076
176.811672	2475.153713	14.778791	-0.044663	2.384056
176.647536	2475.198159	14.783795	-0.044623	2.384067
176.742349	2475.187736	14.788800	-0.044646	2.384068
176.548263	2475.198559	14.793805	-0.044599	2.384062
176.660945	2475.201919	14.798810	-0.044626	2.384070
176.568438	2475.186776	14.803815	-0.044604	2.384057
176.674246	2475.192324	14.808819	-0.044629	2.384066
176.566711	2475.216395	14.813824	-0.044603	2.384071
176.534314	2475.203115	14.818829	-0.044595	2.384063
176.492104	2475.241404	14.823834	-0.044585	2.384078
176.440277	2475.215535	14.828839	-0.044572	2.384063
176.498222	2475.223033	14.833843	-0.044586	2.384070
176.513617	2475.225484	14.838848	-0.044590	2.384072
176.600168	2475.193080	14.843853	-0.044611	2.384062
176.668533	2475.208620	14.848858	-0.044628	2.384073
176.601463	2475.185979	14.853863	-0.044611	2.384059
176.609846	2475.203307	14.858867	-0.044613	2.384067
176.720296	2475.191606	14.863872	-0.044640	2.384068
176.704570	2475.185256	14.868877	-0.044636	2.384064
176.830946	2474.893488	14.873882	-0.044667	2.383935
176.690205	2474.512587	14.878887	-0.044632	2.383749
176.731298	2474.527512	14.883891	-0.044642	2.383758
176.719703	2474.535320	14.888896	-0.044639	2.383761
176.715404	2474.512880	14.893901	-0.044638	2.383750
176.806475	2474.526258	14.898906	-0.044660	2.383762
176.644119	2474.521473	14.903911	-0.044620	2.383750
176.769181	2474.517621	14.908915	-0.044651	2.383755
176.741950	2474.533374	14.913920	-0.044644	2.383761
176.733265	2474.515481	14.918925	-0.044642	2.383752
176.665391	2474.549957	14.923930	-0.044625	2.383764
176.682425	2474.517197	14.928935	-0.044629	2.383750
176.821788	2474.332199	14.933939	-0.044663	2.383672
176.775868	2473.873547	14.938944	-0.044652	2.383454
176.863101	2473.847394	14.943949	-0.044673	2.383447
176.848577	2473.873900	14.948954	-0.044669	2.383459
176.837109	2473.845021	14.953959	-0.044666	2.383444
176.885591	2473.859358	14.958963	-0.044678	2.383454
176.890586	2473.853767	14.963968	-0.044679	2.383452
176.768075	2473.857699	14.968973	-0.044649	2.383446
176.830913	2473.410565	14.973978	-0.044664	2.383240
176.659708	2473.173233	14.978983	-0.044622	2.383119
176.464978	2473.199485	14.983987	-0.044575	2.383120
176.415229	2473.214370	14.988992	-0.044563	2.383124
176.516305	2473.178830	14.993997	-0.044587	2.383114
176.516234	2473.205868	14.999002	-0.044587	2.383126
176.521538	2473.183574	15.004007	-0.044588	2.383116
176.531011	2473.196758	15.009011	-0.044591	2.383123
176.559727	2473.321544	15.014016	-0.044598	2.383183
176.552825	2473.170442	15.019021	-0.044596	2.383112
176.708195	2473.180145	15.024026	-0.044634	2.383125
176.777632	2473.142540	15.029031	-0.044651	2.383112
176.810763	2473.149116	15.034035	-0.044659	2.383117
176.843361	2473.160758	15.039040	-0.044666	2.383124
176.883874	2473.128084	15.044045	-0.044676	2.383111
176.880636	2473.159516	15.049050	-0.044675	2.383126
176.679979	2473.150174	15.054055	-0.044626	2.383109
176.781188	2473.151282	15.059059	-0.044651	2.383116
176.864906	2472.905252	15.064064	-0.044671	2.383006
176.709191	2472.469055	15.069069	-0.044633	2.382792
176.778267	2472.493819	15.074074	-0.044650	2.382808
176.630876	2472.485191	15.079079	-0.044614	2.382795
176.805976	2472.472770	15.084083	-0.044656	2.382799
176.693350	2472.503809	15.089088	-0.044629	2.382807
176.688657	2472.472430	15.094093	-0.044628	2.382792
176.706925	2472.502848	15.099098	-0.044632	2.382808
176.693340	2472.480907	15.104103	-0.044629	2.382797
176.595529	2472.497772	15.109107	-0.044605	2.382799
176.560414	2472.512836	15.114112	-0.044596	2.382804
176.486816	2472.490029	15.119117	-0.044578	2.382789
176.554025	2472.518358	15.124122	-0.044594	2.382806
176.490521	2472.505293	15.129127	-0.044579	2.382796
176.588056	2472.506521	15.134131	-0.044602	2.382802
176.738038	2472.494892	15.139136	-0.044639	2.382806
176.615525	2472.485835	15.144141	-0.044609	2.382794
176.816161	2472.493899	15.149146	-0.044658	2.382810
176.846570	2472.351508	15.154151	-0.044665	2.382745
176.941103	2471.783592	15.159155	-0.044688	2.382484
176.893220	2471.802243	15.164160	-0.044676	2.382490
176.828240	2471.788700	15.169165	-0.044660	2.382480
176.899994	2471.805794	15.174170	-0.044678	2.382492
176.906309	2471.792710	15.179175	-0.044679	2.382487
176.740439	2471.808714	15.184179	-0.044639	2.382484
176.596259	2471.835681	15.189184	-0.044603	2.382489
176.673196	2471.807145	15.194189	-0.044622	2.382480
176.823295	2471.341665	15.199194	-0.044658	2.382270
176.683649	2471.168490	15.204199	-0.044624	2.382181
176.597028	2471.188962	15.209203	-0.044603	2.382186
176.476244	2471.217018	15.214208	-0.044573	2.382192
176.474550	2471.204932	15.219213	-0.044573	2.382186

176.385624	2471.235353	15.224218	-0.044551	2.382195
176.481131	2471.199177	15.229223	-0.044574	2.382184
176.577701	2471.195853	15.234227	-0.044598	2.382188
176.585067	2471.178308	15.239232	-0.044600	2.382180
176.592487	2470.488444	15.244237	-0.044601	2.381857
176.679165	2470.502006	15.249242	-0.044622	2.381868
176.476004	2469.848437	15.254247	-0.044572	2.381550
176.545977	2469.646567	15.259251	-0.044589	2.381460
176.728087	2469.171956	15.264256	-0.044633	2.381248
176.814500	2468.650685	15.269261	-0.044653	2.381009
176.969446	2468.008047	15.274266	-0.044691	2.380716
176.819805	2467.260588	15.279271	-0.044654	2.380357
176.881975	2466.458570	15.284275	-0.044668	2.379985
176.848217	2465.702575	15.289280	-0.044659	2.379628
176.659194	2464.910805	15.294285	-0.044613	2.379246
176.724653	2464.110411	15.299290	-0.044628	2.378874
176.511895	2463.131257	15.304295	-0.044575	2.378402
176.475425	2462.264365	15.309299	-0.044566	2.377993
176.538718	2461.322665	15.314304	-0.044580	2.377555
176.363363	2460.306512	15.319309	-0.044537	2.377067
176.452829	2459.303739	15.324314	-0.044558	2.376602
176.312893	2458.369668	15.329319	-0.044523	2.376155
176.476340	2457.239749	15.334323	-0.044562	2.375634
176.592051	2456.033643	15.339328	-0.044589	2.375074
176.480605	2454.762531	15.344333	-0.044561	2.374470
176.380149	2453.522587	15.349338	-0.044536	2.373881
176.310687	2452.183823	15.354343	-0.044518	2.373247
176.334749	2450.815148	15.359347	-0.044523	2.372605
176.357037	2449.424836	15.364352	-0.044527	2.371952
176.286103	2448.001462	15.369357	-0.044509	2.371278
176.434156	2446.534518	15.374362	-0.044544	2.370596
176.491644	2444.902981	15.379367	-0.044556	2.369831
176.371182	2443.291600	15.384371	-0.044526	2.369065
176.244562	2441.621244	15.389376	-0.044494	2.368271
176.183624	2439.931644	15.394381	-0.044477	2.367471
176.192440	2438.236857	15.399386	-0.044478	2.366672
175.989646	2436.630732	15.404391	-0.044428	2.365903
176.057713	2434.848599	15.409395	-0.044443	2.365066
175.969738	2433.036417	15.414400	-0.044420	2.364205
175.832656	2431.153070	15.419405	-0.044385	2.363308
175.943522	2429.290517	15.424410	-0.044411	2.362435
175.805171	2427.396881	15.429415	-0.044376	2.361531
175.711482	2425.558793	15.434419	-0.044351	2.360657
175.849050	2423.548740	15.439424	-0.044384	2.359715
175.583085	2421.495254	15.444429	-0.044317	2.358727
175.666997	2419.440490	15.449434	-0.044336	2.357760
175.671749	2417.336210	15.454439	-0.044336	2.356764
175.663340	2415.316188	15.459443	-0.044332	2.355806
175.680642	2413.118538	15.464448	-0.044335	2.354766
175.624716	2410.830036	15.469453	-0.044319	2.353678
175.518217	2408.527601	15.474458	-0.044292	2.352579
175.379686	2406.324368	15.479463	-0.044256	2.351525
175.309892	2404.026019	15.484467	-0.044237	2.350430
175.499950	2401.650884	15.489472	-0.044282	2.349313
175.120931	2399.243092	15.494477	-0.044188	2.348146
175.177104	2396.818576	15.499482	-0.044200	2.346997
175.051380	2394.502264	15.504487	-0.044167	2.345887
175.129680	2392.013979	15.509491	-0.044185	2.344708
175.061026	2389.474113	15.514496	-0.044166	2.343494
174.918651	2386.902674	15.519501	-0.044129	2.342261
174.817270	2384.467220	15.524506	-0.044103	2.341094
174.776956	2381.869150	15.529511	-0.044091	2.339852
174.710998	2379.211622	15.534515	-0.044073	2.338580
174.805095	2376.515588	15.539520	-0.044094	2.337299
174.681615	2373.886596	15.544525	-0.044062	2.336035
174.806106	2371.133116	15.549530	-0.044090	2.334727
174.795232	2368.241757	15.554535	-0.044085	2.333344
174.723032	2365.347868	15.559539	-0.044066	2.331955
174.707644	2362.567442	15.564544	-0.044060	2.330622
174.615861	2359.541671	15.569549	-0.044035	2.329167
174.607976	2356.569926	15.574554	-0.044031	2.327742
174.526066	2353.616624	15.579559	-0.044009	2.326321
174.419513	2350.610100	15.584563	-0.043981	2.324871
174.256479	2347.582490	15.589568	-0.043939	2.323407
174.037349	2344.545832	15.594573	-0.043883	2.321934
174.053015	2341.597563	15.599578	-0.043885	2.320517
173.926196	2338.488072	15.604583	-0.043851	2.319013
173.893268	2335.346541	15.609587	-0.043841	2.317499
173.737579	2332.381550	15.614592	-0.043801	2.316061
173.608809	2329.229183	15.619597	-0.043767	2.314533
173.737703	2326.010529	15.624602	-0.043796	2.312988
173.485970	2322.863676	15.629607	-0.043733	2.311453
173.420741	2319.665883	15.634611	-0.043714	2.309904
173.421607	2316.395878	15.639616	-0.043712	2.308324
173.417962	2313.118372	15.644621	-0.043709	2.306738
173.348181	2309.851659	15.649626	-0.043689	2.305152
173.283071	2306.447768	15.654631	-0.043671	2.303500
173.285405	2303.091377	15.659635	-0.043669	2.301873
173.140964	2299.752168	15.664640	-0.043631	2.300244
173.157847	2296.218968	15.669645	-0.043633	2.298530
173.125491	2292.811055	15.674650	-0.043623	2.296872
173.037190	2289.314650	15.679655	-0.043599	2.295167
172.962498	2285.744696	15.684659	-0.043578	2.293425
172.879789	2282.233962	15.689664	-0.043555	2.291710
172.730273	2278.627605	15.694669	-0.043516	2.289944
172.825834	2274.979073	15.699674	-0.043536	2.288170
172.701675	2271.379215	15.704679	-0.043504	2.286406
172.733114	2267.659662	15.709683	-0.043509	2.284591
172.672708	2263.914173	15.714688	-0.043491	2.282756
172.419670	2260.277558	15.719693	-0.043427	2.280961
172.462689	2256.485372	15.724698	-0.043434	2.279107
172.285546	2252.729502	15.729703	-0.043388	2.277256
172.304727	2248.999421	15.734707	-0.043390	2.275428
172.199312	2245.139218	15.739712	-0.043362	2.273527
172.027441	2241.317356	15.744717	-0.043317	2.271638
171.930113	2237.494663	15.749722	-0.043290	2.269753
171.702413	2233.616185	15.754727	-0.043232	2.267830
171.640444	2229.848575	15.759731	-0.043214	2.265970
171.470274	2225.966918	15.764736	-0.043170	2.264046
171.426127	2222.080887	15.769741	-0.043156	2.262127
171.236374	2218.270450	15.774746	-0.043107	2.260233
171.175126	2214.298851	15.779751	-0.043089	2.258267
171.082968	2210.418108	15.784755	-0.043064	2.256342
171.030430	2206.444684	15.789760	-0.043048	2.254371
171.017791	2202.440816	15.794765	-0.043042	2.252387
171.048061	2198.401447	15.799770	-0.043047	2.250386
171.017611	2194.284726	15.804775	-0.043036	2.248341
171.062684	2190.194105	15.809779	-0.043044	2.246312
171.010237	2186.014029	15.814784	-0.043028	2.244230
170.880156	2181.822764	15.819789	-0.042994	2.242136
170.877623	2177.635424	15.824794	-0.042990	2.240050
170.816779	2173.335194	15.829799	-0.042972	2.237902
170.739025	2169.172362	15.834803	-0.042950	2.235819
170.685765	2164.845568	15.839808	-0.042934	2.233654
170.372932	2160.585388	15.844813	-0.042854	2.231503
170.287077	2156.290085	15.849818	-0.042830	2.229348
170.198306	2152.015865	15.854823	-0.042805	2.227200
170.062422	2147.719123	15.859827	-0.042769	2.225036
169.826351	2143.426351	15.864832	-0.042708	2.222866
169.655753	2139.179390	15.869837	-0.042664	2.220720
169.655879	2134.828696	15.874842	-0.042661	2.218532
169.493747	2130.598914	15.879847	-0.042618	2.216392
169.419828	2126.191140	15.884851	-0.042597	2.214165
169.448536	2121.846705	15.889856	-0.042600	2.211976
169.346672	2117.381702	15.894861	-0.042572	2.209714
169.242673	2112.991972	15.899866	-0.042544	2.207488
169.184318	2108.570026	15.904871	-0.042526	2.205247
169.174169	2104.027805	15.909875	-0.042521	2.202945
169.088110	2099.589522	15.914880	-0.042496	2.200689
168.909613	2095.013100	15.919885	-0.042449	2.198354
168.960870	2090.579995	15.924890	-0.042459	2.196105
168.696325	2085.992382	15.929895	-0.042391	2.193753
168.598313	2081.458898	15.934899	-0.042364	2.191438
168.504113	2076.905240	15.939904	-0.042337	2.189111
168.341144	2072.361226	15.944909	-0.042294	2.186781
168.304204	2067.783590	15.949914	-0.042282	2.184440
168.245754	2063.174448	15.954919	-0.042264	2.182079
168.032855	2058.553585	15.959923	-0.042209	2.179698
168.013930	2053.977447	15.964928	-0.042201	2.177352
167.911851	2049.286844	15.969933	-0.042173	2.174938
167.894509	2044.612381	15.974938	-0.042165	2.172536
167.665563	2039.924423	15.979943	-0.042106	2.170110
167.486519	2035.244060	15.984947	-0.042059	2.167688
167.361721	2030.608185	15.989952	-0.042025	2.165290
167.237902	2025.896317	15.994957	-0.041991	2.162850
167.106014	2021.247413	15.999962	-0.041956	2.160440
166.987537	2016.538546	16.004967	-0.041923	2.157996
167.020446	2011.844052	16.009971	-0.041928	2.155569
166.928979	2007.084675	16.014976	-0.041902	2.153095
166.726054	2002.322129	16.019981	-0.041849	2.150610
166.676186	1997.559053	16.024986	-0.041833	2.148132
166.546129	1992.812280	16.029991	-0.041798	2.145654
166.560187	1987.950425	16.034995	-0.041798	2.143124
166.367146	1983.204696	16.040000	-0.041748	2.140636
166.205273	1978.365485	16.045005	-0.041705	2.138099
166.213375	1973.588215	16.050010	-0.041703	2.135603
166.093613	1968.713509	16.055015	-0.041670	2.133044
166.014738	1963.811317	16.060019	-0.041647	2.130471
166.028435	1958.908739	16.065024	-0.041647	2.127901
165.719090	1954.006881	16.070029	-0.041568	2.125305
165.709401	1949.116831	16.075034	-0.041562	2.122734
165.672665	1944.165941	16.080039	-0.041550	2.120125
165.539167	1939.253040	16.085043	-0.041514	2.117526
165.372616	1934.305911	16.090048	-0.041469	2.114904
165.273562	1929.367352	16.095053	-0.041442	2.112288
165.183932	1924.363438	16.100058	-0.041416	2.109634
165.127607	1919.438067	16.105063	-0.041399	2.107022
164.979080	1914.357913	16.110067	-0.041359	2.104317
164.880126	1909.450741	16.115072	-0.041331	2.101704
164.724208	1904.347917	16.120077	-0.041289	2.098980
164.514161	1899.432329	16.125082	-0.041234	2.096347
164.492610	1894.370849	16.130087	-0.041226	2.093648
164.537453	1889.275250	16.135091	-0.041233	2.090932
164.487728	1884.187358	16.140096	-0.041217	2.088209
164.362337	1879.057064	16.145101	-0.041183	2.085455
164.156016	1873.996025	16.150106	-0.041129	2.082728
164.098596	1868.855752	16.155111	-0.041111	2.079966
163.883578	1863.809173	16.160115	-0.041055	2.077238
163.763268	1858.675822	16.165120	-0.041022	2.074468
163.472211	1853.619145	16.170125	-0.040947	2.071722
163.459765	1848.488563	16.175130	-0.040940	2.068954
163.244510	1843.444600	16.180135	-0.040884	2.066213
163.188413	1838.305969	16.185139	-0.040866	2.063430
163.034568	1833.221676	16.190144	-0.040825	2.060665
162.968240	1828.110476	16.195149	-0.040805	2.057888
162.872290	1822.979418	16.200154	-0.040778	2.055094
162.855065	1817.816846	16.205159	-0.040770	2.052286
162.768020	1812.572233	16.210163	-0.040745	2.049424
162.658851	1807.459471	16.215168	-0.040715	2.046627
162.574560	1802.197891	16.220173	-0.040690	2.043748
162.417638	1797.007854	16.225178	-0.040648	2.040898
162.196057	1791.848985	16.230183	-0.040591	2.038056
162.078292	1786.632949	16.235187	-0.040558	2.035186
162.194748	1781.431711	16.240192	-0.040583	2.032340
161.996569	1776.106704	16.245197	-0.040530	2.029396
161.882069	1770.914810	16.250202	-0.040499	2.026528
161.836049	1765.640349	16.255207	-0.040484	2.023616
161.568945	1760.365438	16.260211	-0.040415	2.020681
161.459422	1755.171358	16.265216	-0.040384	2.017800
161.206997	1749.887776	16.270221	-0.040319	2.014854
161.167489	1744.667431	16.275226	-0.040305	2.011955
161.024542	1739.377850	16.280231	-0.040267	2.009005
160.931650	1734.097508	16.285235	-0.040240	2.006061
160.821476	1728.859686	16.290240	-0.040209	2.003134
160.523338	1723.556367	16.295245	-0.040133	2.000151
160.425496	1718.416927	16.300250	-0.040105	1.997271
160.349649	1713.104429	16.305255	-0.040083	1.994292
160.294722	1707.799903	16.310259	-0.040065	1.991315
160.115033	1702.563874	16.315264	-0.040018	1.988362
160.024934	1697.232928	16.320269	-0.039992	1.985358
160.044325	1691.970761	16.325274	-0.039993	1.982397
160.080147	1686.567663	16.330279	-0.039998	1.979354
159.870964	1681.243732	16.335283	-0.039943	1.976330
159.824760	1675.902104	16.340288	-0.039928	1.973306
159.656732	1670.469342	16.345293	-0.039883	1.970215
159.667828	1665.124323	16.350298	-0.039882	1.967184
159.499067	1659.699917	16.355303	-0.039836	1.964088
159.455699	1654.261480	16.360307	-0.039822	1.960989
159.397794	1648.896209	16.365312	-0.039804	1.957926
159.321422	1643.406575	16.370317	-0.039781	1.954786
159.100382	1637.989017	16.375322	-0.039723	1.951670
158.954494	1632.581043	16.380327	-0.039684	1.948560
158.817220	1627.104359	16.385331	-0.039646	1.945407
158.704276	1621.751095	16.390336	-0.039615	1.942322
158.470174	1616.276469	16.395341	-0.039554	1.939151
158.348812	1610.862015	16.400346	-0.039520	1.936020
158.137096	1605.461780	16.405351	-0.039465	1.932884
157.911208	1600.042872	16.410355	-0.039406	1.929730
157.840638	1594.669465	16.415360	-0.039384	1.926612
157.649814	1589.276577	16.420365	-0.039334	1.923466
157.587697	1583.856123	16.425370	-0.039315	1.920311
157.495571	1578.501099	16.430375	-0.039289	1.917186
157.376184	1573.046060	16.435379	-0.039255	1.913995
157.237701	1567.618010	16.440384	-0.039218	1.910813
157.086923	1562.240388	16.445389	-0.039177	1.907653
156.932735	1556.833672	16.450394	-0.039135	1.904472
156.761121	1551.432593	16.455399	-0.039090	1.901286
156.691910	1546.045341	16.460403	-0.039069	1.898113
156.511192	1540.651163	16.465408	-0.039021	1.894920
156.144797	1535.263626	16.470413	-0.038927	1.891709
156.175118	1529.898669	16.475418	-0.038931	1.888541
156.103363	1524.479397	16.480423	-0.038909	1.885327
155.959734	1519.077428	16.485427	-0.038870	1.882111
155.826007	1513.720025	16.490432	-0.038834	1.878917
155.607581	1508.306316	16.495437	-0.038777	1.875676
155.471713	1502.950999	16.500442	-0.038740	1.872472
155.380655	1497.561773	16.505447	-0.038714	1.869246
155.138315	1492.173963	16.510451	-0.038650	1.866002
155.123557	1486.842355	16.515456	-0.038643	1.862806
154.813941	1481.459240	16.520461	-0.038563	1.859547
154.749603	1476.102389	16.525466	-0.038544	1.856321
154.504554	1470.760574	16.530471	-0.038480	1.853081
154.192237	1465.427703	16.535475	-0.038400	1.849835
153.827283	1460.197355	16.540480	-0.038307	1.846640
153.540790	1454.985064	16.545485	-0.038233	1.843458
153.229063	1449.813588	16.550490	-0.038153	1.840292
152.768389	1444.740365	16.555495	-0.038037	1.837167
152.277313	1439.723516	16.560499	-0.037914	1.834068
152.124545	1434.688009	16.565504	-0.037873	1.830984
151.730944	1429.759323	16.570509	-0.037773	1.827938
151.536837	1424.792912	16.575514	-0.037722	1.824882
151.169269	1419.892575	16.580519	-0.037629	1.821845
150.957560	1415.044061	16.585523	-0.037573	1.818849
150.700502	1410.194437	16.590528	-0.037507	1.815843
150.222201	1405.399221	16.595533	-0.037387	1.812845
149.878778	1400.668622	16.600538	-0.037299	1.809895
149.512118	1395.981592	16.605543	-0.037206	1.806964
149.145738	1391.356759	16.610547	-0.037114	1.804067
149.043344	1386.699177	16.615552	-0.037085	1.801171
148.608877	1382.172516	16.620557	-0.036976	1.798319
148.114124	1377.656136	16.625562	-0.036852	1.795463
147.738932	1373.215936	16.630567	-0.036757	1.792661
147.425566	1368.788454	16.635571	-0.036677	1.789869
147.098444	1364.443844	16.640576	-0.036594	1.787123
146.648764	1360.143952	16.645581	-0.036481	1.784389
146.496796	1355.806717	16.650586	-0.036441	1.781656
146.194159	1351.583094	16.655591	-0.036364	1.778976
145.814802	1347.309024	16.660595	-0.036268	1.776252
145.534866	1343.154188	16.665600	-0.036197	1.773609
145.208685	1338.952819	16.670605	-0.036114	1.770928
144.848484	1334.872016	16.675610	-0.036023	1.768316
144.553289	1330.777558	16.680615	-0.035948	1.765697
144.231542	1326.744233	16.685619	-0.035866	1.763111
144.238319	1322.658055	16.690624	-0.035865	1.760520
143.815421	1318.671943	16.695629	-0.035759	1.757946
143.386665	1314.709218	16.700634	-0.035651	1.755383
143.233061	1310.750393	16.705639	-0.035611	1.752845
142.983997	1306.800233	16.710643	-0.035547	1.750300
142.804329	1302.906236	16.715648	-0.035500	1.747794
142.599033	1298.981974	16.720653	-0.035447	1.745263
142.271520	1295.119621	16.725658	-0.035364	1.742755
142.138779	1291.260781	16.730663	-0.035329	1.740266
141.764546	1287.429810	16.735667	-0.035235	1.737766
141.635501	1283.600982	16.740672	-0.035201	1.735289
141.365346	1279.763301	16.745677	-0.035132	1.732788
141.074347	1275.988012	16.750682	-0.035058	1.730322
140.923221	1272.217461	16.755687	-0.035018	1.727869
140.719679	1268.435364	16.760691	-0.034966	1.725401
140.454690	1264.709955	16.765696	-0.034899	1.722959
140.060431	1261.016798	16.770701	-0.034800	1.720521
139.799478	1257.373061	16.775706	-0.034733	1.718126
139.610461	1253.697627	16.780711	-0.034684	1.715714
139.269690	1250.083513	16.785715	-0.034598	1.713323
139.100691	1246.458843	16.790720	-0.034554	1.710939
138.764769	1242.893917	16.795725	-0.034470	1.708574
138.684230	1239.281754	16.800730	-0.034447	1.706201
138.290454	1235.783362	16.805735	-0.034349	1.703867
137.887114	1232.251296	16.810739	-0.034248	1.701506
137.755568	1228.823358	16.815744	-0.034213	1.699239
137.585289	1225.271869	16.820749	-0.034169	1.696884
137.335164	1221.818204	16.825754	-0.034105	1.694581
137.228773	1218.298022	16.830759	-0.034077	1.692247
136.944941	1214.863669	16.835763	-0.034005	1.689947
136.692700	1211.423839	16.840768	-0.033941	1.687644
136.481702	1208.009712	16.845773	-0.033887	1.685359
136.213663	1204.596088	16.850778	-0.033819	1.683065
136.108662	1201.198747	16.855783	-0.033791	1.680796
135.811013	1197.840618	16.860787	-0.033715	1.678530
135.510645	1194.473068	16.865792	-0.033640	1.676254
135.265237	1191.165637	16.870797	-0.033577	1.674020
134.954559	1187.825162	16.875802	-0.033499	1.671755
134.726080	1184.618292	16.880807	-0.033441	1.669585
134.476684	1181.295174	16.885811	-0.033377	1.667332
134.326427	1178.095952	16.890816	-0.033338	1.665170
134.299256	1174.752343	16.895821	-0.033329	1.662921
133.993855	1171.523056	16.900826	-0.033252	1.660715
133.762267	1168.321190	16.905831	-0.033193	1.658534
133.604500	1165.026294	16.910835	-0.033152	1.656295
133.316031	1161.852075	16.915840	-0.033080	1.654119
133.210197	1158.570122	16.920845	-0.033051	1.651889
133.049581	1155.407526	16.925850	-0.033010	1.649730
132.721628	1152.185684	16.930855	-0.032927	1.647509
132.608443	1149.008284	16.935859	-0.032897	1.645339
132.554963	1145.782947	16.940864	-0.032882	1.643141
132.195688	1142.608313	16.945869	-0.032792	1.640940
131.748459	1139.535489	16.950874	-0.032680	1.638796
131.639787	1136.381718	16.955879	-0.032652	1.636631
131.409751	1133.291905	16.960883	-0.032593	1.634494
131.051483	1130.210284	16.965888	-0.032503	1.632345
130.669768	1127.227753	16.970893	-0.032408	1.630259
130.468453	1124.189012	16.975898	-0.032356	1.628151
130.264525	1121.194447	16.980903	-0.032304	1.626071
130.001002	1118.223289	16.985907	-0.032238	1.623997
130.138249	1115.143095	16.990912	-0.032269	1.621891
129.975368	1112.142007	16.995917	-0.032227	1.619803
129.711288	1109.070393	17.000922	-0.032160	1.617652
129.565010	1106.075474	17.005927	-0.032123	1.615565
129.409447	1103.001964	17.010931	-0.032082	1.613419
129.080565	1100.042047	17.015936	-0.032000	1.611329
128.825548	1097.073966	17.020941	-0.031935	1.609240
128.742404	1094.053997	17.025946	-0.031913	1.607131
128.658964	1091.104636	17.030951	-0.031890	1.605069
128.325400	1088.096594	17.035955	-0.031807	1.602934
128.027510	1085.210434	17.040960	-0.031732	1.600886
127.650460	1082.333520	17.045965	-0.031637	1.598832
127.506509	1079.417591	17.050970	-0.031600	1.596775
127.281851	1076.572883	17.055975	-0.031543	1.594756
127.008345	1073.656738	17.060979	-0.031474	1.592679
126.746668	1070.882030	17.065984	-0.031408	1.590700
126.685981	1068.008044	17.070989	-0.031391	1.588672
126.523772	1065.133245	17.075994	-0.031350	1.586628
126.467594	1062.294474	17.080999	-0.031334	1.584620
126.267099	1059.362082	17.086003	-0.031283	1.582527
126.064510	1056.610978	17.091008	-0.031231	1.580558
126.059414	1053.682806	17.096013	-0.031228	1.578485
125.993159	1050.769704	17.101018	-0.031209	1.576413
125.955747	1047.852603	17.106023	-0.031198	1.574338
125.614725	1044.903177	17.111027	-0.031113	1.572202
125.582205	1042.068315	17.116032	-0.031103	1.570181
125.412510	1039.103541	17.121037	-0.031059	1.568049
125.068603	1036.278257	17.126042	-0.030973	1.565992
124.910366	1033.389955	17.131047	-0.030932	1.563910
124.558282	1030.551283	17.136051	-0.030844	1.561837
124.445119	1027.772625	17.141056	-0.030814	1.559834
124.111937	1024.911278	17.146061	-0.030731	1.557742
123.792790	1022.184715	17.151066	-0.030651	1.555745
123.532510	1019.406849	17.156071	-0.030585	1.553716
123.421547	1016.633621	17.161075	-0.030556	1.551706
123.309047	1013.901497	17.166080	-0.030527	1.549723
122.830875	1011.154781	17.171085	-0.030408	1.547682
122.721358	1008.471447	17.176090	-0.030379	1.545729
122.719678	1005.690356	17.181095	-0.030377	1.543716
122.496454	1002.946647	17.186099	-0.030320	1.541700
122.330184	1000.243527	17.191104	-0.030278	1.539719
122.135392	997.475077	17.196109	-0.030228	1.537683
121.960571	994.766843	17.201114	-0.030183	1.535691
121.736451	992.039813	17.206119	-0.030127	1.533677
121.575012	989.298689	17.211123	-0.030085	1.531658
121.189968	986.679182	17.216128	-0.029989	1.529697
121.007886	983.975861	17.221133	-0.029943	1.527697
120.913080	981.324781	17.226138	-0.029918	1.525744
120.788352	978.630241	17.231143	-0.029885	1.523753
120.665750	975.928927	17.236147	-0.029853	1.521754
120.458312	973.304847	17.241152	-0.029801	1.519799
120.173981	970.617033	17.246157	-0.029729	1.517785
120.121165	967.961722	17.251162	-0.029714	1.515821
119.884139	965.295809	17.256167	-0.029654	1.513824
119.803318	962.596690	17.261171	-0.029633	1.511819
119.692775	959.950652	17.266176	-0.029604	1.509846
119.374113	957.266930	17.271181	-0.029524	1.507818
119.354498	954.618580	17.276186	-0.029517	1.505850
119.207070	951.934342	17.281191	-0.029479	1.503837
118.977382	949.264676	17.286195	-0.029421	1.501822
118.863008	946.652312	17.291200	-0.029391	1.499861
118.649614	943.926702	17.296205	-0.029337	1.497800
118.590515	941.296655	17.301210	-0.029321	1.495828
118.317690	938.607123	17.306215	-0.029252	1.493782
118.019918	935.990148	17.311219	-0.029178	1.491784
117.900825	933.376756	17.316224	-0.029147	1.489808
117.664553	930.702152	17.321229	-0.029087	1.487769
117.604851	928.111365	17.326234	-0.029070	1.485813
117.497813	925.423278	17.331239	-0.029042	1.483775
117.094974	922.864696	17.336243	-0.028942	1.481794
116.990976	920.267755	17.341248	-0.028915	1.479819
116.765202	917.635950	17.346253	-0.028858	1.477800
116.482265	915.100946	17.351258	-0.028787	1.475844
116.299343	912.501221	17.356263	-0.028740	1.473849
116.088953	909.948162	17.361267	-0.028687	1.471884
116.123013	907.366336	17.366272	-0.028693	1.469925
115.748446	904.769005	17.371277	-0.028600	1.467899
115.435443	902.319636	17.376282	-0.028521	1.465991
115.348990	899.734936	17.381287	-0.028498	1.464007
115.192285	897.189386	17.386291	-0.028458	1.462041
115.076254	894.666486	17.391296	-0.028428	1.460094
114.842329	892.077502	17.396301	-0.028369	1.458080
114.692914	889.575557	17.401306	-0.028331	1.456140
114.465282	887.040592	17.406311	-0.028273	1.454162
114.362919	884.479101	17.411315	-0.028246	1.452177
114.222109	881.970412	17.416320	-0.028210	1.450225
114.059603	879.408007	17.421325	-0.028168	1.448226
113.880373	876.898481	17.426330	-0.028123	1.446263
113.723216	874.357010	17.431335	-0.028083	1.444276
113.552825	871.828805	17.436339	-0.028039	1.442294
113.328051	869.347802	17.441344	-0.027982	1.440339
113.211372	866.789945	17.446349	-0.027952	1.438336
112.922298	864.333530	17.451354	-0.027880	1.436386
112.882678	861.784836	17.456359	-0.027868	1.434395
112.676918	859.273922	17.461363	-0.027816	1.432408
112.697090	856.747456	17.466368	-0.027819	1.430437
112.482381	854.182949	17.471373	-0.027765	1.428401
112.481931	851.659527	17.476378	-0.027763	1.426424
112.225169	849.114153	17.481383	-0.027698	1.424392
111.874534	846.618979	17.486387	-0.027611	1.422384
111.695157	844.170242	17.491392	-0.027565	1.420433
111.467560	841.647294	17.496397	-0.027507	1.418414
111.464941	839.138421	17.501402	-0.027505	1.416434
111.295870	836.622757	17.506407	-0.027462	1.414423
111.071007	834.110467	17.511411	-0.027405	1.412405
111.004090	831.628830	17.516416	-0.027387	1.410429
110.742479	829.089635	17.521421	-0.027321	1.408378
110.652063	826.632341	17.526426	-0.027297	1.406413
110.419759	824.117874	17.531431	-0.027239	1.404380
110.334489	821.613717	17.536435	-0.027216	1.402372
110.200796	819.143409	17.541440	-0.027181	1.400382
109.924425	816.619679	17.546445	-0.027112	1.398327
109.820185	814.164987	17.551450	-0.027085	1.396347
109.634363	811.649467	17.556455	-0.027038	1.394305
109.401301	809.189962	17.561459	-0.026979	1.392298
109.452451	806.686965	17.566464	-0.026990	1.390293
109.258490	804.138254	17.571469	-0.026940	1.388214
109.117497	801.689520	17.576474	-0.026904	1.386220
108.950691	799.153785	17.581479	-0.026861	1.384149
108.576944	796.718068	17.586483	-0.026768	1.382127
108.272840	794.287686	17.591488	-0.026692	1.380115
108.066587	791.846913	17.596493	-0.026640	1.378107
107.938600	789.418886	17.601498	-0.026607	1.376117
107.743081	786.973711	17.606503	-0.026557	1.374100
107.510221	784.575242	17.611507	-0.026499	1.372113
107.454188	782.137444	17.616512	-0.026483	1.370116
107.265649	779.701764	17.621517	-0.026435	1.368099
107.098712	777.290591	17.626522	-0.026393	1.366103
106.921302	774.851893	17.631527	-0.026348	1.364079
106.827663	772.438829	17.636531	-0.026323	1.362085
106.713291	770.018321	17.641536	-0.026293	1.360080
106.511371	767.563578	17.646541	-0.026242	1.358030
106.376104	765.147012	17.651546	-0.026207	1.356019
106.242667	762.684641	17.656551	-0.026173	1.353967
106.097277	760.282088	17.661555	-0.026136	1.351959
105.945010	757.830859	17.666560	-0.026097	1.349907
105.827280	755.387746	17.671565	-0.026066	1.347864
105.442525	753.023069	17.676570	-0.025970	1.345844
105.282790	750.599815	17.681575	-0.025930	1.343805
104.997062	748.280528	17.686579	-0.025858	1.341832
104.892234	745.873667	17.691584	-0.025831	1.339808
104.796877	743.467803	17.696589	-0.025806	1.337784
104.617174	741.079686	17.701594	-0.025760	1.335759
104.574490	738.634486	17.706599	-0.025748	1.333703
104.350913	736.270474	17.711603	-0.025691	1.331686
104.170051	733.862313	17.716608	-0.025645	1.329635
103.923390	731.493341	17.721613	-0.025583	1.327604
103.839721	729.115397	17.726618	-0.025561	1.325586
103.792373	726.680916	17.731623	-0.025548	1.323523
103.707294	724.307468	17.736627	-0.025525	1.321502
103.604749	721.856788	17.741632	-0.025499	1.319411
103.524318	719.429504	17.746637	-0.025477	1.317339
103.323577	716.977971	17.751642	-0.025426	1.315225
102.875501	714.641066	17.756647	-0.025315	1.313169
102.592739	712.297302	17.761651	-0.025244	1.311128
102.362849	709.941814	17.766656	-0.025186	1.309082
102.447460	707.580396	17.771661	-0.025205	1.307075
102.330468	705.147627	17.776666	-0.025175	1.304974
102.223887	702.808433	17.781671	-0.025147	1.302950
101.936128	700.449212	17.786675	-0.025075	1.300880
101.651102	698.090937	17.791680	-0.025004	1.298807
101.541206	695.755317	17.796685	-0.024975	1.296776
101.393191	693.335359	17.801690	-0.024937	1.294664
101.299375	690.996975	17.806695	-0.024913	1.292627
101.110118	688.616007	17.811699	-0.024865	1.290536
100.993099	686.244407	17.816704	-0.024834	1.288460
100.904425	683.874731	17.821709	-0.024811	1.286387
100.688128	681.472278	17.826714	-0.024756	1.284263
100.712361	679.139340	17.831719	-0.024760	1.282232
100.427418	676.721213	17.836723	-0.024689	1.280077
100.276354	674.361210	17.841728	-0.024650	1.277989
100.037508	672.009765	17.846733	-0.024590	1.275891
99.747677	669.659652	17.851738	-0.024518	1.273784
99.518901	667.381091	17.856743	-0.024460	1.271745
99.519099	664.974843	17.861747	-0.024459	1.269626
99.511855	662.639001	17.866752	-0.024455	1.267565
99.241479	660.265233	17.871757	-0.024387	1.265426
98.741984	658.000119	17.876762	-0.024264	1.263343
98.795247	655.701445	17.881767	-0.024275	1.261314
98.557282	653.345856	17.886771	-0.024215	1.259185
98.548100	651.020633	17.891776	-0.024211	1.257115
98.365151	648.657465	17.896781	-0.024165	1.254981
98.472792	646.282264	17.901786	-0.024189	1.252879
98.461747	643.880228	17.906791	-0.024185	1.250730
98.245327	641.482535	17.911795	-0.024130	1.248548
98.081454	639.122833	17.916800	-0.024088	1.246406
97.935368	636.712459	17.921805	-0.024051	1.244217
97.745625	634.399482	17.926810	-0.024003	1.242104
97.528372	632.020162	17.931815	-0.023948	1.239924
97.320302	629.682513	17.936819	-0.023895	1.237779
97.183495	627.308233	17.941824	-0.023860	1.235609
96.982022	624.964400	17.946829	-0.023809	1.233452
96.631025	622.683574	17.951834	-0.023722	1.231324
96.721843	620.298850	17.956839	-0.023742	1.229170
96.410148	618.007678	17.961843	-0.023664	1.227032
96.300211	615.648459	17.966848	-0.023636	1.224860
95.996383	613.384490	17.971853	-0.023560	1.222740
96.010194	611.003570	17.976858	-0.023562	1.220562
95.941380	608.670016	17.981863	-0.023543	1.218409
95.703487	606.320315	17.986867	-0.023483	1.216210
95.660228	603.952751	17.991872	-0.023471	1.214023
95.525711	601.625209	17.996877	-0.023436	1.211853
95.235399	599.272105	18.001882	-0.023364	1.209630
95.052392	597.001293	18.006887	-0.023317	1.207497
94.883589	594.641241	18.011891	-0.023274	1.205280
94.778621	592.354909	18.016896	-0.023247	1.203138
94.339853	590.095904	18.021901	-0.023138	1.200962
93.967151	587.850684	18.026906	-0.023045	1.198805
93.786354	585.630053	18.031911	-0.023000	1.196700
93.598297	583.348474	18.036915	-0.022952	1.194533
93.305354	581.210416	18.041920	-0.022879	1.192479
93.268521	578.928139	18.046925	-0.022868	1.190329
93.238540	576.689292	18.051930	-0.022859	1.188217
93.248766	574.398417	18.056935	-0.022860	1.186059
93.157018	572.111096	18.061939	-0.022836	1.183883
93.205914	569.824360	18.066944	-0.022846	1.181728
93.085474	567.482351	18.071949	-0.022815	1.179487
93.003414	565.165866	18.076954	-0.022793	1.177273
92.972034	562.798608	18.081959	-0.022784	1.175016
92.886919	560.473381	18.086963	-0.022761	1.172784
92.746799	558.107325	18.091968	-0.022725	1.170500
92.511321	555.809631	18.096973	-0.022666	1.168260
92.128817	553.501852	18.101978	-0.022571	1.165981
92.134745	551.200565	18.106983	-0.022571	1.163771
91.881060	548.912740	18.111987	-0.022507	1.161525
91.560440	546.651223	18.116992	-0.022427	1.159288
91.484925	544.373515	18.121997	-0.022407	1.157074
91.133975	542.083510	18.127002	-0.022320	1.154796
91.164403	539.848509	18.132007	-0.022325	1.152633
90.817052	537.566965	18.137011	-0.022239	1.150354
90.727853	535.343985	18.142016	-0.022215	1.148174
90.546989	533.070856	18.147021	-0.022169	1.145924
90.349826	530.830981	18.152026	-0.022120	1.143699
90.482760	528.529049	18.157031	-0.022150	1.141468
90.239807	526.240959	18.162035	-0.022089	1.139179
90.148482	523.973130	18.167040	-0.022065	1.136932
90.127968	521.641782	18.172045	-0.022059	1.134631
89.834491	519.392212	18.177050	-0.021985	1.132357
89.577834	517.127316	18.182055	-0.021921	1.130070
89.350748	514.908252	18.187059	-0.021864	1.127830
89.267373	512.619785	18.192064	-0.021842	1.125541
89.117291	510.404890	18.197069	-0.021803	1.123309
88.965892	508.129430	18.202074	-0.021765	1.121012
88.783574	505.898170	18.207079	-0.021719	1.118749
88.512365	503.666931	18.212083	-0.021651	1.116465
88.413333	501.436794	18.217088	-0.021625	1.114209
88.276988	499.195664	18.222093	-0.021590	1.111931
88.078802	496.959281	18.227098	-0.021540	1.109641
87.992626	494.759301	18.232103	-0.021517	1.107404
87.753391	492.493761	18.237107	-0.021457	1.105067
87.564253	490.354132	18.242112	-0.021409	1.102863
87.371269	488.119032	18.247117	-0.021360	1.100556
87.208347	485.920305	18.252122	-0.021319	1.098288
87.201692	483.675743	18.257127	-0.021316	1.095996
87.053057	481.461117	18.262131	-0.021278	1.093705
86.944809	479.213025	18.267136	-0.021250	1.091381
86.791149	477.006296	18.272141	-0.021211	1.089087
86.500112	474.800083	18.277146	-0.021138	1.086762
86.195426	472.663156	18.282151	-0.021062	1.084501
86.082885	470.482576	18.287155	-0.021033	1.082227
86.036704	468.256571	18.292160	-0.021020	1.079913
85.891087	466.077101	18.297165	-0.020983	1.077624
85.916736	463.797953	18.302170	-0.020987	1.075259
85.972176	461.592048	18.307175	-0.020999	1.072971
85.896801	459.287069	18.312179	-0.020979	1.070549
85.849917	457.060856	18.317184	-0.020966	1.068210
85.584035	454.800144	18.322189	-0.020899	1.065787
85.342179	452.598373	18.327194	-0.020839	1.063425
84.988223	450.408518	18.332199	-0.020750	1.061049
84.897557	448.195631	18.337203	-0.020727	1.058694
84.899687	445.928587	18.342208	-0.020726	1.056295
84.517086	443.785080	18.347213	-0.020630	1.053947
84.343694	441.572211	18.352218	-0.020587	1.051560
84.205759	439.402723	18.357223	-0.020551	1.049221
84.071992	437.190079	18.362227	-0.020517	1.046831
83.906338	435.022921	18.367232	-0.020475	1.044478
83.624391	432.878294	18.372237	-0.020404	1.042122
83.536918	430.689841	18.377242	-0.020381	1.039751
83.433602	428.520686	18.382247	-0.020355	1.037392
83.186386	426.347879	18.387251	-0.020293	1.034996
83.136216	424.184701	18.392256	-0.020279	1.032643
82.995661	421.997764	18.397261	-0.020243	1.030241
82.909014	419.820488	18.402266	-0.020220	1.027855
82.709790	417.647785	18.407271	-0.020170	1.025446
82.405575	415.550184	18.412275	-0.020094	1.023092
82.279160	413.375311	18.417280	-0.020061	1.020684
82.142698	411.248591	18.422285	-0.020026	1.018321
81.910918	409.075024	18.427290	-0.019968	1.015882
81.987559	406.937020	18.432295	-0.019985	1.013539
81.769733	404.748645	18.437299	-0.019930	1.011074
81.620671	402.634475	18.442304	-0.019893	1.008700
81.464158	400.460086	18.447309	-0.019853	1.006251
81.196274	398.379717	18.452314	-0.019786	1.003879
81.113926	396.221009	18.457319	-0.019764	1.001452
80.988448	394.096783	18.462323	-0.019732	0.999048
81.014409	391.897860	18.467328	-0.019736	0.996586
80.813156	389.775924	18.472333	-0.019686	0.994158
80.500364	387.635719	18.477338	-0.019608	0.991679
80.539824	385.508256	18.482343	-0.019616	0.989283
80.277572	383.370584	18.487347	-0.019550	0.986806
80.172193	381.246666	18.492352	-0.019523	0.984371
79.903909	379.130894	18.497357	-0.019456	0.981905
79.855090	376.990130	18.502362	-0.019442	0.979450
79.664388	374.861415	18.507367	-0.019394	0.976974
79.601601	372.725375	18.512371	-0.019377	0.974509
79.351317	370.612101	18.517376	-0.019314	0.972025
79.070777	368.545263	18.522381	-0.019244	0.969581
79.013192	366.406781	18.527386	-0.019229	0.967096
79.148197	364.272123	18.532391	-0.019260	0.964651
78.789398	362.173991	18.537395	-0.019171	0.962135
78.673210	360.071508	18.542400	-0.019141	0.959660
78.654317	357.919880	18.547405	-0.019135	0.957142
78.441199	355.822039	18.552410	-0.019081	0.954639
78.259572	353.722446	18.557415	-0.019035	0.952133
78.192570	351.600688	18.562419	-0.019017	0.949620
78.112248	349.473324	18.567424	-0.018996	0.947091
77.990757	347.380347	18.572429	-0.018965	0.944586
77.776009	345.262727	18.577434	-0.018911	0.942025
77.554270	343.198007	18.582439	-0.018855	0.939519
77.284432	341.106927	18.587443	-0.018788	0.936964
77.264647	339.019892	18.592448	-0.018781	0.934462
77.048960	336.926810	18.597453	-0.018727	0.931902
76.975328	334.846755	18.602458	-0.018708	0.929383
76.862080	332.742614	18.607463	-0.018678	0.926819
76.695550	330.691727	18.612467	-0.018636	0.924300
76.647569	328.563760	18.617472	-0.018623	0.921708
76.470626	326.504563	18.622477	-0.018578	0.919163
76.278109	324.400988	18.627482	-0.018529	0.916553
76.112444	322.377125	18.632487	-0.018488	0.914039
75.981738	320.265609	18.637491	-0.018454	0.911418
75.956413	318.205992	18.642496	-0.018446	0.908879
75.701315	316.136966	18.647501	-0.018382	0.906267
75.462686	314.103046	18.652506	-0.018323	0.903695
75.353745	312.033470	18.657511	-0.018295	0.901102
75.201742	309.980038	18.662515	-0.018256	0.898511
75.185586	307.886276	18.667520	-0.018250	0.895894
75.011637	305.851585	18.672525	-0.018206	0.893307
74.908381	303.773585	18.677530	-0.018180	0.890674
74.942649	301.682464	18.682535	-0.018186	0.888049
74.425804	299.703048	18.687539	-0.018059	0.885427
74.078947	297.729721	18.692544	-0.017972	0.882845
74.070110	295.699007	18.697549	-0.017969	0.880264
74.061548	293.631680	18.702554	-0.017965	0.877628
73.836481	291.640700	18.707559	-0.017909	0.875030
73.755942	289.593320	18.712563	-0.017888	0.872386
73.546866	287.599116	18.717568	-0.017835	0.869772
73.184769	285.633068	18.722573	-0.017745	0.867149
73.023221	283.683558	18.727578	-0.017704	0.864589
73.010613	281.662008	18.732583	-0.017700	0.861963
72.748860	279.703629	18.737587	-0.017634	0.859351
72.782370	277.667435	18.742592	-0.017641	0.856702
72.713134	275.689451	18.747597	-0.017622	0.854095
72.461876	273.687104	18.752602	-0.017560	0.851403
72.436437	271.704600	18.757607	-0.017552	0.848785
72.276761	269.703364	18.762611	-0.017511	0.846101
72.280037	267.703643	18.767616	-0.017511	0.843451
72.275606	265.675255	18.772621	-0.017508	0.840752
71.992231	263.683855	18.777626	-0.017437	0.838024
72.031935	261.669966	18.782631	-0.017446	0.835339
71.824655	259.663992	18.787635	-0.017394	0.832593
71.766332	257.668321	18.792640	-0.017378	0.829889
71.384255	255.709076	18.797645	-0.017283	0.827143
71.231978	253.753920	18.802650	-0.017244	0.824453
71.182966	251.755569	18.807655	-0.017231	0.821721
70.904572	249.809030	18.812659	-0.017161	0.818992
70.803560	247.831458	18.817664	-0.017135	0.816257
70.679921	245.873301	18.822669	-0.017104	0.813534
70.474083	243.926410	18.827674	-0.017052	0.810796
70.354467	241.980413	18.832679	-0.017021	0.808072
70.346825	240.010560	18.837683	-0.017018	0.805335
70.135027	238.065211	18.842688	-0.016965	0.802569
69.940222	236.144906	18.847693	-0.016916	0.799834
69.901361	234.159349	18.852698	-0.016905	0.797038
69.943344	232.204658	18.857703	-0.016914	0.794298
69.882476	230.215745	18.862707	-0.016897	0.791472
69.860782	228.229294	18.867712	-0.016890	0.788651
69.659862	226.290112	18.872717	-0.016840	0.785838
69.278439	224.380723	18.877722	-0.016745	0.783008
69.342906	222.418276	18.882727	-0.016760	0.780214
68.950760	220.502762	18.887731	-0.016662	0.777352
68.610073	218.651342	18.892736	-0.016578	0.774587
68.449926	216.750470	18.897741	-0.016537	0.771789
68.341800	214.847586	18.902746	-0.016509	0.768993
68.153436	212.988292	18.907751	-0.016462	0.766228
67.925213	211.118146	18.912755	-0.016405	0.763425
67.507805	209.318018	18.917760	-0.016302	0.760663
67.552383	207.422309	18.922765	-0.016311	0.757879
67.361114	205.597458	18.927770	-0.016263	0.755124
67.402565	203.702591	18.932775	-0.016272	0.752319
67.233675	201.863216	18.937779	-0.016229	0.749528
67.285802	199.958112	18.942784	-0.016240	0.746691
67.085412	198.111676	18.947789	-0.016190	0.743858
66.897454	196.257045	18.952794	-0.016143	0.741006
66.738872	194.410327	18.957799	-0.016103	0.738164
66.612423	192.574300	18.962803	-0.016070	0.735336
66.468435	190.722840	18.967808	-0.016034	0.732468
66.625209	188.838696	18.972813	-0.016071	0.729627
66.509593	186.967591	18.977818	-0.016041	0.726715
66.296992	185.145971	18.982823	-0.015988	0.723839
66.188253	183.289036	18.987827	-0.015960	0.720928
66.024695	181.439034	18.992832	-0.015919	0.717999
65.935228	179.623178	18.997837	-0.015895	0.715134
65.737184	177.778566	19.002842	-0.015846	0.712180
65.660652	175.956617	19.007847	-0.015826	0.709285
65.437741	174.158454	19.012851	-0.015770	0.706372
65.345367	172.327899	19.017856	-0.015746	0.703435
65.137042	170.549915	19.022861	-0.015694	0.700535
65.077253	168.701630	19.027866	-0.015678	0.697555
64.951645	166.916460	19.032871	-0.015646	0.694644
64.787120	165.108769	19.037875	-0.015604	0.691672
64.720826	163.300840	19.042880	-0.015587	0.688717
64.341018	161.577874	19.047885	-0.015492	0.685790
64.042677	159.835293	19.052890	-0.015418	0.682844
64.052946	158.059416	19.057895	-0.015419	0.679928
63.774182	156.330129	19.062899	-0.015350	0.676985
63.789670	154.549640	19.067904	-0.015353	0.674037
63.495637	152.847943	19.072909	-0.015279	0.671109
63.264703	151.117321	19.077914	-0.015222	0.668140
63.197430	149.402515	19.082919	-0.015204	0.665237
63.067247	147.657882	19.087923	-0.015171	0.662250
62.891870	145.939911	19.092928	-0.015127	0.659281
62.874009	144.210119	19.097933	-0.015121	0.656329
62.741715	142.479481	19.102938	-0.015087	0.653325
62.677685	140.769861	19.107943	-0.015071	0.650366
62.526659	139.050854	19.112947	-0.015032	0.647348
62.362177	137.360849	19.117952	-0.014991	0.644362
62.303970	135.648948	19.122957	-0.014975	0.641360
62.060616	133.949933	19.127962	-0.014915	0.638303
62.004799	132.275747	19.132967	-0.014900	0.635339
61.888394	130.568610	19.137971	-0.014870	0.632282
61.571276	128.925467	19.142976	-0.014791	0.629256
61.406556	127.290009	19.147981	-0.014750	0.626281
61.227593	125.629557	19.152986	-0.014705	0.623241
60.974032	124.015084	19.157991	-0.014642	0.620245
60.788048	122.384998	19.162995	-0.014595	0.617228
60.345975	120.825082	19.168000	-0.014486	0.614235
60.241896	119.232284	19.173005	-0.014459	0.611287
60.044625	117.635716	19.178010	-0.014410	0.608283
59.840244	116.093185	19.183015	-0.014359	0.605363
59.796325	114.488322	19.188019	-0.014347	0.602370
59.700785	112.894107	19.193024	-0.014322	0.599363
59.629192	111.321218	19.198029	-0.014304	0.596390
59.422158	109.748600	19.203034	-0.014252	0.593353
59.315558	108.195311	19.208039	-0.014225	0.590374
59.118045	106.640820	19.213043	-0.014175	0.587344
58.933325	105.101578	19.218048	-0.014129	0.584332
58.635762	103.600117	19.223053	-0.014055	0.581335
58.349457	102.090604	19.228058	-0.013984	0.578312
58.105712	100.622939	19.233063	-0.013924	0.575370
57.827914	99.150800	19.238067	-0.013855	0.572391
57.903481	97.617001	19.243072	-0.013872	0.569410
57.597288	96.177301	19.248077	-0.013796	0.566453
57.389689	94.711961	19.253082	-0.013744	0.563467
57.391304	93.224871	19.258087	-0.013743	0.560503
57.144588	91.774552	19.263091	-0.013682	0.557500
56.318624	90.468754	19.268096	-0.013479	0.554547
54.887540	89.359280	19.273101	-0.013129	0.551739
53.896911	88.227458	19.278106	-0.012886	0.549044
53.941894	86.958616	19.283111	-0.012896	0.546467
53.682959	85.710891	19.288115	-0.012832	0.543799
53.121957	84.558347	19.293120	-0.012694	0.541194
52.203005	83.497465	19.298125	-0.012468	0.538623
51.576475	82.458394	19.303130	-0.012315	0.536203
51.547049	81.293940	19.308135	-0.012306	0.533752
51.105498	80.234041	19.313139	-0.012198	0.531341
50.450894	79.218906	19.318144	-0.012037	0.528927
49.713813	78.303731	19.323149	-0.011856	0.526681
49.150108	77.341371	19.328154	-0.011718	0.524396
48.889885	76.372436	19.333159	-0.011653	0.522213
48.564259	75.405915	19.338163	-0.011573	0.519998
48.350768	74.438426	19.343168	-0.011520	0.517819
48.016078	73.513856	19.348173	-0.011438	0.515673
47.527206	72.610549	19.353178	-0.011318	0.513499
47.290654	71.715139	19.358183	-0.011259	0.511441
46.907713	70.816287	19.363187	-0.011165	0.509304
46.308449	70.013422	19.368192	-0.011018	0.507277
45.893702	69.188071	19.373197	-0.010916	0.505271
45.641184	68.332568	19.378202	-0.010853	0.503261
45.472141	67.489118	19.383207	-0.010811	0.501305
44.889424	66.712451	19.388211	-0.010669	0.499312
44.154186	66.022310	19.393216	-0.010488	0.497439
43.653912	65.308186	19.398221	-0.010366	0.495607
43.421216	64.542730	19.403226	-0.010308	0.493770
43.169633	63.823314	19.408231	-0.010246	0.492023
42.805508	63.101449	19.413235	-0.010156	0.490214
42.147564	62.463575	19.418240	-0.009995	0.488460
41.982537	61.790194	19.423245	-0.009954	0.486838
41.686179	61.091456	19.428250	-0.009881	0.485094
41.556822	60.391738	19.433255	-0.009849	0.483416
41.134080	59.758145	19.438259	-0.009745	0.481753
40.761277	59.111908	19.443264	-0.009654	0.480078
40.602039	58.450323	19.448269	-0.009614	0.478458
40.380240	57.808168	19.453274	-0.009560	0.476850
40.117871	57.162853	19.458279	-0.009495	0.475210
39.601105	56.579812	19.463283	-0.009368	0.473595
39.317139	55.998669	19.468288	-0.009298	0.472086
39.274769	55.342693	19.473293	-0.009288	0.470506
39.008284	54.725752	19.478298	-0.009222	0.468910
38.762329	54.150085	19.483303	-0.009161	0.467417
37.978132	53.669618	19.488307	-0.008969	0.465896
37.604943	53.124863	19.493312	-0.008878	0.464408
37.566588	52.545566	19.498317	-0.008868	0.462989
37.298287	51.994663	19.503322	-0.008802	0.461526
37.157835	51.416124	19.508327	-0.008767	0.460052
36.714691	50.909519	19.513331	-0.008658	0.458605
36.092792	50.480004	19.518336	-0.008506	0.457257
36.135958	49.915109	19.523341	-0.008516	0.455890
36.075842	49.339990	19.528346	-0.008501	0.454445
35.681837	48.874311	19.533351	-0.008404	0.453105
35.257854	48.407736	19.538355	-0.008300	0.451744
35.188819	47.875069	19.543360	-0.008283	0.450386
35.221016	47.319946	19.548365	-0.008291	0.449018
35.116517	46.797929	19.553370	-0.008265	0.447662
34.950104	46.284137	19.558375	-0.008224	0.446292
34.854264	45.732161	19.563379	-0.008200	0.444856
34.480426	45.260060	19.568384	-0.008108	0.443480
34.219429	44.779114	19.573389	-0.008044	0.442133
34.007545	44.274876	19.578394	-0.007992	0.440748
33.848752	43.768569	19.583399	-0.007952	0.439379
33.534608	43.308894	19.588403	-0.007875	0.438048
33.489891	42.795022	19.593408	-0.007864	0.436708
33.164672	42.328419	19.598413	-0.007784	0.435345
32.633169	41.907169	19.603418	-0.007654	0.433991
32.591034	41.437660	19.608423	-0.007643	0.432755
32.339660	40.979236	19.613427	-0.007581	0.431438
32.128726	40.513221	19.618432	-0.007529	0.430118
31.725126	40.100634	19.623437	-0.007430	0.428835
31.572263	39.665568	19.628442	-0.007393	0.427618
31.537635	39.180477	19.633447	-0.007384	0.426326
31.270503	38.736321	19.638451	-0.007318	0.425019
30.776318	38.356067	19.643456	-0.007197	0.423759
30.745411	37.908369	19.648461	-0.007189	0.422557
30.651001	37.445098	19.653466	-0.007166	0.421277
30.602390	36.974441	19.658471	-0.007153	0.419997
30.462924	36.521290	19.663475	-0.007119	0.418712
30.331429	36.080422	19.668480	-0.007086	0.417461
29.948316	35.676223	19.673485	-0.006993	0.416172
29.365178	35.319453	19.678490	-0.006850	0.414902
29.286029	34.893485	19.683495	-0.006830	0.413708
29.081940	34.496130	19.688499	-0.006780	0.412521
29.100126	34.037038	19.693504	-0.006784	0.411281
28.780172	33.640151	19.698509	-0.006705	0.410026
28.526409	33.243004	19.703514	-0.006643	0.408803
28.243840	32.886049	19.708519	-0.006574	0.407671
28.252255	32.439587	19.713523	-0.006575	0.406445
27.988622	32.039026	19.718528	-0.006511	0.405196
28.117990	31.573810	19.723533	-0.006542	0.403976
27.883428	31.180169	19.728538	-0.006484	0.402755
27.589306	30.791549	19.733543	-0.006412	0.401511
27.099516	30.448619	19.738547	-0.006292	0.400284
27.173079	30.001806	19.743552	-0.006310	0.399070
27.147962	29.593449	19.748557	-0.006303	0.397907
26.984427	29.176818	19.753562	-0.006263	0.396641
26.884306	28.754099	19.758567	-0.006238	0.395388
26.452208	28.398484	19.763571	-0.006132	0.394138
26.019132	28.079363	19.768576	-0.006026	0.392988
25.884478	27.693176	19.773581	-0.005993	0.391809
25.662533	27.311648	19.778586	-0.005938	0.390590
25.451345	26.942476	19.783591	-0.005886	0.389410
25.383355	26.564149	19.788595	-0.005869	0.388281
25.223962	26.188045	19.793600	-0.005830	0.387102
25.131830	25.794136	19.798605	-0.005807	0.385907
25.031032	25.386437	19.803610	-0.005782	0.384663
24.727818	25.042359	19.808615	-0.005708	0.383485
24.764919	24.625912	19.813619	-0.005717	0.382286
24.517800	24.253904	19.818624	-0.005656	0.381051
24.661784	23.802422	19.823629	-0.005691	0.379803
24.612006	23.391199	19.828634	-0.005678	0.378558
24.635109	22.963178	19.833639	-0.005683	0.377301
24.234310	22.597726	19.838643	-0.005585	0.375980
24.079074	22.196885	19.843648	-0.005547	0.374691
23.901210	21.822228	19.848653	-0.005503	0.373463
23.553158	21.469030	19.853658	-0.005418	0.372196
23.436589	21.074666	19.858663	-0.005389	0.370937
23.121774	20.717332	19.863667	-0.005312	0.369668
22.709243	20.409372	19.868672	-0.005211	0.368487
22.394196	20.086541	19.873677	-0.005133	0.367314
22.151844	19.736650	19.878682	-0.005074	0.366099
22.038644	19.369889	19.883687	-0.005046	0.364906
21.917207	19.014695	19.888691	-0.005016	0.363739
21.702771	18.674505	19.893696	-0.004963	0.362559
21.876061	18.249053	19.898701	-0.005005	0.361345
21.975875	17.816437	19.903706	-0.005029	0.360061
21.991963	17.412751	19.908711	-0.005033	0.358811
21.877205	17.027091	19.913715	-0.005004	0.357533
21.943049	16.591515	19.918720	-0.005020	0.356204
22.092535	16.125087	19.923725	-0.005056	0.354825
21.987977	15.717429	19.928730	-0.005030	0.353469
21.600193	15.359271	19.933735	-0.004935	0.352089
21.063780	15.037555	19.938739	-0.004804	0.350727
20.541432	14.733870	19.943744	-0.004676	0.349426
20.380179	14.384916	19.948749	-0.004636	0.348202
20.062845	14.051859	19.953754	-0.004558	0.346927
19.801312	13.713636	19.958759	-0.004494	0.345665
19.395569	13.412063	19.963763	-0.004395	0.344426
19.246217	13.079525	19.968768	-0.004358	0.343246
19.162897	12.723406	19.973773	-0.004337	0.342027
19.032757	12.365622	19.978778	-0.004305	0.340767
18.880170	12.021356	19.983783	-0.004268	0.339533
18.653020	11.708235	19.988787	-0.004212	0.338350
18.490700	11.368063	19.993792	-0.004172	0.337114
18.760221	10.936612	19.998797	-0.004237	0.335852
18.713752	10.549539	20.003802	-0.004226	0.334526
18.701550	10.176467	20.008807	-0.004222	0.333264
18.680322	9.781397	20.013811	-0.004217	0.331918
18.431376	9.422214	20.018816	-0.004156	0.330536
18.427947	9.036052	20.023821	-0.004155	0.329221
18.071556	8.721154	20.028826	-0.004067	0.327907
17.864656	8.366620	20.033831	-0.004016	0.326553
17.525927	8.042793	20.038835	-0.003933	0.325209
17.058897	7.765629	20.043840	-0.003819	0.323935
16.701227	7.477600	20.048845	-0.003731	0.322692
16.661528	7.119281	20.053850	-0.003721	0.321417
16.531420	6.779925	20.058855	-0.003689	0.320141
16.403547	6.449462	20.063859	-0.003658	0.318892
16.468215	6.074577	20.068864	-0.003673	0.317616
16.490437	5.694151	20.073869	-0.003678	0.316285
16.372541	5.332024	20.078874	-0.003649	0.314915
16.442304	4.953943	20.083879	-0.003666	0.313614
16.403404	4.572038	20.088883	-0.003656	0.312218
16.384922	4.182832	20.093888	-0.003651	0.310803
16.376318	3.791923	20.098893	-0.003649	0.309383
16.152599	3.452188	20.103898	-0.003594	0.307989
16.120387	3.065463	20.108903	-0.003586	0.306554
15.844574	2.715872	20.113907	-0.003518	0.305073
15.337449	2.438355	20.118912	-0.003394	0.303683
14.928814	2.146480	20.123917	-0.003294	0.302305
14.711275	1.816823	20.128922	-0.003240	0.300920
14.649752	1.464871	20.133927	-0.003225	0.299560
14.343226	1.174606	20.138931	-0.003150	0.298245
13.874949	0.906175	20.143936	-0.003035	0.296886
13.683548	0.595894	20.148941	-0.002988	0.295569
13.784435	0.225429	20.153946	-0.003012	0.294235
13.873039	-0.138559	20.158951	-0.003034	0.292910
13.737109	-0.476252	20.163955	-0.003000	0.291511
13.676582	-0.833382	20.168960	-0.002985	0.290087
13.842444	-1.216981	20.173965	-0.003025	0.288726
13.590588	-1.538348	20.178970	-0.002963	0.287282
13.521441	-1.900694	20.183975	-0.002946	0.285810
13.285697	-2.218849	20.188979	-0.002888	0.284376
12.852405	-2.492554	20.193984	-0.002782	0.282957
12.668002	-2.814855	20.198989	-0.002737	0.281531
12.296553	-3.097274	20.203994	-0.002646	0.280112
11.924312	-3.354524	20.208999	-0.002555	0.278785
11.550226	-3.614632	20.214003	-0.002463	0.277439
11.201725	-3.876849	20.219008	-0.002378	0.276099
