Sun Feb 26 13:57:28 2017

Number of Points = 3593
Depth (nm)	Load (µN)	Time (s)	Depth (V)	Load (V)
0.879800	-0.029716	0.000000	-0.000033	0.283619

0.721309	-0.000958	0.005005	0.000006	0.283609
0.633395	0.019828	0.010010	0.000027	0.283623
0.857471	-0.027547	0.015014	-0.000027	0.283609
0.925277	-0.039055	0.020019	-0.000044	0.283616
0.877142	-0.088209	0.025024	-0.000032	0.283384
0.781668	-0.093220	0.030029	-0.000009	0.283290
0.686807	-0.070462	0.035034	0.000015	0.283306
0.874376	-0.156456	0.040038	-0.000031	0.283111
0.916322	-0.198717	0.045043	-0.000041	0.282976
0.943338	-0.236451	0.050048	-0.000048	0.282847
0.665165	-0.224874	0.055053	0.000020	0.282676
0.749560	-0.279418	0.060058	-0.000000	0.282525
0.338492	-0.243551	0.065062	0.000100	0.282346
0.407482	-0.283734	0.070067	0.000084	0.282240
0.300438	-0.311872	0.075072	0.000110	0.282044
0.260252	-0.330407	0.080077	0.000120	0.281939
0.288592	-0.386826	0.085082	0.000113	0.281736
0.201319	-0.402979	0.090086	0.000134	0.281603
0.111807	-0.431449	0.095091	0.000156	0.281419
0.173097	-0.503139	0.100096	0.000141	0.281181
0.086436	-0.526480	0.105101	0.000163	0.281020
0.010888	-0.572903	0.110106	0.000181	0.280775
-0.077112	-0.608987	0.115110	0.000203	0.280561
-0.093203	-0.645944	0.120115	0.000207	0.280400
-0.212453	-0.683184	0.125120	0.000236	0.280157
-0.273866	-0.733659	0.130125	0.000251	0.279906
-0.184502	-0.796220	0.135130	0.000229	0.279726
-0.319731	-0.827215	0.140134	0.000263	0.279494
-0.398888	-0.882587	0.145139	0.000282	0.279209
-0.410046	-0.922778	0.150144	0.000285	0.279039
-0.607380	-0.947728	0.155149	0.000333	0.278782
-0.608477	-1.004851	0.160154	0.000334	0.278551
-0.815576	-1.023948	0.165158	0.000384	0.278310
-0.941329	-1.074107	0.170163	0.000415	0.278008
-1.050455	-1.104705	0.175168	0.000442	0.277797
-1.174944	-1.140691	0.180173	0.000472	0.277553
-1.127475	-1.203025	0.185178	0.000461	0.277338
-1.313796	-1.233143	0.190182	0.000506	0.277068
-1.424186	-1.279564	0.195187	0.000534	0.276791
-1.430329	-1.330711	0.200192	0.000535	0.276579
-1.426494	-1.398143	0.205197	0.000534	0.276308
-1.491110	-1.449419	0.210202	0.000550	0.276048
-1.796990	-1.451560	0.215206	0.000625	0.275794
-1.780178	-1.531684	0.220211	0.000621	0.275481
-1.853738	-1.574496	0.225216	0.000639	0.275248
-2.067191	-1.599651	0.230221	0.000691	0.274974
-2.223886	-1.622041	0.235226	0.000730	0.274756
-2.343131	-1.652128	0.240230	0.000759	0.274538
-2.552435	-1.683993	0.245235	0.000810	0.274239
-2.853134	-1.657502	0.250240	0.000884	0.274105
-2.951998	-1.666637	0.255245	0.000908	0.273988
-3.012771	-1.727962	0.260250	0.000923	0.273687
-3.322313	-1.705587	0.265254	0.000999	0.273530
-3.447063	-1.721358	0.270259	0.001029	0.273364
-3.330538	-1.796646	0.275264	0.001001	0.273149
-3.512564	-1.796072	0.280269	0.001045	0.273004
-3.483021	-1.862610	0.285274	0.001038	0.272754
-3.620526	-1.885303	0.290278	0.001072	0.272549
-3.719413	-1.902003	0.295283	0.001096	0.272400
-3.723890	-1.970517	0.300288	0.001097	0.272113
-3.866152	-1.991246	0.305293	0.001132	0.271912
-3.956717	-2.008669	0.310298	0.001155	0.271767
-4.215769	-2.024945	0.315302	0.001218	0.271489
-4.326259	-2.045473	0.320307	0.001245	0.271314
-4.685106	-2.011713	0.325312	0.001333	0.271162
-5.024754	-1.991903	0.330317	0.001416	0.270967
-5.249225	-1.977566	0.335322	0.001471	0.270844
-5.390494	-1.950829	0.340326	0.001505	0.270839
-5.572723	-1.965421	0.345331	0.001550	0.270630
-6.150307	-1.875955	0.350336	0.001691	0.270530
-6.594219	-1.791134	0.355341	0.001799	0.270520
-6.377520	-1.830550	0.360346	0.001747	0.270533
-6.335172	-1.841347	0.365350	0.001736	0.270522
-6.328722	-1.842509	0.370355	0.001735	0.270522
-6.533165	-1.800724	0.375360	0.001785	0.270529
-6.378417	-1.834796	0.380365	0.001747	0.270513
-6.012590	-1.954012	0.385370	0.001658	0.270317
-6.182317	-1.943172	0.390374	0.001699	0.270223
-5.981550	-2.025719	0.395379	0.001650	0.270044
-5.930155	-2.069255	0.400384	0.001638	0.269904
-5.890438	-2.142372	0.405389	0.001628	0.269632
-6.097415	-2.132344	0.410394	0.001679	0.269505
-6.492426	-2.110169	0.415398	0.001776	0.269273
-6.252696	-2.184173	0.420403	0.001717	0.269161
-6.666032	-2.127902	0.425408	0.001818	0.269057
-7.169879	-2.083087	0.430413	0.001941	0.268830
-7.842737	-1.978258	0.435418	0.002106	0.268716
-8.261936	-1.897533	0.440422	0.002208	0.268708
-8.424066	-1.865663	0.445427	0.002248	0.268708
-8.453884	-1.857765	0.450432	0.002255	0.268717
-8.353079	-1.880037	0.455437	0.002231	0.268706
-8.212626	-1.904494	0.460442	0.002196	0.268719
-8.577615	-1.835402	0.465446	0.002286	0.268708
-8.411647	-1.867447	0.470451	0.002245	0.268710
-8.441483	-1.859634	0.475456	0.002253	0.268718
-8.535365	-1.844710	0.480461	0.002276	0.268703
-8.158594	-1.945460	0.485466	0.002184	0.268591
-8.306780	-1.963716	0.490470	0.002220	0.268393
-8.231481	-1.978282	0.495475	0.002202	0.268393
-8.404435	-2.016923	0.500480	0.002244	0.268089
-8.262780	-2.049896	0.505485	0.002209	0.268067
-8.157794	-2.124686	0.510490	0.002184	0.267840
-8.535818	-2.066154	0.515494	0.002276	0.267774
-8.896785	-2.069828	0.520499	0.002365	0.267461
-8.899901	-2.070799	0.525504	0.002365	0.267454
-9.090922	-2.065260	0.530509	0.002412	0.267319
-9.545408	-2.017634	0.535514	0.002523	0.267144
-9.760713	-1.977630	0.540518	0.002576	0.267134
-9.583143	-2.011950	0.545523	0.002533	0.267136
-9.682221	-2.014470	0.550528	0.002557	0.267044
-10.229438	-1.961155	0.555533	0.002691	0.266815
-10.263629	-1.952101	0.560538	0.002699	0.266825
-10.500546	-1.907637	0.565542	0.002757	0.266816
-10.349387	-1.937404	0.570547	0.002720	0.266815
-10.446972	-1.916648	0.575552	0.002744	0.266822
-10.493889	-1.909471	0.580557	0.002756	0.266813
-10.549441	-1.953457	0.585562	0.002769	0.266582
-10.887779	-1.902585	0.590566	0.002852	0.266516
-10.959678	-1.888768	0.595571	0.002870	0.266514
-11.247576	-1.830077	0.600576	0.002940	0.266523
-11.319192	-1.818688	0.605581	0.002958	0.266511
-10.955769	-1.886869	0.610586	0.002869	0.266524
-10.946010	-1.912976	0.615590	0.002867	0.266422
-11.060424	-1.948048	0.620595	0.002895	0.266179
-10.717751	-2.013350	0.625600	0.002811	0.266188
-10.629473	-2.091902	0.630605	0.002790	0.265929
-10.919409	-2.047956	0.635610	0.002860	0.265874
-11.360482	-2.030963	0.640614	0.002968	0.265579
-11.488027	-2.013982	0.645619	0.003000	0.265545
-11.590967	-1.991746	0.650624	0.003025	0.265553
-11.901151	-1.996958	0.655629	0.003101	0.265273
-11.938544	-1.992184	0.660634	0.003110	0.265262
-11.968713	-1.988871	0.665638	0.003117	0.265251
-12.040524	-2.007522	0.670643	0.003135	0.265112
-12.415147	-1.976925	0.675648	0.003226	0.264929
-12.559503	-1.951168	0.680653	0.003262	0.264918
-12.689317	-1.922937	0.685658	0.003294	0.264929
-12.652580	-1.931392	0.690662	0.003285	0.264924
-12.533452	-1.998488	0.695667	0.003256	0.264738
-13.082669	-1.917048	0.700672	0.003390	0.264626
-13.051059	-1.926486	0.705677	0.003382	0.264612
-12.695305	-1.993983	0.710682	0.003295	0.264622
-12.954310	-1.985355	0.715686	0.003359	0.264442
-13.526370	-1.905689	0.720691	0.003499	0.264303
-13.634843	-1.882640	0.725696	0.003525	0.264310
-13.628827	-1.886470	0.730701	0.003524	0.264298
-13.385160	-1.931708	0.735706	0.003464	0.264309
-13.307116	-1.980344	0.740710	0.003445	0.264168
-13.461449	-1.975840	0.745715	0.003483	0.264058
-13.573243	-1.951199	0.750720	0.003510	0.264069
-13.748727	-1.973699	0.755725	0.003553	0.263826
-14.076453	-1.931335	0.760730	0.003634	0.263732
-14.219161	-1.904467	0.765734	0.003668	0.263727
-14.003094	-1.947867	0.770739	0.003616	0.263722
-14.038248	-2.001855	0.775744	0.003624	0.263463
-14.225783	-1.979275	0.780749	0.003670	0.263402
-14.042986	-2.026092	0.785754	0.003626	0.263355
-14.444441	-2.010793	0.790758	0.003724	0.263084
-14.696799	-1.961795	0.795763	0.003786	0.263081
-14.942586	-1.911158	0.800768	0.003846	0.263090
-15.020259	-1.921247	0.805773	0.003865	0.262982
-15.253618	-1.919625	0.810778	0.003922	0.262793
-15.356976	-1.900514	0.815782	0.003947	0.262787
-15.335569	-1.905256	0.820787	0.003942	0.262785
-15.337064	-1.902694	0.825792	0.003942	0.262794
-15.232916	-1.945790	0.830797	0.003917	0.262697
-15.662913	-1.915897	0.835802	0.004022	0.262464
-15.637509	-1.922811	0.840806	0.004016	0.262455
-15.503999	-1.949166	0.845811	0.003984	0.262454
-15.842733	-1.902517	0.850816	0.004066	0.262369
-16.419580	-1.842592	0.855821	0.004207	0.262140
-16.107782	-1.901588	0.860826	0.004131	0.262149
-15.922595	-1.938177	0.865830	0.004086	0.262148
-15.900514	-1.945338	0.870835	0.004081	0.262136
-16.161029	-1.963203	0.875840	0.004145	0.261840
-16.269989	-1.944569	0.880845	0.004171	0.261828
-16.584262	-1.880130	0.885850	0.004248	0.261839
-16.952078	-1.809577	0.890854	0.004338	0.261831
-17.128835	-1.833071	0.895859	0.004381	0.261581
-17.165569	-1.835470	0.900864	0.004390	0.261539
-17.208316	-1.830460	0.905869	0.004401	0.261525
-17.302271	-1.809531	0.910874	0.004424	0.261535
-17.337055	-1.803526	0.915878	0.004432	0.261531
-16.778993	-1.913589	0.920883	0.004296	0.261529
-16.839911	-1.968089	0.925888	0.004311	0.261243
-17.075595	-1.934146	0.930893	0.004369	0.261190
-16.819390	-2.020911	0.935898	0.004306	0.261033
-17.103015	-1.999233	0.940902	0.004376	0.260886
-17.206996	-2.027656	0.945907	0.004401	0.260676
-17.601048	-1.974654	0.950912	0.004498	0.260570
-17.210816	-2.072395	0.955917	0.004402	0.260479
-17.353895	-2.093021	0.960922	0.004437	0.260269
-17.607397	-2.070616	0.965926	0.004499	0.260150
-18.218669	-2.000367	0.970931	0.004649	0.259934
-18.300597	-1.981824	0.975936	0.004669	0.259945
-18.401961	-1.964751	0.980941	0.004694	0.259932
-18.776650	-1.946408	0.985946	0.004785	0.259693
-19.185268	-1.880805	0.990950	0.004885	0.259629
-19.255062	-1.867791	0.995955	0.004902	0.259626
-19.743643	-1.731692	1.000960	0.005022	0.259799

-19.685047	-1.710605	1.010957	0.005007	0.259939
-19.442744	-1.740146	1.020954	0.004948	0.260017
-18.872630	-1.853813	1.030950	0.004809	0.260009
-18.477121	-1.948432	1.040947	0.004713	0.259936
-18.177007	-2.038298	1.050944	0.004640	0.259802
-18.519404	-2.010134	1.060941	0.004724	0.259632
-18.240659	-2.083254	1.070938	0.004656	0.259552
-18.855365	-2.016013	1.080934	0.004806	0.259320
-18.998304	-1.986942	1.090931	0.004841	0.259324
-19.585002	-1.799201	1.100928	0.004984	0.259637
-19.437407	-1.784896	1.110925	0.004948	0.259823
-19.649621	-1.691696	1.120922	0.005000	0.260045
-19.217087	-1.724181	1.130918	0.004895	0.260271
-19.163043	-1.679832	1.140915	0.004882	0.260508
-18.108422	-1.873318	1.150912	0.004624	0.260567
-18.070895	-1.928397	1.160909	0.004615	0.260361
-17.991744	-1.964521	1.170906	0.004596	0.260272
-17.906570	-1.982128	1.180902	0.004576	0.260267
-17.998060	-2.021440	1.190899	0.004598	0.260020
-18.191595	-2.001650	1.200896	0.004645	0.259940
-18.474083	-1.928745	1.210893	0.004715	0.260015
-18.311783	-1.900895	1.220890	0.004675	0.260272
-18.661588	-1.832426	1.230886	0.004761	0.260270
-18.650597	-1.791462	1.240883	0.004758	0.260456
-18.666170	-1.763349	1.250880	0.004762	0.260563
-18.295022	-1.777893	1.260877	0.004671	0.260814
-17.894439	-1.840348	1.270874	0.004574	0.260884
-17.495632	-1.923642	1.280870	0.004477	0.260862
-17.728737	-1.923546	1.290867	0.004534	0.260665
-18.075421	-1.824600	1.300864	0.004618	0.260797
-17.923313	-1.833552	1.310861	0.004581	0.260887
-17.499596	-1.917339	1.320858	0.004478	0.260884
-17.454094	-1.926188	1.330854	0.004467	0.260884
-17.214090	-1.984266	1.340851	0.004409	0.260837
-17.466883	-1.998117	1.350848	0.004471	0.260562
-17.588448	-1.959242	1.360845	0.004500	0.260627
-17.955944	-1.826292	1.370842	0.004590	0.260887
-18.224226	-1.743257	1.380838	0.004656	0.261017
-18.226985	-1.678052	1.390835	0.004657	0.261295
-17.685510	-1.729297	1.400832	0.004525	0.261531
-17.581977	-1.748674	1.410829	0.004499	0.261535
-17.257396	-1.787918	1.420826	0.004420	0.261640
-16.796440	-1.878897	1.430822	0.004308	0.261638
-16.631995	-1.936801	1.440819	0.004268	0.261527
-15.991613	-2.084786	1.450816	0.004112	0.261432
-16.027914	-2.139115	1.460813	0.004121	0.261167
-16.279593	-2.155266	1.470810	0.004182	0.260885
-17.192385	-1.977097	1.480806	0.004405	0.260879
-18.032920	-1.764261	1.490803	0.004611	0.261083
-18.282853	-1.622491	1.500800	0.004672	0.261481
-17.888292	-1.608360	1.510797	0.004576	0.261874
-17.340782	-1.651349	1.520794	0.004442	0.262150
-16.767847	-1.764057	1.530790	0.004302	0.262149
-16.482076	-1.803189	1.540787	0.004233	0.262222
-16.151492	-1.885935	1.550784	0.004152	0.262145
-15.528223	-2.014781	1.560781	0.004000	0.262117
-15.558854	-2.075153	1.570778	0.004008	0.261832
-15.202588	-2.198792	1.580774	0.003921	0.261602
-16.043990	-2.097172	1.590771	0.004126	0.261328
-17.191241	-1.824109	1.600768	0.004407	0.261531
-17.802655	-1.633774	1.610765	0.004556	0.261832
-17.274563	-1.643404	1.620762	0.004427	0.262235
-16.853491	-1.674039	1.630758	0.004325	0.262457
-16.396600	-1.694598	1.640755	0.004213	0.262753
-15.619596	-1.848427	1.650752	0.004023	0.262748
-15.839638	-1.870161	1.660749	0.004077	0.262469
-15.303126	-1.976852	1.670746	0.003947	0.262464
-15.621445	-1.915438	1.680742	0.004024	0.262458
-15.258540	-2.007821	1.690739	0.003936	0.262368
-15.719202	-1.968499	1.700736	0.004049	0.262148
-15.834823	-1.944914	1.710733	0.004077	0.262151
-15.993833	-1.868663	1.720730	0.004116	0.262343
-15.567222	-1.925872	1.730726	0.004012	0.262457
-15.835098	-1.873225	1.740723	0.004077	0.262456
-16.805545	-1.644535	1.750720	0.004315	0.262618
-16.972702	-1.521226	1.760717	0.004355	0.263004
-16.026208	-1.614327	1.770714	0.004124	0.263400
-15.391937	-1.736955	1.780710	0.003970	0.263408
-14.162306	-1.990998	1.790707	0.003670	0.263355
-13.484184	-2.219502	1.800704	0.003504	0.262948
-13.963101	-2.225923	1.810701	0.003621	0.262518
-14.988576	-2.089051	1.820698	0.003872	0.262241
-16.079458	-1.823343	1.830694	0.004138	0.262460
-17.095026	-1.533173	1.840691	0.004386	0.262846
-16.579890	-1.517862	1.850688	0.004261	0.263343
-15.337258	-1.672543	1.860685	0.003957	0.263724
-14.004116	-1.951556	1.870682	0.003632	0.263651
-13.685252	-2.086738	1.880678	0.003554	0.263342
-14.119135	-2.061853	1.890675	0.003660	0.263084
-14.830083	-1.921588	1.900672	0.003834	0.263085
-15.577557	-1.773723	1.910669	0.004017	0.263089
-15.774549	-1.659771	1.920666	0.004065	0.263409
-15.307920	-1.677688	1.930662	0.003951	0.263723
-14.368084	-1.861164	1.940659	0.003722	0.263728
-13.339624	-2.097489	1.950656	0.003471	0.263582
-13.869396	-2.033057	1.960653	0.003600	0.263412
-14.424770	-1.958129	1.970650	0.003736	0.263266
-14.780812	-1.854557	1.980646	0.003823	0.263409
-15.368535	-1.708777	1.990643	0.003967	0.263537
-15.110543	-1.679487	2.000640	0.003904	0.263877
-14.389567	-1.775861	2.010637	0.003728	0.264069
-14.230504	-1.807175	2.020634	0.003689	0.264069
-14.099479	-1.833098	2.030630	0.003658	0.264068
-13.327203	-1.985864	2.040627	0.003469	0.264063
-13.599932	-2.012810	2.050624	0.003536	0.263720
-13.679543	-1.995528	2.060621	0.003556	0.263726
-13.830361	-1.965844	2.070618	0.003592	0.263726
-14.427890	-1.849377	2.080614	0.003739	0.263721
-14.821843	-1.700421	2.090611	0.003835	0.264025
-14.531470	-1.702556	2.100608	0.003764	0.264258
-14.031560	-1.789739	2.110605	0.003642	0.264305
-13.667485	-1.860865	2.120602	0.003553	0.264306
-13.364805	-1.920749	2.130598	0.003480	0.264304
-13.319089	-1.930012	2.140595	0.003469	0.264302
-13.199491	-1.953547	2.150592	0.003439	0.264301
-13.245348	-1.943930	2.160589	0.003451	0.264303
-13.408565	-1.911093	2.170586	0.003491	0.264306
-13.883452	-1.818890	2.180582	0.003607	0.264301
-13.977075	-1.758287	2.190579	0.003630	0.264480
-13.426903	-1.834564	2.200576	0.003496	0.264614
-12.867274	-1.943710	2.210573	0.003359	0.264617
-12.796402	-1.966004	2.220570	0.003342	0.264581
-13.137389	-1.929013	2.230566	0.003425	0.264453
-13.403590	-1.839945	2.240563	0.003491	0.264609
-13.566025	-1.806740	2.250560	0.003530	0.264614
-13.630689	-1.735118	2.260557	0.003546	0.264863
-13.158282	-1.813624	2.270554	0.003431	0.264923
-12.874992	-1.870134	2.280550	0.003362	0.264919
-12.689598	-1.906138	2.290547	0.003317	0.264921
-12.424935	-1.957292	2.300544	0.003252	0.264924
-12.242910	-1.993081	2.310541	0.003208	0.264923
-12.531635	-1.944568	2.320538	0.003279	0.264888
-12.944601	-1.856184	2.330534	0.003380	0.264918
-13.217561	-1.802267	2.340531	0.003447	0.264919
-13.074027	-1.759364	2.350528	0.003412	0.265219
-12.973364	-1.771769	2.360525	0.003387	0.265250
-12.690192	-1.766435	2.370522	0.003318	0.265508
-11.882617	-1.935432	2.380518	0.003121	0.265464
-12.366305	-1.891499	2.390515	0.003239	0.265247
-12.064279	-1.950695	2.400512	0.003166	0.265247
-12.212828	-1.920794	2.410509	0.003202	0.265249
-12.225273	-1.918158	2.420506	0.003205	0.265250
-12.543359	-1.798582	2.430502	0.003283	0.265491
-12.137255	-1.867127	2.440499	0.003184	0.265538
-12.142403	-1.865388	2.450496	0.003186	0.265540
-12.276143	-1.837778	2.460493	0.003218	0.265546
-12.011939	-1.838583	2.470490	0.003154	0.265761
-11.772907	-1.874487	2.480486	0.003096	0.265807
-12.172456	-1.782874	2.490483	0.003193	0.265862
-12.639570	-1.679805	2.500480	0.003308	0.265909
-12.188791	-1.704165	2.510477	0.003198	0.266180
-11.425222	-1.853782	2.520474	0.003011	0.266181
-10.817648	-1.985375	2.530470	0.002863	0.266129
-10.436004	-2.129261	2.540467	0.002770	0.265838
-10.817852	-2.123777	2.550464	0.002864	0.265544
-11.468019	-1.995215	2.560461	0.003022	0.265546
-12.295748	-1.821983	2.570458	0.003225	0.265591
-12.546170	-1.695925	2.580454	0.003286	0.265915
-12.717508	-1.571678	2.590451	0.003328	0.266296
-12.153057	-1.596232	2.600448	0.003190	0.266660
-11.446681	-1.697399	2.610445	0.003018	0.266818
-10.930868	-1.798315	2.620442	0.002892	0.266819
-10.082646	-1.998013	2.630438	0.002685	0.266680
-9.863395	-2.112026	2.640435	0.002632	0.266380
-9.910973	-2.183008	2.650432	0.002643	0.266041
-10.530416	-2.102389	2.660429	0.002795	0.265867
-11.123760	-1.985628	2.670426	0.002940	0.265867
-11.868296	-1.811605	2.680422	0.003122	0.265984
-12.087852	-1.684638	2.690419	0.003176	0.266337
-12.148872	-1.585022	2.700416	0.003191	0.266705
-11.311064	-1.664218	2.710413	0.002986	0.267064
-10.625178	-1.782642	2.720410	0.002819	0.267133
-10.195143	-1.867649	2.730406	0.002714	0.267130
-10.065718	-1.949336	2.740403	0.002682	0.266893
-9.772087	-2.026173	2.750400	0.002611	0.266812
-10.465763	-1.922044	2.760397	0.002780	0.266676
-10.606144	-1.861248	2.770394	0.002815	0.266815
-10.761244	-1.830815	2.780390	0.002853	0.266815
-10.361223	-1.909804	2.790387	0.002755	0.266813
-10.520609	-1.856026	2.800384	0.002794	0.266907
-10.026391	-1.944266	2.810381	0.002674	0.266943
-10.077580	-1.964515	2.820378	0.002686	0.266815
-10.579885	-1.817037	2.830374	0.002809	0.267020
-11.138021	-1.661942	2.840371	0.002946	0.267210
-10.888054	-1.640083	2.850368	0.002885	0.267508
-10.001431	-1.750953	2.860365	0.002668	0.267773
-9.674841	-1.814444	2.870362	0.002589	0.267776
-9.134847	-1.990296	2.880358	0.002457	0.267483
-9.010557	-2.036825	2.890355	0.002427	0.267389
-9.164185	-2.068061	2.900352	0.002465	0.267131
-9.521087	-1.997429	2.910349	0.002552	0.267132
-10.093871	-1.884183	2.920346	0.002692	0.267135
-10.547915	-1.754576	2.930342	0.002803	0.267304
-10.479575	-1.708871	2.940339	0.002786	0.267552
-9.960818	-1.758363	2.950336	0.002660	0.267771
-9.913435	-1.747281	2.960333	0.002648	0.267856
-9.379251	-1.800621	2.970330	0.002518	0.268072
-9.156186	-1.844425	2.980326	0.002464	0.268072
-8.882418	-1.950578	2.990323	0.002397	0.267852
-9.354634	-1.876520	3.000320	0.002512	0.267773
-9.251405	-1.895807	3.010317	0.002487	0.267776
-9.079659	-1.928623	3.020314	0.002446	0.267780
-9.023317	-1.939946	3.030310	0.002432	0.267778
-9.082624	-1.929261	3.040307	0.002447	0.267774
-9.164953	-1.876505	3.050304	0.002467	0.267927
-8.866744	-1.900465	3.060301	0.002394	0.268071
-9.127172	-1.848530	3.070298	0.002458	0.268074
-9.148881	-1.844800	3.080294	0.002463	0.268071
-9.250049	-1.825527	3.090291	0.002488	0.268068
-9.183142	-1.764367	3.100288	0.002472	0.268379
-8.998284	-1.796515	3.110285	0.002427	0.268396
-8.860746	-1.822617	3.120282	0.002393	0.268399
-8.641613	-1.844586	3.130278	0.002340	0.268487
-8.451621	-1.862962	3.140275	0.002294	0.268565
-8.288151	-1.935393	3.150272	0.002254	0.268396
-8.157935	-1.961177	3.160269	0.002222	0.268395
-8.338536	-1.924745	3.170266	0.002267	0.268399
-8.617027	-1.870101	3.180262	0.002335	0.268398
-8.556161	-1.850086	3.190259	0.002320	0.268531
-8.634799	-1.791166	3.200256	0.002339	0.268712
-8.744848	-1.769196	3.210253	0.002366	0.268713
-8.573856	-1.735673	3.220250	0.002325	0.268993
-8.325738	-1.769861	3.230246	0.002264	0.269053
-8.279996	-1.780104	3.240243	0.002253	0.269047
-7.831382	-1.867126	3.250240	0.002144	0.269052
-7.813041	-1.869789	3.260237	0.002139	0.269055
-7.615854	-1.908068	3.270234	0.002091	0.269056
-7.333762	-1.967104	3.280230	0.002023	0.269041
-7.536073	-2.005521	3.290227	0.002072	0.268714
-8.095502	-1.884945	3.300224	0.002209	0.268758
-8.098377	-1.813265	3.310221	0.002210	0.269054
-8.304544	-1.767893	3.320218	0.002260	0.269074
-8.383293	-1.702462	3.330214	0.002280	0.269282
-8.162512	-1.692569	3.340211	0.002226	0.269504
-7.600540	-1.782227	3.350208	0.002089	0.269590
-7.243183	-1.851568	3.360205	0.002002	0.269593
-6.957618	-1.907084	3.370202	0.001932	0.269595
-6.861912	-2.000651	3.380198	0.001909	0.269283
-7.032825	-1.968156	3.390195	0.001951	0.269278
-7.274421	-1.920553	3.400192	0.002010	0.269278
-7.572694	-1.861387	3.410189	0.002083	0.269280
-7.707927	-1.794648	3.420186	0.002116	0.269447
-7.777266	-1.746558	3.430182	0.002133	0.269590
-7.461148	-1.743998	3.440179	0.002056	0.269858
-6.990818	-1.827108	3.450176	0.001941	0.269897
-6.716215	-1.879924	3.460173	0.001874	0.269901
-6.839287	-1.855000	3.470170	0.001905	0.269903
-7.397200	-1.745781	3.480166	0.002041	0.269901
-7.439138	-1.701682	3.490163	0.002051	0.270050
-7.284530	-1.689988	3.500160	0.002014	0.270224
-6.811920	-1.781693	3.510157	0.001898	0.270228
-6.514598	-1.840067	3.520154	0.001826	0.270228
-6.177477	-1.906040	3.530150	0.001744	0.270229
-6.287724	-1.884769	3.540147	0.001771	0.270227
-6.728630	-1.798006	3.550144	0.001879	0.270227
-7.228468	-1.686920	3.560141	0.002001	0.270280
-7.414615	-1.578365	3.570138	0.002046	0.270578
-6.730234	-1.650497	3.580134	0.001879	0.270836
-6.367028	-1.721065	3.590131	0.001791	0.270839
-6.131295	-1.767393	3.600128	0.001733	0.270838
-5.847770	-1.823328	3.610125	0.001664	0.270837
-5.563960	-1.912199	3.620122	0.001595	0.270699
-5.777355	-1.912138	3.630118	0.001648	0.270525
-6.427233	-1.785012	3.640115	0.001806	0.270522
-7.136941	-1.580619	3.650112	0.001980	0.270791
-6.754189	-1.575850	3.660109	0.001886	0.271122
-6.629680	-1.557059	3.670106	0.001856	0.271300
-6.156443	-1.604398	3.680102	0.001741	0.271489
-5.805930	-1.674029	3.690099	0.001655	0.271485
-5.554505	-1.722962	3.700096	0.001594	0.271486
-5.482978	-1.736596	3.710093	0.001577	0.271488
-5.361118	-1.759931	3.720090	0.001547	0.271490
-5.971619	-1.639778	3.730086	0.001696	0.271490
-5.967414	-1.640682	3.740083	0.001695	0.271489
-5.985018	-1.577020	3.750080	0.001700	0.271738
-5.703724	-1.618807	3.760077	0.001631	0.271793
-5.731250	-1.612222	3.770074	0.001638	0.271797
-5.216273	-1.713641	3.780070	0.001512	0.271796
-5.090182	-1.738956	3.790067	0.001482	0.271793
-5.229160	-1.711680	3.800064	0.001516	0.271792
-5.386266	-1.679886	3.810061	0.001554	0.271796
-5.530174	-1.586439	3.820058	0.001590	0.272064
-5.134034	-1.652924	3.830054	0.001493	0.272111
-5.216694	-1.636694	3.840051	0.001513	0.272110
-5.182985	-1.643234	3.850048	0.001505	0.272110
-4.973514	-1.683965	3.860045	0.001454	0.272111
-4.839175	-1.709764	3.870042	0.001422	0.272113
-4.878592	-1.702206	3.880038	0.001431	0.272112
-5.066355	-1.632431	3.890035	0.001477	0.272247
-5.150599	-1.574179	3.900032	0.001498	0.272418
-5.496712	-1.478405	3.910029	0.001583	0.272532
-5.033950	-1.515242	3.920026	0.001470	0.272754
-4.966380	-1.529321	3.930022	0.001453	0.272751
-4.776079	-1.507171	3.940019	0.001407	0.272995
-4.510080	-1.546778	3.950016	0.001342	0.273047
-4.342198	-1.579083	3.960013	0.001301	0.273049
-4.247767	-1.596726	3.970010	0.001278	0.273052
-4.419819	-1.564208	3.980006	0.001321	0.273046
-4.660759	-1.516845	3.990003	0.001380	0.273046
-4.662554	-1.516993	4.000000	0.001380	0.273044
-4.637144	-1.462797	4.009997	0.001374	0.273286
-4.303638	-1.507334	4.019994	0.001293	0.273372
-4.100487	-1.547848	4.029990	0.001243	0.273369
-4.114450	-1.545345	4.039987	0.001247	0.273368
-4.128820	-1.543205	4.049984	0.001251	0.273364
-4.081289	-1.551488	4.059981	0.001239	0.273368
-4.254228	-1.459562	4.069978	0.001281	0.273605
-4.329945	-1.423701	4.079974	0.001300	0.273691
-4.327147	-1.384593	4.089971	0.001299	0.273853
-4.024740	-1.403045	4.099968	0.001226	0.274020
-3.841749	-1.438573	4.109965	0.001181	0.274022
-3.740466	-1.457778	4.119962	0.001157	0.274024
-3.671238	-1.471667	4.129958	0.001140	0.274022
-3.677642	-1.468417	4.139955	0.001142	0.274030
-3.740994	-1.404259	4.149952	0.001157	0.274241
-3.866001	-1.379201	4.159949	0.001188	0.274243
-3.764965	-1.398686	4.169946	0.001163	0.274244
-3.697719	-1.336051	4.179942	0.001147	0.274554
-3.646188	-1.345938	4.189939	0.001135	0.274554
-3.427969	-1.388764	4.199936	0.001081	0.274554
-3.384207	-1.376743	4.209933	0.001071	0.274638
-3.282703	-1.339693	4.219930	0.001046	0.274870
-3.290728	-1.337885	4.229926	0.001048	0.274870
-3.589303	-1.280653	4.239923	0.001121	0.274864
-3.473595	-1.234518	4.249920	0.001093	0.275145
-3.249172	-1.267645	4.259917	0.001038	0.275189
-3.112983	-1.294048	4.269914	0.001005	0.275190
-3.124931	-1.249161	4.279910	0.001008	0.275363
-2.761739	-1.290672	4.289907	0.000920	0.275484
-2.800157	-1.282571	4.299904	0.000929	0.275486
-3.061318	-1.230641	4.309901	0.000993	0.275488
-3.332922	-1.154331	4.319898	0.001060	0.275581
-3.383804	-1.089306	4.329894	0.001072	0.275804
-3.408969	-1.013930	4.339891	0.001079	0.276090
-3.140399	-1.007282	4.349888	0.001013	0.276331
-2.786637	-1.046419	4.359885	0.000927	0.276454
-2.301796	-1.140834	4.369882	0.000809	0.276457
-2.192125	-1.162262	4.379878	0.000782	0.276457
-2.070768	-1.187327	4.389875	0.000752	0.276452
-2.269880	-1.147928	4.399872	0.000801	0.276452
-2.497469	-1.103098	4.409869	0.000857	0.276452
-2.774540	-1.018679	4.419866	0.000925	0.276574
-2.792211	-0.969915	4.429862	0.000929	0.276757
-2.821056	-0.901823	4.439859	0.000936	0.277009
-2.527944	-0.916137	4.449856	0.000865	0.277184
-1.911574	-0.988842	4.459853	0.000714	0.277379
-1.795298	-1.010721	4.469850	0.000686	0.277383
-1.618767	-1.066444	4.479846	0.000643	0.277297
-1.602011	-1.126100	4.489843	0.000639	0.277069
-1.698713	-1.107238	4.499840	0.000663	0.277068
-2.190709	-0.976871	4.509837	0.000783	0.277204
-2.385467	-0.895013	4.519834	0.000831	0.277380
-2.422367	-0.823608	4.529830	0.000840	0.277639
-2.314219	-0.787036	4.539827	0.000814	0.277872
-2.118038	-0.792917	4.549824	0.000766	0.278003
-1.759485	-0.795410	4.559821	0.000679	0.278277
-1.500371	-0.832833	4.569818	0.000615	0.278331
-1.620055	-0.809207	4.579814	0.000645	0.278331
-1.677998	-0.797975	4.589811	0.000659	0.278330
-1.618371	-0.731569	4.599808	0.000645	0.278644
-1.538544	-0.746182	4.609805	0.000625	0.278648
-1.543010	-0.726849	4.619802	0.000626	0.278722
-1.388306	-0.691250	4.629798	0.000589	0.278987
-1.355325	-0.697801	4.639795	0.000581	0.278986
-1.272348	-0.713740	4.649792	0.000561	0.278987
-1.129364	-0.694353	4.659789	0.000526	0.279177
-1.125294	-0.685708	4.669786	0.000525	0.279215
-1.101840	-0.690864	4.679782	0.000520	0.279212
-1.141960	-0.683722	4.689779	0.000529	0.279209
-1.143933	-0.614152	4.699776	0.000530	0.279486
-0.998839	-0.634000	4.709773	0.000495	0.279520
-1.015940	-0.629633	4.719770	0.000499	0.279524
-1.047255	-0.548078	4.729766	0.000507	0.279826
-1.104678	-0.535260	4.739763	0.000521	0.279832
-1.196696	-0.444118	4.749760	0.000544	0.280124
-1.289358	-0.390866	4.759757	0.000566	0.280264
-1.074174	-0.386384	4.769754	0.000514	0.280451
-0.994124	-0.327807	4.779750	0.000494	0.280748
-0.815077	-0.349875	4.789747	0.000451	0.280799
-0.644831	-0.312840	4.799744	0.000409	0.281080
-0.540850	-0.333166	4.809741	0.000384	0.281080
-0.599637	-0.285894	4.819738	0.000399	0.281223
-0.561035	-0.244418	4.829734	0.000389	0.281418
-0.640266	-0.203474	4.839731	0.000409	0.281518
-0.604946	-0.159561	4.849728	0.000400	0.281721
-0.451934	-0.150386	4.859725	0.000363	0.281876
-0.283937	-0.143220	4.869722	0.000322	0.282036
-0.182012	-0.162945	4.879718	0.000297	0.282037
-0.104157	-0.115281	4.889715	0.000278	0.282286
0.000226	-0.121230	4.899712	0.000253	0.282344
-0.074043	-0.106861	4.909709	0.000271	0.282342
-0.090386	-0.055893	4.919706	0.000275	0.282532
0.000000	-0.037810	4.929702	0.000253	0.282674

-0.040423	-0.028746	4.934707	0.000263	0.282678
-0.220150	0.041467	4.939712	0.000307	0.282816
-0.033745	0.044758	4.944717	0.000262	0.282974
-0.131091	0.103695	4.949722	0.000286	0.283132
-0.109068	0.139404	4.954726	0.000280	0.283290
-0.003697	0.191744	4.959731	0.000255	0.283579
0.067126	0.220729	4.964736	0.000237	0.283749
0.219728	0.246146	4.969741	0.000200	0.283967
0.268920	0.290940	4.974746	0.000188	0.284182
0.577715	0.288092	4.979750	0.000113	0.284410
0.671779	0.325352	4.984755	0.000090	0.284630
0.658039	0.383703	4.989760	0.000093	0.284849
0.893885	0.410364	4.994765	0.000036	0.285136
0.727356	0.512157	4.999770	0.000076	0.285408
0.911460	0.553345	5.004774	0.000031	0.285711
0.968213	0.621902	5.009779	0.000018	0.286024
0.834133	0.730511	5.014784	0.000050	0.286346
1.113868	0.773574	5.019789	-0.000018	0.286730
1.055002	0.878143	5.024794	-0.000004	0.287094
1.172041	0.947927	5.029798	-0.000032	0.287456
1.419705	0.999307	5.034803	-0.000093	0.287846
1.440879	1.084512	5.039808	-0.000098	0.288194
1.766089	1.135361	5.044813	-0.000177	0.288640
1.842328	1.213559	5.049818	-0.000196	0.289001
2.034364	1.251906	5.054822	-0.000243	0.289296
2.343526	1.289226	5.059827	-0.000318	0.289676
2.482006	1.354591	5.064832	-0.000352	0.290034
2.701219	1.415719	5.069837	-0.000406	0.290437
2.834143	1.485620	5.074842	-0.000438	0.290807
2.998483	1.546024	5.079846	-0.000478	0.291164
3.102125	1.625363	5.084851	-0.000503	0.291548
3.027795	1.740730	5.089856	-0.000485	0.291935
3.180658	1.829195	5.094861	-0.000523	0.292390
3.189796	1.931236	5.099866	-0.000525	0.292788
3.268033	2.037855	5.104870	-0.000544	0.293255
3.366462	2.142274	5.109875	-0.000568	0.293728
3.275030	2.270082	5.114880	-0.000546	0.294147
3.433612	2.362397	5.119885	-0.000584	0.294617
3.574914	2.479729	5.124890	-0.000619	0.295169
3.708749	2.577086	5.129894	-0.000652	0.295639
3.883274	2.684791	5.134899	-0.000694	0.296177
4.045458	2.792251	5.139904	-0.000734	0.296704
4.442667	2.841057	5.144909	-0.000831	0.297183
4.496881	2.970187	5.149914	-0.000844	0.297710
4.702932	3.058316	5.154918	-0.000895	0.298194
4.966794	3.142944	5.159923	-0.000959	0.298706
5.164909	3.217338	5.164928	-0.001007	0.299131
5.179859	3.335804	5.169933	-0.001011	0.299586
5.337565	3.453244	5.174938	-0.001050	0.300141
5.373469	3.573534	5.179942	-0.001058	0.300617
5.466680	3.701682	5.184947	-0.001081	0.301163
5.462900	3.854620	5.189952	-0.001080	0.301729
5.649754	3.970715	5.194957	-0.001126	0.302296
5.725074	4.106749	5.199962	-0.001144	0.302855
5.871079	4.233084	5.204966	-0.001180	0.303429
5.989552	4.362706	5.209971	-0.001209	0.303993
5.929823	4.525570	5.214976	-0.001194	0.304550
6.409831	4.598345	5.219981	-0.001312	0.305165
6.467799	4.746279	5.224986	-0.001326	0.305750
6.702792	4.862185	5.229990	-0.001383	0.306343
7.056441	4.952328	5.234995	-0.001470	0.306927
7.333453	5.047274	5.240000	-0.001537	0.307472
7.717892	5.116455	5.245005	-0.001631	0.307999
7.908656	5.230197	5.250010	-0.001678	0.308549
7.865249	5.361104	5.255014	-0.001667	0.308994
8.169565	5.443416	5.260019	-0.001742	0.309509
8.263494	5.575957	5.265024	-0.001765	0.310055
8.551118	5.663585	5.270029	-0.001835	0.310576
8.609583	5.797670	5.275034	-0.001849	0.311101
8.658528	5.945050	5.280038	-0.001861	0.311666
8.773278	6.080501	5.285043	-0.001889	0.312234
8.653720	6.260682	5.290048	-0.001860	0.312797
8.766582	6.415505	5.295053	-0.001888	0.313431
8.851060	6.557086	5.300058	-0.001908	0.313996
8.904719	6.714785	5.305062	-0.001922	0.314596
9.064528	6.867538	5.310067	-0.001961	0.315252
9.289812	7.000207	5.315072	-0.002016	0.315881
9.518854	7.140905	5.320077	-0.002072	0.316539
9.867502	7.246635	5.325082	-0.002157	0.317155
10.150404	7.357687	5.330086	-0.002226	0.317744
10.360283	7.489988	5.335091	-0.002277	0.318355
10.428540	7.631857	5.340096	-0.002294	0.318902
10.852660	7.705434	5.345101	-0.002398	0.319453
10.828961	7.878898	5.350106	-0.002392	0.320045
10.959905	8.022097	5.355110	-0.002424	0.320636
10.955471	8.203839	5.360115	-0.002423	0.321268
10.876053	8.395054	5.365120	-0.002404	0.321880
11.030834	8.559000	5.370125	-0.002441	0.322557
10.996693	8.767455	5.375130	-0.002433	0.323258
11.192094	8.915727	5.380134	-0.002481	0.323904
11.424977	9.062157	5.385139	-0.002538	0.324569
11.466229	9.246792	5.390144	-0.002548	0.325234
11.767475	9.392968	5.395149	-0.002622	0.325941
12.001117	9.547103	5.400154	-0.002679	0.326628
12.464216	9.645990	5.405158	-0.002792	0.327279
12.867750	9.751274	5.410163	-0.002890	0.327910
13.178801	9.866339	5.415168	-0.002966	0.328512
13.258775	10.003997	5.420173	-0.002986	0.329035
13.325023	10.165801	5.425178	-0.003002	0.329630
13.603546	10.285782	5.430182	-0.003070	0.330223
13.944716	10.397879	5.435187	-0.003154	0.330830
13.822924	10.593822	5.440192	-0.003124	0.331413
14.099617	10.722792	5.445197	-0.003192	0.332032
14.008346	10.923311	5.450202	-0.003169	0.332649
14.161837	11.084281	5.455206	-0.003207	0.333292
14.292538	11.242009	5.460211	-0.003239	0.333908
14.252014	11.433664	5.465216	-0.003229	0.334525
14.613318	11.563347	5.470221	-0.003317	0.335196
14.798055	11.725246	5.475226	-0.003363	0.335858
15.126805	11.852508	5.480230	-0.003443	0.336498
15.103785	12.053273	5.485235	-0.003437	0.337151
15.262384	12.217094	5.490240	-0.003476	0.337799
15.535066	12.369391	5.495245	-0.003543	0.338481
15.631549	12.525098	5.500250	-0.003566	0.339059
15.800898	12.688783	5.505254	-0.003608	0.339710
16.127499	12.823615	5.510259	-0.003688	0.340365
16.082518	13.030092	5.515264	-0.003677	0.341016
16.397201	13.168070	5.520269	-0.003754	0.341672
16.347333	13.380718	5.525274	-0.003742	0.342337
16.441278	13.566610	5.530278	-0.003765	0.343006
16.581236	13.753328	5.535283	-0.003799	0.343705
16.701260	13.934007	5.540288	-0.003828	0.344370
16.845467	14.120230	5.545293	-0.003863	0.345068
16.988220	14.310236	5.550298	-0.003898	0.345776
17.045895	14.518838	5.555302	-0.003913	0.346488
17.230295	14.715767	5.560307	-0.003958	0.347242
17.361587	14.907923	5.565312	-0.003990	0.347945
17.735307	15.056677	5.570317	-0.004081	0.348659
17.948180	15.227998	5.575322	-0.004133	0.349344
18.349814	15.357454	5.580326	-0.004231	0.350011
18.681881	15.501840	5.585331	-0.004313	0.350681
18.908594	15.658266	5.590336	-0.004368	0.351323
19.293701	15.780208	5.595341	-0.004462	0.351952
19.352543	15.964844	5.600346	-0.004477	0.352576
19.433132	16.148881	5.605350	-0.004496	0.353211
19.764981	16.268306	5.610355	-0.004577	0.353796
19.505224	16.508750	5.615360	-0.004514	0.354397
19.378944	16.749713	5.620365	-0.004483	0.355080
19.288981	17.010455	5.625370	-0.004461	0.355847
19.369886	17.234052	5.630374	-0.004481	0.356601
19.619917	17.429632	5.635379	-0.004542	0.357369
19.678393	17.664796	5.640384	-0.004557	0.358142
19.999875	17.824947	5.645389	-0.004635	0.358840
20.327126	18.000928	5.650394	-0.004715	0.359589
20.471381	18.199597	5.655398	-0.004751	0.360296
21.139710	18.304075	5.660403	-0.004914	0.361027
21.568490	18.427700	5.665408	-0.005019	0.361671
21.971378	18.556125	5.670413	-0.005117	0.362313
22.274375	18.689268	5.675418	-0.005191	0.362908
22.148565	18.902413	5.680422	-0.005161	0.363490
22.348812	19.053243	5.685427	-0.005210	0.364076
22.148781	19.296556	5.690432	-0.005161	0.364704
22.387046	19.469033	5.695437	-0.005219	0.365377
22.139538	19.749787	5.700442	-0.005159	0.366089
22.130647	19.990612	5.705446	-0.005157	0.366821
22.083194	20.247556	5.710451	-0.005145	0.367577
22.044236	20.517932	5.715456	-0.005136	0.368378
22.542391	20.650101	5.720461	-0.005257	0.369076
22.733803	20.875650	5.725466	-0.005304	0.369874
23.078906	21.044614	5.730470	-0.005389	0.370590
23.455154	21.221825	5.735475	-0.005481	0.371349
23.709591	21.407266	5.740480	-0.005543	0.372058
24.298047	21.515111	5.745485	-0.005687	0.372729
24.712588	21.646592	5.750490	-0.005788	0.373368
24.763982	21.816705	5.755494	-0.005801	0.373909
24.987652	21.987040	5.760499	-0.005855	0.374550
25.080221	22.171640	5.765504	-0.005878	0.375157
25.234979	22.361299	5.770509	-0.005916	0.375813
25.171974	22.591832	5.775514	-0.005901	0.376464
25.127159	22.825418	5.780518	-0.005890	0.377133
25.248119	23.041519	5.785523	-0.005919	0.377845
25.314077	23.266328	5.790528	-0.005936	0.378549
25.503120	23.457161	5.795533	-0.005982	0.379223
25.357133	23.728615	5.800538	-0.005946	0.379941
25.494669	23.974051	5.805542	-0.005980	0.380744
25.843377	24.160724	5.810547	-0.006065	0.381493
26.099375	24.360619	5.815552	-0.006128	0.382227
26.427552	24.551095	5.820557	-0.006208	0.382973
26.462837	24.773788	5.825562	-0.006217	0.383645
26.729335	24.957853	5.830566	-0.006282	0.384334
27.117782	25.134755	5.835571	-0.006377	0.385071
27.428443	25.305969	5.840576	-0.006453	0.385746
27.814322	25.457158	5.845581	-0.006547	0.386404
27.909952	25.663517	5.850586	-0.006571	0.387056
28.043880	25.861339	5.855590	-0.006603	0.387705
28.148570	26.071011	5.860595	-0.006629	0.388370
28.111352	26.284357	5.865600	-0.006620	0.388964
28.027340	26.560130	5.870605	-0.006600	0.389711
27.986719	26.824358	5.875610	-0.006590	0.390447
28.018756	27.086059	5.880614	-0.006598	0.391216
28.080008	27.353518	5.885619	-0.006613	0.392016
28.066503	27.637964	5.890624	-0.006610	0.392821
28.313183	27.857343	5.895629	-0.006670	0.393584
28.635354	28.078564	5.900634	-0.006749	0.394392
28.843479	28.300958	5.905638	-0.006800	0.395140
29.321095	28.501768	5.910643	-0.006917	0.395973
29.691429	28.679236	5.915648	-0.007007	0.396680
30.204041	28.827597	5.920653	-0.007132	0.397382
30.535656	29.005578	5.925658	-0.007213	0.398066
30.719373	29.174315	5.930662	-0.007258	0.398642
31.051154	29.342407	5.935667	-0.007339	0.399296
31.125309	29.547787	5.940672	-0.007358	0.399913
31.302920	29.750179	5.945677	-0.007401	0.400577
31.331464	29.980594	5.950682	-0.007408	0.401237
31.178770	30.250734	5.955686	-0.007371	0.401907
31.450429	30.453917	5.960691	-0.007437	0.402622
31.415711	30.709082	5.965696	-0.007429	0.403312
31.634832	30.916889	5.970701	-0.007483	0.404008
31.777586	31.146190	5.975706	-0.007518	0.404721
32.049870	31.350463	5.980710	-0.007584	0.405434
32.384801	31.547791	5.985715	-0.007666	0.406160
32.460824	31.786531	5.990720	-0.007685	0.406859
32.816085	31.964434	5.995725	-0.007772	0.407540
33.034184	32.164229	6.000730	-0.007825	0.408206
33.234245	32.341461	6.005734	-0.007874	0.408799
33.515940	32.531401	6.010739	-0.007943	0.409470
33.483570	32.778748	6.015744	-0.007935	0.410129
33.789426	32.973810	6.020749	-0.008010	0.410825
33.669720	33.247029	6.025754	-0.007981	0.411506
33.597614	33.517838	6.030758	-0.007963	0.412205
33.689416	33.782621	6.035763	-0.007986	0.412973
33.629002	34.050217	6.040768	-0.007971	0.413667
33.829031	34.294918	6.045773	-0.008020	0.414435
33.803142	34.602030	6.050778	-0.008014	0.415251
33.920041	34.872825	6.055782	-0.008043	0.416043
34.250049	35.115134	6.060787	-0.008123	0.416869
34.419975	35.376712	6.065792	-0.008165	0.417660
34.604391	35.619056	6.070797	-0.008210	0.418407
34.868830	35.858202	6.075802	-0.008275	0.419185
35.041866	36.104022	6.080806	-0.008317	0.419932
35.470367	36.320915	6.085811	-0.008422	0.420733
35.550914	36.584856	6.090816	-0.008442	0.421478
35.780122	36.818812	6.095821	-0.008498	0.422218
36.038209	37.065942	6.100826	-0.008561	0.423007
36.228503	37.276857	6.105830	-0.008608	0.423664
36.704670	37.458187	6.110835	-0.008724	0.424389
36.598983	37.752882	6.115840	-0.008698	0.425112
36.859160	37.979167	6.120845	-0.008762	0.425842
37.060906	38.214598	6.125850	-0.008811	0.426564
37.341470	38.428458	6.130854	-0.008880	0.427269
37.602207	38.658628	6.135859	-0.008944	0.428006
37.753187	38.863673	6.140864	-0.008981	0.428620
38.109156	39.052516	6.145869	-0.009068	0.429294
38.335660	39.267847	6.150874	-0.009123	0.429971
38.380214	39.517955	6.155878	-0.009134	0.430645
38.804931	39.700914	6.160883	-0.009238	0.431337
38.852755	39.943689	6.165888	-0.009250	0.431991
39.149251	40.142568	6.170893	-0.009322	0.432657
39.278889	40.353478	6.175898	-0.009354	0.433268
39.406507	40.566312	6.180902	-0.009385	0.433882
39.404233	40.829819	6.185907	-0.009385	0.434561
39.463232	41.082654	6.190912	-0.009399	0.435242
39.732326	41.312041	6.195917	-0.009465	0.435968
39.889449	41.554795	6.200922	-0.009504	0.436670
39.956838	41.805879	6.205926	-0.009520	0.437347
39.963661	42.081368	6.210931	-0.009522	0.438056
40.011591	42.341209	6.215936	-0.009534	0.438744
40.259393	42.583164	6.220941	-0.009595	0.439485
40.516974	42.820686	6.225946	-0.009658	0.440218
40.611958	43.091278	6.230950	-0.009681	0.440954
40.808888	43.350002	6.235955	-0.009729	0.441708
40.927074	43.606194	6.240960	-0.009758	0.442416
41.205328	43.848129	6.245965	-0.009826	0.443166
41.370779	44.085835	6.250970	-0.009867	0.443848
41.431988	44.352617	6.255974	-0.009882	0.444551
41.680711	44.619623	6.260979	-0.009943	0.445345
41.764770	44.888191	6.265984	-0.009963	0.446062
42.005742	45.139568	6.270989	-0.010022	0.446811
41.986719	45.453519	6.275994	-0.010018	0.447588
42.059834	45.706694	6.280998	-0.010036	0.448257
42.282666	45.983546	6.286003	-0.010090	0.449057
42.481411	46.236723	6.291008	-0.010139	0.449785
42.591997	46.540306	6.296013	-0.010166	0.450594
42.850899	46.799253	6.301018	-0.010230	0.451363
43.042823	47.068804	6.306022	-0.010277	0.452125
43.382160	47.311185	6.311027	-0.010360	0.452889
43.609158	47.529321	6.316032	-0.010415	0.453537
43.903133	47.780404	6.321037	-0.010487	0.454299
44.153040	48.020439	6.326042	-0.010548	0.455010
44.525399	48.226164	6.331046	-0.010639	0.455695
44.789557	48.455516	6.336051	-0.010704	0.456385
44.818858	48.720180	6.341056	-0.010711	0.457048
45.135914	48.951115	6.346061	-0.010789	0.457765
45.266411	49.172042	6.351066	-0.010821	0.458368
45.417822	49.411102	6.356070	-0.010858	0.459024
45.691634	49.635806	6.361075	-0.010925	0.459702
45.643748	49.925695	6.366080	-0.010913	0.460385
45.786596	50.182942	6.371085	-0.010948	0.461079
46.012002	50.439388	6.376090	-0.011003	0.461808
46.169000	50.688178	6.381094	-0.011042	0.462485
46.470648	50.902963	6.386099	-0.011116	0.463147
46.565163	51.156253	6.391104	-0.011139	0.463804
46.995406	51.350044	6.396109	-0.011244	0.464474
47.242074	51.582389	6.401114	-0.011304	0.465150
47.343581	51.834219	6.406118	-0.011329	0.465804
47.753588	52.024064	6.411123	-0.011430	0.466452
47.909176	52.247835	6.416128	-0.011468	0.467062
47.980044	52.506621	6.421133	-0.011485	0.467715
48.137472	52.709493	6.426138	-0.011524	0.468274
48.154599	52.972572	6.431142	-0.011528	0.468911
48.371109	53.214056	6.436147	-0.011581	0.469589
48.375541	53.492358	6.441152	-0.011582	0.470254
48.333222	53.787712	6.446157	-0.011572	0.470938
48.510734	54.060665	6.451162	-0.011615	0.471669
48.495843	54.371137	6.456166	-0.011612	0.472399
48.707349	54.619075	6.461171	-0.011664	0.473084
48.821345	54.893995	6.466176	-0.011692	0.473787
48.872388	55.203302	6.471181	-0.011704	0.474541
49.298707	55.436986	6.476186	-0.011809	0.475288
49.469048	55.711951	6.481190	-0.011850	0.476014
49.641475	55.994721	6.486195	-0.011893	0.476758
49.988157	56.227599	6.491200	-0.011977	0.477463
50.116912	56.473724	6.496205	-0.012009	0.478099
50.304701	56.744894	6.501210	-0.012055	0.478820
50.340557	57.034757	6.506214	-0.012064	0.479514
50.705113	57.277852	6.511219	-0.012153	0.480247
50.864005	57.538782	6.516224	-0.012192	0.480927
50.927850	57.841623	6.521229	-0.012208	0.481661
51.048436	58.130720	6.526234	-0.012237	0.482388
51.285027	58.365131	6.531238	-0.012295	0.483038
51.482758	58.637701	6.536243	-0.012344	0.483759
51.632001	58.916825	6.541248	-0.012380	0.484472
52.051158	59.139758	6.546253	-0.012483	0.485176
52.120515	59.424812	6.551258	-0.012500	0.485865
52.252073	59.700827	6.556262	-0.012532	0.486560
52.657073	59.935559	6.561267	-0.012631	0.487281
52.846784	60.169055	6.566272	-0.012677	0.487902
53.125430	60.385168	6.571277	-0.012746	0.488522
53.404419	60.614749	6.576282	-0.012814	0.489173
53.596568	60.855790	6.581286	-0.012861	0.489810
53.855992	61.090441	6.586291	-0.012924	0.490461
53.992879	61.338496	6.591296	-0.012958	0.491088
54.244645	61.564682	6.596301	-0.013020	0.491715
54.461259	61.803113	6.601306	-0.013073	0.492354
54.502049	62.044794	6.606310	-0.013083	0.492922
54.812144	62.259789	6.611315	-0.013158	0.493547
54.875306	62.513547	6.616320	-0.013174	0.494150
55.042214	62.763069	6.621325	-0.013215	0.494789
55.300436	62.998082	6.626330	-0.013278	0.495434
55.369292	63.257042	6.631334	-0.013295	0.496050
55.644454	63.490362	6.636339	-0.013362	0.496697
55.647950	63.771273	6.641344	-0.013363	0.497331
55.939039	63.978954	6.646349	-0.013435	0.497926
55.857240	64.276385	6.651354	-0.013415	0.498559
56.085257	64.517612	6.656358	-0.013471	0.499200
56.215102	64.795479	6.661363	-0.013502	0.499880
56.109760	65.121966	6.666368	-0.013477	0.500565
56.347575	65.391986	6.671373	-0.013535	0.501272
56.528268	65.667902	6.676378	-0.013579	0.501967
56.511943	65.974633	6.681382	-0.013575	0.502644
56.564731	66.282044	6.686387	-0.013588	0.503351
56.581392	66.613808	6.691392	-0.013593	0.504096
56.866015	66.889433	6.696397	-0.013662	0.504831
56.932282	67.230587	6.701402	-0.013679	0.505616
57.194151	67.509024	6.706406	-0.013743	0.506345
57.257082	67.845514	6.711411	-0.013758	0.507116
57.306568	68.167898	6.716416	-0.013771	0.507849
57.613811	68.436707	6.721421	-0.013846	0.508573
57.891179	68.733982	6.726426	-0.013914	0.509345
57.989698	69.048315	6.731430	-0.013938	0.510078
58.129085	69.378436	6.736435	-0.013972	0.510862
58.374895	69.674874	6.741440	-0.014032	0.511616
58.773234	69.932248	6.746445	-0.014130	0.512348
58.980633	70.200246	6.751450	-0.014181	0.513022
59.074224	70.501437	6.756454	-0.014204	0.513719
59.461867	70.754967	6.761459	-0.014298	0.514435
59.569056	71.063969	6.766464	-0.014325	0.515152
59.828795	71.342237	6.771469	-0.014388	0.515867
60.223530	71.582215	6.776474	-0.014485	0.516553
60.282942	71.879276	6.781478	-0.014500	0.517222
60.499738	72.128997	6.786483	-0.014553	0.517854
60.496280	72.431104	6.791488	-0.014552	0.518505
60.687732	72.724847	6.796493	-0.014599	0.519219
60.710907	73.057738	6.801498	-0.014605	0.519947
60.864650	73.349781	6.806502	-0.014642	0.520640
61.086830	73.653410	6.811507	-0.014697	0.521385
61.108882	73.990112	6.816512	-0.014702	0.522117
61.113725	74.307390	6.821517	-0.014704	0.522799
61.172064	74.657751	6.826522	-0.014718	0.523573
61.241754	74.995670	6.831526	-0.014735	0.524325
61.430706	75.349441	6.836531	-0.014782	0.525158
61.360573	75.725650	6.841536	-0.014765	0.525931
61.380774	76.122310	6.846541	-0.014770	0.526783
61.528642	76.479486	6.851546	-0.014806	0.527603
61.480925	76.862680	6.856550	-0.014795	0.528396
61.579627	77.260071	6.861555	-0.014819	0.529279
61.575685	77.692736	6.866560	-0.014818	0.530192
61.742469	78.091744	6.871565	-0.014859	0.531102
61.885792	78.505365	6.876570	-0.014894	0.532032
61.989184	78.886322	6.881574	-0.014920	0.532876
62.150289	79.293625	6.886579	-0.014959	0.533797
62.107905	79.753450	6.891584	-0.014949	0.534744
62.247842	80.184534	6.896589	-0.014984	0.535702
62.442854	80.612448	6.901594	-0.015032	0.536675
62.493469	81.044406	6.906598	-0.015044	0.537596
62.705730	81.465584	6.911603	-0.015096	0.538559
62.701519	81.940915	6.916608	-0.015096	0.539545
62.841254	82.395429	6.921613	-0.015130	0.540544
62.991278	82.856128	6.926618	-0.015167	0.541557
63.082784	83.309991	6.931622	-0.015190	0.542532
63.226081	83.761604	6.936627	-0.015225	0.543521
63.155018	84.289862	6.941632	-0.015208	0.544580
63.397086	84.747602	6.946637	-0.015267	0.545617
63.490049	85.242888	6.951642	-0.015290	0.546669
63.571370	85.725010	6.956646	-0.015310	0.547688
63.814593	86.181998	6.961651	-0.015370	0.548718
63.945764	86.682678	6.966656	-0.015402	0.549791
64.303163	87.131432	6.971661	-0.015490	0.550845
64.431470	87.624735	6.976666	-0.015521	0.551898
64.578346	88.077971	6.981670	-0.015558	0.552874
64.703053	88.575255	6.986675	-0.015588	0.553930
64.762469	89.085802	6.991680	-0.015603	0.554984
64.907592	89.601588	6.996685	-0.015639	0.556081
65.139442	90.085564	7.001690	-0.015696	0.557145
64.939402	90.634458	7.006694	-0.015647	0.558169
65.092520	91.166089	7.011699	-0.015685	0.559294
65.073392	91.747592	7.016704	-0.015681	0.560450
65.130475	92.314083	7.021709	-0.015695	0.561603
65.188063	92.869959	7.026714	-0.015709	0.562733
65.175444	93.461632	7.031718	-0.015707	0.563904
65.360678	94.046085	7.036723	-0.015752	0.565135
65.568748	94.612803	7.041728	-0.015803	0.566337
65.579776	95.198400	7.046733	-0.015806	0.567498
65.690843	95.782905	7.051738	-0.015834	0.568692
65.746787	96.401480	7.056742	-0.015848	0.569931
65.925637	97.011706	7.061747	-0.015892	0.571196
65.804479	97.662590	7.066752	-0.015863	0.572425
65.931583	98.279863	7.071757	-0.015894	0.573680
66.005101	98.940129	7.076762	-0.015913	0.574995
66.203949	99.569901	7.081766	-0.015961	0.576295
66.259427	100.225018	7.086771	-0.015975	0.577588
66.307173	100.889233	7.091776	-0.015987	0.578892
66.438091	101.557951	7.096781	-0.016020	0.580233
66.506037	102.252901	7.101786	-0.016037	0.581598
66.440234	102.951780	7.106790	-0.016021	0.582918
66.615201	103.646201	7.111795	-0.016064	0.584316
66.675413	104.369749	7.116800	-0.016080	0.585723
66.680861	105.096064	7.121805	-0.016081	0.587112
66.816369	105.810239	7.126810	-0.016115	0.588523
66.887339	106.548475	7.131814	-0.016133	0.589952
66.948854	107.314883	7.136819	-0.016148	0.591428
66.946568	108.056113	7.141824	-0.016148	0.592829
67.215049	108.791299	7.146829	-0.016214	0.594314
67.210134	109.586885	7.151834	-0.016213	0.595809
67.412461	110.330412	7.156838	-0.016263	0.597278
67.587219	111.079481	7.161843	-0.016306	0.598744
67.567769	111.892433	7.166848	-0.016302	0.600256
67.850028	112.649426	7.171853	-0.016372	0.601768
68.021649	113.404662	7.176858	-0.016414	0.603233
68.165296	114.195386	7.181862	-0.016450	0.604751
68.368387	114.985061	7.186867	-0.016500	0.606284
68.618076	115.706496	7.191872	-0.016561	0.607704
68.681767	116.505588	7.196877	-0.016577	0.609197
68.961459	117.282043	7.201882	-0.016646	0.610722
68.904781	118.099247	7.206886	-0.016633	0.612199
68.962482	118.917387	7.211891	-0.016647	0.613714
69.180819	119.730441	7.216896	-0.016701	0.615272
69.305319	120.546763	7.221901	-0.016732	0.616800
69.453331	121.353581	7.226906	-0.016769	0.618314
69.384780	122.232569	7.231910	-0.016753	0.619881
69.444019	123.109047	7.236915	-0.016768	0.621483
69.502571	123.960618	7.241920	-0.016782	0.623035
69.575063	124.859307	7.246925	-0.016801	0.624674
69.679632	125.763784	7.251930	-0.016827	0.626329
69.701415	126.626709	7.256934	-0.016833	0.627878
69.833505	127.545290	7.261939	-0.016865	0.629559
69.957567	128.468079	7.266944	-0.016896	0.631241
69.934598	129.377590	7.271949	-0.016891	0.632845
70.033320	130.337788	7.276954	-0.016916	0.634575
70.166896	131.280884	7.281958	-0.016949	0.636282
70.387368	132.180522	7.286963	-0.017004	0.637938
70.398052	133.170391	7.291968	-0.017007	0.639677
70.576995	134.114983	7.296973	-0.017051	0.641389
70.598296	135.096231	7.301978	-0.017057	0.643107
70.622061	136.103394	7.306982	-0.017064	0.644866
70.750791	137.094762	7.311987	-0.017096	0.646628
70.859550	138.079166	7.316992	-0.017123	0.648367
70.912112	139.110097	7.321997	-0.017136	0.650163
71.020976	140.134192	7.327002	-0.017164	0.651960
71.041321	141.169672	7.332006	-0.017169	0.653743
71.241005	142.211563	7.337011	-0.017219	0.655591
71.203110	143.281829	7.342016	-0.017210	0.657404
71.487176	144.307064	7.347021	-0.017280	0.659241
71.516019	145.407003	7.352026	-0.017288	0.661116
71.594275	146.466045	7.357030	-0.017308	0.662933
71.800949	147.552016	7.362035	-0.017359	0.664831
72.014279	148.614968	7.367040	-0.017412	0.666688
72.056158	149.701276	7.372045	-0.017423	0.668524
72.249771	150.805806	7.377050	-0.017471	0.670433
72.307235	151.889865	7.382054	-0.017485	0.672260
72.421433	153.010812	7.387059	-0.017514	0.674161
72.490912	154.153101	7.392064	-0.017532	0.676078
72.438169	155.297020	7.397069	-0.017520	0.677953
72.736069	156.436702	7.402074	-0.017593	0.679927
72.791015	157.581658	7.407078	-0.017607	0.681827
72.921817	158.741460	7.412083	-0.017640	0.683771
73.105441	159.913530	7.417088	-0.017686	0.685745
73.391497	161.003015	7.422093	-0.017756	0.687611
73.657998	162.157665	7.427098	-0.017822	0.689571
73.797939	163.301902	7.432102	-0.017857	0.691470
74.050222	164.429959	7.437107	-0.017919	0.693373
74.047250	165.636489	7.442112	-0.017919	0.695317
74.199958	166.791604	7.447117	-0.017957	0.697222
74.415841	167.968642	7.452122	-0.018011	0.699176
74.420339	169.179585	7.457126	-0.018013	0.701114
74.505263	170.381553	7.462131	-0.018034	0.703057
74.700087	171.603591	7.467136	-0.018083	0.705060
74.753486	172.810608	7.472141	-0.018097	0.706990
74.829232	174.058740	7.477146	-0.018116	0.708987
74.765291	175.344397	7.482150	-0.018101	0.710996
74.995678	176.564987	7.487155	-0.018158	0.712984
74.982756	177.880719	7.492160	-0.018156	0.715044
75.114742	179.141647	7.497165	-0.018189	0.717055
75.288974	180.437182	7.502170	-0.018232	0.719127
75.332754	181.752803	7.507174	-0.018244	0.721186
75.545559	183.029490	7.512179	-0.018297	0.723228
75.687936	184.361011	7.517184	-0.018332	0.725328
75.796613	185.642271	7.522189	-0.018360	0.727336
75.906643	187.000954	7.527194	-0.018388	0.729456
76.071944	188.310910	7.532198	-0.018429	0.731513
76.046712	189.694399	7.537203	-0.018424	0.733620
76.166352	191.072923	7.542208	-0.018454	0.735756
76.125901	192.458297	7.547213	-0.018445	0.737849
76.203680	193.891609	7.552218	-0.018465	0.740043
76.274333	195.290076	7.557222	-0.018483	0.742177
76.443312	196.729155	7.562227	-0.018525	0.744393
76.515623	198.163189	7.567232	-0.018544	0.746568
76.674173	199.589325	7.572237	-0.018583	0.748748
77.054688	200.989334	7.577242	-0.018677	0.750947
77.052307	202.424088	7.582246	-0.018678	0.753083
77.358504	203.862843	7.587251	-0.018753	0.755305
77.541027	205.261535	7.592256	-0.018799	0.757427
77.708009	206.717889	7.597261	-0.018841	0.759623
77.932512	208.143051	7.602266	-0.018896	0.761784
78.153428	209.578141	7.607270	-0.018951	0.763952
78.263496	211.035561	7.612275	-0.018979	0.766115
78.375445	212.482890	7.617280	-0.019008	0.768259
78.464263	213.978840	7.622285	-0.019030	0.770460
78.683200	215.428096	7.627290	-0.019085	0.772623
78.776567	216.935676	7.632294	-0.019108	0.774831
78.925074	218.409857	7.637299	-0.019146	0.776998
79.030532	219.933945	7.642304	-0.019173	0.779220
79.118500	221.450788	7.647309	-0.019195	0.781421
79.276754	222.986009	7.652314	-0.019235	0.783660
79.287574	224.541501	7.657318	-0.019238	0.785882
79.655319	226.028615	7.662323	-0.019329	0.788097
79.646143	227.609997	7.667328	-0.019328	0.790338
79.855488	229.121054	7.672333	-0.019380	0.792531
80.233329	230.661926	7.677338	-0.019473	0.794806
80.428069	232.154046	7.682342	-0.019522	0.796957
80.572493	233.730090	7.687347	-0.019558	0.799206
80.759243	235.264835	7.692352	-0.019605	0.801402
80.982731	236.811298	7.697357	-0.019661	0.803619
81.247115	238.341178	7.702362	-0.019726	0.805817
81.258421	239.903136	7.707366	-0.019730	0.807987
81.360801	241.505462	7.712371	-0.019756	0.810231
81.280525	243.117699	7.717376	-0.019738	0.812434
81.426098	244.757140	7.722381	-0.019774	0.814728
81.527277	246.369240	7.727386	-0.019800	0.816967
81.404150	248.076099	7.732390	-0.019771	0.819271
81.521540	249.750474	7.737395	-0.019801	0.821586
81.570199	251.462895	7.742400	-0.019814	0.823928
81.732262	253.147305	7.747405	-0.019855	0.826255
81.760502	254.880470	7.752410	-0.019863	0.828607
81.770476	256.619185	7.757414	-0.019866	0.830956
82.191844	258.301942	7.762419	-0.019970	0.833327
82.300439	260.035022	7.767424	-0.019998	0.835679
82.513791	261.733745	7.772429	-0.020051	0.838005
82.708832	263.478738	7.777434	-0.020100	0.840382
82.863936	265.199480	7.782438	-0.020139	0.842710
83.022469	266.955070	7.787443	-0.020179	0.845079
83.271022	268.658509	7.792448	-0.020241	0.847394
83.265494	270.453971	7.797453	-0.020241	0.849761
83.486726	272.199659	7.802458	-0.020296	0.852112
83.556620	274.004329	7.807462	-0.020314	0.854497
83.767219	275.750713	7.812467	-0.020367	0.856834
83.864042	277.587779	7.817472	-0.020392	0.859254
83.960084	279.372506	7.822477	-0.020416	0.861600
84.158044	281.210537	7.827482	-0.020466	0.864033
84.334730	282.988585	7.832486	-0.020510	0.866376
84.648755	284.791321	7.837491	-0.020588	0.868778
84.752249	286.600193	7.842496	-0.020615	0.871131
84.971840	288.421469	7.847501	-0.020670	0.873521
85.192725	290.230101	7.852506	-0.020725	0.875889
85.455292	292.018497	7.857510	-0.020790	0.878234
85.751560	293.820743	7.862515	-0.020864	0.880599
85.941422	295.630169	7.867520	-0.020911	0.882941
86.239716	297.411914	7.872525	-0.020985	0.885268
86.474758	299.192244	7.877530	-0.021044	0.887572
86.582252	301.019470	7.882534	-0.021072	0.889898
86.767531	302.820433	7.887539	-0.021118	0.892204
86.871660	304.678716	7.892544	-0.021145	0.894557
86.826094	306.524816	7.897549	-0.021135	0.896853
87.115216	308.405619	7.902554	-0.021207	0.899265
86.938515	310.307975	7.907558	-0.021165	0.901589
87.155389	312.231185	7.912563	-0.021219	0.904024
87.256088	314.124231	7.917568	-0.021245	0.906388
87.371180	316.062745	7.922573	-0.021274	0.908805
87.666305	317.935315	7.927578	-0.021348	0.911176
87.649706	319.906313	7.932582	-0.021345	0.913590
87.731669	321.855623	7.937587	-0.021366	0.915994
88.063725	323.792123	7.942592	-0.021449	0.918433
88.200057	325.722911	7.947597	-0.021483	0.920814
88.460736	327.683742	7.952602	-0.021548	0.923254
88.471857	329.641649	7.957606	-0.021552	0.925627
88.559011	331.639080	7.962611	-0.021575	0.928058
88.808115	333.605141	7.967616	-0.021637	0.930482
89.041968	335.575483	7.972621	-0.021696	0.932902
89.173930	337.579774	7.977626	-0.021729	0.935333
89.279875	339.579164	7.982630	-0.021757	0.937746
89.466712	341.591727	7.987635	-0.021804	0.940186
89.525362	343.638544	7.992640	-0.021819	0.942633
89.593325	345.678900	7.997645	-0.021837	0.945067
89.638066	347.757751	8.002650	-0.021850	0.947536
89.824081	349.816392	8.007654	-0.021896	0.950005
90.019198	351.884325	8.012659	-0.021946	0.952481
90.250566	353.950693	8.017664	-0.022003	0.954957
90.365139	356.025223	8.022669	-0.022033	0.957410
90.645841	358.107040	8.027674	-0.022103	0.959901
90.918113	360.152916	8.032678	-0.022171	0.962342
91.290916	362.190078	8.037683	-0.022263	0.964789
91.723410	364.163558	8.042688	-0.022370	0.967168
91.953553	366.186084	8.047693	-0.022428	0.969555
92.310314	368.181723	8.052698	-0.022516	0.971932
92.434903	370.206713	8.057702	-0.022548	0.974288
92.738872	372.193441	8.062707	-0.022624	0.976632
92.852982	374.244777	8.067712	-0.022653	0.979004
92.945231	376.275292	8.072717	-0.022677	0.981342
92.803350	378.437446	8.077722	-0.022644	0.983775
92.905365	380.504739	8.082726	-0.022670	0.986145
93.090474	382.631263	8.087731	-0.022717	0.988594
92.998139	384.761306	8.092736	-0.022695	0.990983
93.026941	386.963218	8.097741	-0.022704	0.993473
93.083564	389.127263	8.102746	-0.022719	0.995919
93.340903	391.313703	8.107750	-0.022784	0.998427
93.728438	393.413493	8.112755	-0.022880	1.000857
93.931187	395.601971	8.117760	-0.022931	1.003343
94.313789	397.662795	8.122765	-0.023026	1.005718
94.896218	399.742620	8.127770	-0.023169	1.008149
94.967834	401.822588	8.132774	-0.023188	1.010469
95.199296	403.946371	8.137779	-0.023246	1.012866
95.446651	406.033514	8.142784	-0.023308	1.015219
95.451355	408.173375	8.147789	-0.023311	1.017576
95.615675	410.318695	8.152794	-0.023352	1.019966
95.542089	412.522404	8.157798	-0.023336	1.022366
95.555912	414.725750	8.162803	-0.023341	1.024778
95.605892	416.957019	8.167808	-0.023354	1.027222
95.764939	419.165179	8.172813	-0.023395	1.029656
95.871044	421.422938	8.177818	-0.023422	1.032128
96.012622	423.658370	8.182822	-0.023458	1.034577
96.108039	425.938831	8.187827	-0.023483	1.037060
96.364041	428.190693	8.192832	-0.023547	1.039537
96.466143	430.465707	8.197837	-0.023574	1.042004
96.799141	432.710516	8.202842	-0.023657	1.044477
96.961861	434.967016	8.207846	-0.023698	1.046924
97.303810	437.203132	8.212851	-0.023783	1.049378
97.456452	439.464767	8.217856	-0.023822	1.051817
97.586179	441.735494	8.222861	-0.023855	1.054255
97.891683	443.984302	8.227866	-0.023931	1.056698
98.013502	446.262507	8.232870	-0.023962	1.059131
98.275223	448.517976	8.237875	-0.024028	1.061562
98.560799	450.792061	8.242880	-0.024099	1.064011
98.851268	452.999911	8.247885	-0.024172	1.066387
99.113986	455.252580	8.252890	-0.024237	1.068798
99.299619	457.460009	8.257894	-0.024284	1.071142
99.549490	459.719272	8.262899	-0.024347	1.073547
99.752478	461.928281	8.267904	-0.024398	1.075885
99.771643	464.234648	8.272909	-0.024404	1.078285
100.094786	466.459644	8.277914	-0.024485	1.080652
100.042277	468.792959	8.282918	-0.024473	1.083056
100.179295	471.044860	8.287923	-0.024508	1.085405
100.407733	473.379977	8.292928	-0.024566	1.087853
100.527640	475.638953	8.297933	-0.024597	1.090196
100.704002	477.997061	8.302938	-0.024641	1.092646
100.883117	480.286728	8.307942	-0.024687	1.095022
101.254930	482.589340	8.312947	-0.024779	1.097441
101.394394	484.889558	8.317952	-0.024815	1.099810
101.673677	487.185604	8.322957	-0.024884	1.102194
101.782842	489.496509	8.327962	-0.024913	1.104558
101.938361	491.809558	8.332966	-0.024952	1.106927
102.179827	494.120079	8.337971	-0.025013	1.109304
102.378329	496.440618	8.342976	-0.025063	1.111678
102.562116	498.747755	8.347981	-0.025109	1.114031
102.684562	501.098722	8.352986	-0.025141	1.116412
102.980550	503.410496	8.357990	-0.025215	1.118780
103.202881	505.724097	8.362995	-0.025271	1.121132
103.361400	508.076417	8.368000	-0.025311	1.123505
103.625723	510.336557	8.373005	-0.025377	1.125801
103.802397	512.714123	8.378010	-0.025422	1.128193
103.810560	515.037976	8.383014	-0.025425	1.130497
104.000786	517.437946	8.388019	-0.025473	1.132904
104.057688	519.798494	8.393024	-0.025489	1.135242
104.072266	522.240797	8.398029	-0.025494	1.137649
104.262144	524.646971	8.403034	-0.025542	1.140047
104.350064	527.106541	8.408038	-0.025565	1.142473
104.690654	529.463531	8.413043	-0.025650	1.144839
104.937300	531.898320	8.418048	-0.025712	1.147260
105.115435	534.257467	8.423053	-0.025757	1.149589
105.695088	536.604826	8.428058	-0.025900	1.151973
105.969995	538.919129	8.433062	-0.025969	1.154266
106.297354	541.239528	8.438067	-0.026051	1.156570
106.532354	543.569960	8.443072	-0.026110	1.158863
106.764482	545.878746	8.448077	-0.026168	1.161129
106.859925	548.243233	8.453082	-0.026193	1.163422
106.847051	550.589149	8.458086	-0.026191	1.165673
106.875866	553.034198	8.463091	-0.026200	1.168022
106.901495	555.441889	8.468096	-0.026208	1.170330
106.920726	557.928395	8.473101	-0.026214	1.172708
106.967308	560.398236	8.478106	-0.026227	1.175070
107.235039	562.880906	8.483110	-0.026295	1.177476
107.552363	565.298313	8.488115	-0.026374	1.179825
107.852338	567.763650	8.493120	-0.026449	1.182211
108.255644	570.094750	8.498125	-0.026549	1.184483
108.568807	572.508131	8.503130	-0.026627	1.186813
108.835447	574.857675	8.508134	-0.026694	1.189070
109.199937	577.217550	8.513139	-0.026784	1.191350
109.431157	579.567270	8.518144	-0.026842	1.193593
109.479368	581.940028	8.523149	-0.026856	1.195822
109.704278	584.362513	8.528154	-0.026912	1.198124
109.777334	586.739633	8.533158	-0.026932	1.200353
109.947500	589.175497	8.538163	-0.026975	1.202649
110.013324	591.578175	8.543168	-0.026993	1.204893
110.004315	594.071429	8.548173	-0.026992	1.207204
110.060182	596.533814	8.553178	-0.027008	1.209492
110.006116	599.101021	8.558183	-0.026996	1.211855
110.118740	601.617107	8.563187	-0.027025	1.214194
110.309050	604.180601	8.568192	-0.027074	1.216585
110.343321	606.744151	8.573197	-0.027084	1.218945
110.664253	609.308447	8.578202	-0.027164	1.221348
111.132463	611.771357	8.583207	-0.027280	1.223678
111.448703	614.266777	8.588211	-0.027359	1.226008
111.891709	616.704582	8.593216	-0.027469	1.228302
112.148484	619.113244	8.598221	-0.027533	1.230535
112.614189	621.531377	8.603226	-0.027649	1.232806
113.042044	623.848109	8.608231	-0.027755	1.234975
113.276612	626.248279	8.613235	-0.027814	1.237185
113.270017	628.635429	8.618240	-0.027814	1.239340
113.488341	631.063879	8.623245	-0.027869	1.241564
113.581986	633.466764	8.628250	-0.027893	1.243742
113.556955	635.925314	8.633255	-0.027889	1.245947
113.692912	638.401973	8.638259	-0.027924	1.248190
113.884765	640.857179	8.643264	-0.027972	1.250418
113.885088	643.378261	8.648269	-0.027974	1.252671
114.092508	645.869632	8.653274	-0.028026	1.254927
114.182122	648.409700	8.658279	-0.028050	1.257202
114.491669	650.868708	8.663283	-0.028127	1.259437
114.845788	653.372675	8.668288	-0.028215	1.261714
115.079211	655.782198	8.673293	-0.028274	1.263885
115.318265	658.280854	8.678298	-0.028334	1.266131
115.678313	660.685217	8.683303	-0.028424	1.268309
115.967302	663.094020	8.688307	-0.028496	1.270476
116.021346	665.582762	8.693312	-0.028511	1.272674
116.162663	668.008193	8.698317	-0.028547	1.274825
116.373002	670.518823	8.703322	-0.028600	1.277058
116.366789	672.977159	8.708327	-0.028600	1.279208
116.452147	675.532134	8.713331	-0.028623	1.281453
116.395662	678.072917	8.718336	-0.028611	1.283660
116.473127	680.653940	8.723341	-0.028632	1.285918
116.570522	683.261289	8.728346	-0.028657	1.288199
116.626465	685.869525	8.733351	-0.028673	1.290470
116.891686	688.470903	8.738355	-0.028739	1.292762
117.077005	691.086198	8.743360	-0.028786	1.295051
117.253402	693.700441	8.748365	-0.028831	1.297333
117.626655	696.270710	8.753370	-0.028924	1.299603
117.970708	698.858408	8.758375	-0.029010	1.301880
118.513559	701.224840	8.763379	-0.029144	1.303993
118.711859	703.773243	8.768384	-0.029194	1.306207
119.137735	706.183940	8.773389	-0.029300	1.308333
119.423090	708.651194	8.778394	-0.029371	1.310482
119.538832	711.121120	8.783399	-0.029401	1.312606
119.716400	713.575909	8.788403	-0.029446	1.314722
119.936354	716.089436	8.793408	-0.029502	1.316891
119.864148	718.567681	8.798413	-0.029486	1.318983
120.068038	721.133640	8.803418	-0.029537	1.321186
120.009673	723.661926	8.808423	-0.029525	1.323316
120.362445	726.193130	8.813427	-0.029613	1.325505
120.472908	728.751943	8.818432	-0.029642	1.327678
120.521249	731.303575	8.823437	-0.029655	1.329833
120.886352	733.872001	8.828442	-0.029746	1.332044
121.053177	736.375451	8.833447	-0.029789	1.334168
121.348298	738.951889	8.838451	-0.029862	1.336369
121.640493	741.446231	8.843456	-0.029935	1.338497
121.812134	743.986087	8.848461	-0.029979	1.340642
122.190186	746.467865	8.853466	-0.030073	1.342765
122.436049	748.942496	8.858471	-0.030135	1.344860
122.695263	751.428918	8.863475	-0.030200	1.346963
122.724370	753.904020	8.868480	-0.030209	1.349021
122.758974	756.480417	8.873485	-0.030219	1.351159
123.047543	758.982166	8.878490	-0.030291	1.353269
123.115931	761.540412	8.883495	-0.030310	1.355391
123.258792	764.093922	8.888499	-0.030346	1.357517
123.436075	766.654058	8.893504	-0.030391	1.359649
123.535369	769.236582	8.898509	-0.030417	1.361785
123.585873	771.810154	8.903514	-0.030431	1.363904
123.769317	774.435060	8.908519	-0.030478	1.366080
124.019388	776.990021	8.913523	-0.030541	1.368205
124.221858	779.608584	8.918528	-0.030592	1.370372
124.386641	782.196709	8.923533	-0.030634	1.372505
124.646732	784.776839	8.928538	-0.030699	1.374642
124.732734	787.416025	8.933543	-0.030722	1.376799
124.929180	789.994456	8.938547	-0.030772	1.378919
125.056113	792.670909	8.943552	-0.030805	1.381105
125.210494	795.248804	8.948557	-0.030844	1.383212
125.529684	797.890221	8.953562	-0.030924	1.385390
125.759699	800.459313	8.958567	-0.030982	1.387493
125.955890	803.053761	8.963571	-0.031032	1.389610
126.219758	805.670490	8.968576	-0.031098	1.391750
126.375305	808.214684	8.973581	-0.031138	1.393814
126.576030	810.866795	8.978586	-0.031189	1.395967
126.738764	813.434959	8.983591	-0.031230	1.398045
126.855657	816.093300	8.988595	-0.031260	1.400185
127.257802	818.656124	8.993600	-0.031360	1.402285
127.439408	821.205421	8.998605	-0.031407	1.404341
127.854320	823.778870	9.003610	-0.031510	1.406445
128.034753	826.282009	9.008615	-0.031556	1.408458
128.317049	828.843569	9.013619	-0.031626	1.410528
128.626952	831.351995	9.018624	-0.031704	1.412557
128.705667	833.884301	9.023629	-0.031725	1.414570
128.859705	836.470215	9.028634	-0.031764	1.416633
129.167372	838.957927	9.033639	-0.031841	1.418637
129.187346	841.560118	9.038643	-0.031848	1.420688
129.551128	844.046939	9.043648	-0.031938	1.422693
129.647002	846.593467	9.048653	-0.031963	1.424705
129.814979	849.171525	9.053658	-0.032006	1.426749
129.881745	851.710625	9.058663	-0.032024	1.428746
130.024346	854.340418	9.063667	-0.032061	1.430822
130.215434	856.876554	9.068672	-0.032109	1.432827
130.403517	859.485356	9.073677	-0.032157	1.434886
130.674820	862.061483	9.078682	-0.032225	1.436928
130.768442	864.658274	9.083687	-0.032250	1.438959
130.968235	867.273842	9.088691	-0.032300	1.441016
131.194774	869.795362	9.093696	-0.032357	1.443000
131.424736	872.393306	9.098701	-0.032415	1.445042
131.677850	874.966211	9.103706	-0.032479	1.447064
131.862545	877.524731	9.108711	-0.032526	1.449064
131.971619	880.156074	9.113715	-0.032554	1.451106
132.191997	882.695708	9.118720	-0.032610	1.453090
132.257159	885.336850	9.123725	-0.032627	1.455129
132.307755	887.985421	9.128730	-0.032642	1.457169
132.333741	890.655562	9.133735	-0.032650	1.459219
132.443260	893.370976	9.138739	-0.032678	1.461312
132.677794	895.996534	9.143744	-0.032737	1.463349
132.774703	898.719618	9.148749	-0.032763	1.465440
133.040573	901.365274	9.153754	-0.032830	1.467491
133.271535	904.034821	9.158759	-0.032888	1.469553
133.496085	906.691827	9.163763	-0.032945	1.471602
133.716603	909.337871	9.168768	-0.033000	1.473638
134.093594	911.982371	9.173773	-0.033094	1.475691
134.349878	914.556837	9.178778	-0.033159	1.477673
134.735200	917.165081	9.183783	-0.033254	1.479694
134.922114	919.719157	9.188787	-0.033302	1.481646
135.215153	922.280266	9.193792	-0.033375	1.483614
135.562303	924.825983	9.198797	-0.033462	1.485574
135.921373	927.285094	9.203802	-0.033551	1.487469
136.079019	929.824974	9.208807	-0.033591	1.489396
136.246943	932.355844	9.213811	-0.033634	1.491315
136.383531	934.873219	9.218816	-0.033669	1.493218
136.447183	937.460244	9.223821	-0.033687	1.495161
136.514750	940.043097	9.228826	-0.033705	1.497099
136.649140	942.633551	9.233831	-0.033739	1.499049
136.859559	945.250882	9.238835	-0.033793	1.501025
136.959241	947.806218	9.243840	-0.033819	1.502939
137.191373	950.423048	9.248845	-0.033877	1.504913
137.438305	952.996923	9.253850	-0.033939	1.506854
137.487374	955.611072	9.258855	-0.033953	1.508798
137.661082	958.250699	9.263859	-0.033997	1.510774
137.769254	960.842320	9.268864	-0.034026	1.512703
138.025383	963.494308	9.273869	-0.034090	1.514693
138.249366	966.119476	9.278874	-0.034146	1.516656
138.292816	968.753610	9.283879	-0.034159	1.518601
138.504391	971.443853	9.288883	-0.034212	1.520606
138.846177	973.983830	9.293888	-0.034298	1.522514
138.905386	976.636648	9.298893	-0.034314	1.524467
139.133567	979.287398	9.303898	-0.034371	1.526437
139.196057	981.923928	9.308903	-0.034388	1.528374
139.480184	984.594492	9.313907	-0.034460	1.530360
139.625642	987.209640	9.318912	-0.034497	1.532286
139.854140	989.875108	9.323917	-0.034555	1.534257
140.069610	992.533819	9.328922	-0.034609	1.536218
140.318665	995.133032	9.333927	-0.034672	1.538138
140.481000	997.801261	9.338931	-0.034713	1.540095
140.815584	1000.390992	9.343936	-0.034797	1.542014
140.880954	1003.025745	9.348941	-0.034815	1.543930
141.278736	1005.630176	9.353946	-0.034913	1.545862
141.521631	1008.160479	9.358951	-0.034975	1.547719
141.679540	1010.778197	9.363955	-0.035015	1.549627
141.830775	1013.381021	9.368960	-0.035054	1.551521
141.992705	1015.951229	9.373965	-0.035095	1.553390
142.257359	1018.593101	9.378970	-0.035161	1.555321
142.384100	1021.146212	9.383975	-0.035194	1.557170
142.397120	1023.833028	9.388979	-0.035199	1.559098
142.666540	1026.462913	9.393984	-0.035267	1.561014
142.787874	1029.035571	9.398989	-0.035298	1.562869
142.849431	1031.749341	9.403994	-0.035315	1.564815
142.986449	1034.387020	9.408999	-0.035350	1.566714
143.245706	1037.051503	9.414003	-0.035415	1.568644
143.619946	1039.708418	9.419008	-0.035509	1.570579
143.845352	1042.266216	9.424013	-0.035566	1.572425
144.053232	1044.926107	9.429018	-0.035618	1.574338
144.416427	1047.501723	9.434023	-0.035709	1.576208
144.788103	1050.016953	9.439027	-0.035801	1.578033
145.063157	1052.600860	9.444032	-0.035870	1.579894
145.211669	1055.078675	9.449037	-0.035908	1.581663
145.443545	1057.622300	9.454042	-0.035966	1.583486
145.648857	1060.176200	9.459047	-0.036018	1.585311
145.691595	1062.663500	9.464051	-0.036030	1.587068
145.757802	1065.309297	9.469056	-0.036048	1.588937
145.891064	1067.896058	9.474061	-0.036083	1.590770
145.933215	1070.499756	9.479066	-0.036095	1.592603
146.032147	1073.175966	9.484071	-0.036121	1.594491
146.070599	1075.843488	9.489075	-0.036132	1.596364
146.313372	1078.512448	9.494080	-0.036193	1.598258
146.519568	1081.191798	9.499085	-0.036245	1.600154
146.738768	1083.776017	9.504090	-0.036301	1.601983
146.920704	1086.466861	9.509095	-0.036347	1.603879
147.137732	1089.101121	9.514099	-0.036402	1.605738
147.499078	1091.698186	9.519104	-0.036492	1.607585
147.709807	1094.336128	9.524109	-0.036545	1.609442
148.071533	1096.884651	9.529114	-0.036635	1.611251
148.192986	1099.481651	9.534119	-0.036667	1.613065
148.342087	1102.117696	9.539123	-0.036705	1.614906
148.610186	1104.686929	9.544128	-0.036772	1.616713
148.581546	1107.336671	9.549133	-0.036767	1.618540
148.740942	1110.009781	9.554138	-0.036808	1.620402
148.842081	1112.630502	9.559143	-0.036834	1.622219
148.741381	1115.385232	9.564147	-0.036812	1.624104
148.817355	1118.119245	9.569152	-0.036832	1.625992
148.850446	1120.848685	9.574157	-0.036842	1.627870
149.184219	1123.632148	9.579162	-0.036925	1.629817
149.399859	1126.290836	9.584167	-0.036980	1.631662
149.563921	1129.048438	9.589171	-0.037022	1.633568
150.024553	1131.756157	9.594176	-0.037136	1.635470
150.391142	1134.342277	9.599181	-0.037228	1.637276
150.818746	1136.986479	9.604186	-0.037334	1.639127
151.042533	1139.541356	9.609191	-0.037390	1.640892
151.350766	1142.064424	9.614195	-0.037467	1.642643
151.653031	1144.676502	9.619200	-0.037543	1.644452
151.933141	1147.145411	9.624205	-0.037613	1.646159
152.063375	1149.684851	9.629210	-0.037647	1.647896
152.183734	1152.300997	9.634215	-0.037678	1.649682
152.285299	1154.795690	9.639219	-0.037704	1.651381
152.338545	1157.453056	9.644224	-0.037719	1.653184
152.428181	1160.105585	9.649229	-0.037743	1.654985
152.393847	1162.729280	9.654234	-0.037736	1.656751
152.363010	1165.499813	9.659239	-0.037731	1.658615
152.538295	1168.191333	9.664243	-0.037775	1.660446
152.737453	1170.867383	9.669248	-0.037826	1.662267
152.910313	1173.609987	9.674253	-0.037870	1.664128
153.152445	1176.286780	9.679258	-0.037931	1.665950
153.302740	1178.996348	9.684263	-0.037969	1.667782
153.734278	1181.688458	9.689267	-0.038077	1.669631
154.202846	1184.234771	9.694272	-0.038193	1.671384
154.368768	1186.853350	9.699277	-0.038235	1.673152
154.788505	1189.446193	9.704282	-0.038339	1.674927
155.025007	1191.950580	9.709287	-0.038399	1.676622
155.235717	1194.519429	9.714291	-0.038452	1.678355
155.412932	1197.102972	9.719296	-0.038497	1.680092
155.237855	1199.646346	9.724301	-0.038456	1.681764
155.335296	1202.364994	9.729306	-0.038482	1.683579
155.358551	1205.047674	9.734311	-0.038489	1.685360
155.292630	1207.737170	9.739315	-0.038475	1.687135
155.395442	1210.559069	9.744320	-0.038502	1.689013
155.461244	1213.296283	9.749325	-0.038520	1.690829
155.544710	1216.110975	9.754330	-0.038542	1.692697
155.716084	1218.956608	9.759335	-0.038586	1.694591
155.985445	1221.686160	9.764339	-0.038654	1.696418
156.351998	1224.491207	9.769344	-0.038745	1.698303
156.801436	1227.155292	9.774349	-0.038857	1.700101
157.161517	1229.789331	9.779354	-0.038947	1.701869
157.706526	1232.399229	9.784359	-0.039082	1.703638
158.047595	1234.928348	9.789363	-0.039167	1.705331
158.383197	1237.418256	9.794368	-0.039250	1.706996
158.455941	1239.999059	9.799373	-0.039270	1.708692
158.685543	1242.517933	9.804378	-0.039328	1.710361
158.753587	1245.070653	9.809383	-0.039346	1.712035
158.767595	1247.695836	9.814387	-0.039351	1.713748
158.659562	1250.380291	9.819392	-0.039327	1.715485
158.697152	1253.042282	9.824397	-0.039338	1.717221
158.778427	1255.820857	9.829402	-0.039360	1.719036
158.985942	1258.486073	9.834407	-0.039412	1.720788
158.991797	1261.223753	9.839411	-0.039415	1.722565
159.069925	1264.061687	9.844416	-0.039436	1.724412
159.293704	1266.729446	9.849421	-0.039493	1.726162
159.574755	1269.534572	9.854426	-0.039563	1.728005
160.023382	1272.233942	9.859431	-0.039675	1.729795
160.357825	1274.813788	9.864435	-0.039758	1.731494
160.743755	1277.511884	9.869440	-0.039855	1.733273
161.132643	1280.060599	9.874445	-0.039951	1.734954
161.465730	1282.598670	9.879450	-0.040034	1.736621
161.728876	1285.164951	9.884455	-0.040100	1.738297
161.704209	1287.721774	9.889459	-0.040096	1.739937
161.816934	1290.288687	9.894464	-0.040125	1.741595
161.703203	1292.962414	9.899469	-0.040099	1.743297
161.663627	1295.703325	9.904474	-0.040092	1.745048
161.623197	1298.422207	9.909479	-0.040084	1.746783
161.623840	1301.239200	9.914483	-0.040086	1.748583
161.899991	1304.016284	9.919488	-0.040155	1.750384
161.978146	1306.789880	9.924493	-0.040176	1.752160
162.208521	1309.627352	9.929498	-0.040234	1.753991
162.560312	1312.290410	9.934503	-0.040322	1.755721

162.871081	1314.981836	9.939507	-0.040400	1.757463
163.373348	1317.559774	9.944512	-0.040524	1.759151
163.485827	1319.977791	9.949517	-0.040553	1.760697
163.875451	1322.462205	9.954522	-0.040650	1.762310
164.227663	1324.880189	9.959527	-0.040738	1.763877
164.385477	1327.172584	9.964531	-0.040778	1.765343
164.578622	1329.491995	9.969536	-0.040827	1.766829
164.688070	1331.784547	9.974541	-0.040855	1.768288
164.820835	1334.088222	9.979546	-0.040889	1.769756
164.911598	1336.266248	9.984551	-0.040913	1.771139
164.766533	1338.591562	9.989555	-0.040879	1.772590
164.904055	1340.900424	9.994560	-0.040914	1.774057
164.823281	1343.093841	9.999565	-0.040896	1.775429
164.941458	1345.381672	10.004570	-0.040926	1.776879
164.918150	1347.662760	10.009575	-0.040922	1.778310
165.184410	1349.857506	10.014579	-0.040989	1.779714
165.420030	1351.946563	10.019584	-0.041048	1.781047
165.612864	1354.087296	10.024589	-0.041096	1.782408
165.953286	1356.137289	10.029594	-0.041181	1.783725
166.339082	1358.058758	10.034599	-0.041276	1.784965
166.567026	1359.902965	10.039603	-0.041333	1.786141
166.999389	1361.766943	10.044608	-0.041440	1.787348
167.155451	1363.561949	10.049613	-0.041479	1.788484
167.313028	1365.309856	10.054618	-0.041519	1.789590
167.339913	1367.002188	10.059623	-0.041527	1.790649
167.097045	1368.791505	10.064627	-0.041469	1.791740
167.117074	1370.665392	10.069632	-0.041475	1.792910
166.909531	1372.507551	10.074637	-0.041425	1.794036
166.844772	1374.314496	10.079642	-0.041411	1.795154
166.873691	1376.190061	10.084647	-0.041419	1.796323
166.919608	1378.063198	10.089651	-0.041432	1.797492
167.203456	1379.869304	10.094656	-0.041502	1.798641
167.446454	1381.565739	10.099661	-0.041563	1.799717
167.707971	1383.148073	10.104666	-0.041628	1.800724
167.946752	1384.814980	10.109671	-0.041687	1.801780
168.227428	1386.386413	10.114675	-0.041757	1.802781
168.626863	1387.897419	10.119680	-0.041855	1.803755
168.808003	1389.289112	10.124685	-0.041900	1.804634
169.076431	1390.633103	10.129690	-0.041967	1.805491
169.296500	1391.971150	10.134695	-0.042021	1.806339
169.286735	1393.320573	10.139699	-0.042020	1.807172
169.396005	1394.662229	10.144704	-0.042048	1.808011
169.417119	1395.993691	10.149709	-0.042054	1.808835
169.324355	1397.292345	10.154714	-0.042032	1.809628
169.179082	1398.625780	10.159719	-0.041997	1.810436
169.132784	1400.001399	10.164723	-0.041987	1.811280
169.143802	1401.416385	10.169728	-0.041990	1.812153
169.198881	1402.756782	10.174733	-0.042005	1.812984
169.281237	1404.164321	10.179738	-0.042026	1.813859
169.453411	1405.450033	10.184743	-0.042069	1.814666
169.569862	1406.670109	10.189747	-0.042098	1.815428
169.898209	1407.902807	10.194752	-0.042179	1.816217
170.125383	1409.086736	10.199757	-0.042235	1.816966
170.360416	1410.180256	10.204762	-0.042293	1.817661
170.523037	1411.280103	10.209767	-0.042334	1.818352
170.688450	1412.315358	10.214771	-0.042375	1.819003
170.821548	1413.323697	10.219776	-0.042408	1.819634
170.504630	1414.317333	10.224781	-0.042331	1.820214
170.666736	1415.384495	10.229786	-0.042371	1.820883
170.579997	1416.468173	10.234791	-0.042351	1.821540
170.529692	1417.549140	10.239795	-0.042339	1.822197
170.582128	1418.644161	10.244800	-0.042353	1.822873
170.534625	1419.708906	10.249805	-0.042342	1.823520
170.602893	1420.814525	10.254810	-0.042359	1.824204
170.562908	1421.799531	10.259815	-0.042350	1.824803
170.693550	1422.818455	10.264819	-0.042383	1.825438
170.967967	1423.811186	10.269824	-0.042450	1.826071
171.110728	1424.785051	10.274829	-0.042486	1.826680
171.300813	1425.708768	10.279834	-0.042533	1.827262
171.507878	1426.549931	10.284839	-0.042584	1.827796
171.649643	1427.395565	10.289843	-0.042619	1.828326
171.781759	1428.243204	10.294848	-0.042652	1.828856
171.830429	1429.005255	10.299853	-0.042664	1.829325
171.987565	1429.717502	10.304858	-0.042703	1.829775
172.169465	1430.382355	10.309863	-0.042748	1.830197
171.958506	1431.199644	10.314867	-0.042697	1.830676
171.930090	1431.933914	10.319872	-0.042691	1.831121
171.884741	1432.779042	10.324877	-0.042680	1.831632
171.956130	1433.510844	10.329882	-0.042698	1.832085
171.800079	1434.391937	10.334887	-0.042660	1.832607
171.776566	1435.142873	10.339891	-0.042655	1.833062
171.729137	1436.037657	10.344896	-0.042644	1.833602
171.789206	1436.837912	10.349901	-0.042659	1.834095
171.785434	1437.590514	10.354906	-0.042659	1.834553
172.105192	1438.311909	10.359911	-0.042737	1.835022
172.413356	1438.954975	10.364915	-0.042813	1.835442
172.561585	1439.568439	10.369920	-0.042850	1.835829
172.775623	1440.163173	10.374925	-0.042902	1.836211
172.912021	1440.770264	10.379930	-0.042936	1.836592
173.191554	1441.252188	10.384935	-0.043004	1.836912
173.259666	1441.702042	10.389939	-0.043021	1.837191
173.224463	1442.222605	10.394944	-0.043013	1.837504
173.116478	1442.735962	10.399949	-0.042987	1.837806
172.974617	1443.322722	10.404954	-0.042953	1.838149
172.876672	1443.892024	10.409959	-0.042929	1.838486
172.804723	1444.467450	10.414963	-0.042912	1.838828
172.722029	1445.106094	10.419968	-0.042892	1.839208
172.716898	1445.618211	10.424973	-0.042891	1.839519
172.700284	1446.155590	10.429978	-0.042887	1.839843
172.878267	1446.715348	10.434983	-0.042931	1.840199
172.848416	1447.324964	10.439987	-0.042924	1.840566
173.050783	1447.851351	10.444992	-0.042974	1.840904
173.137919	1448.350779	10.449997	-0.042995	1.841215
173.337235	1448.800338	10.455002	-0.043044	1.841506
173.440702	1449.324212	10.460007	-0.043070	1.841834
173.487133	1449.739503	10.465011	-0.043081	1.842090
173.568481	1450.155408	10.470016	-0.043102	1.842349
173.596276	1450.535554	10.475021	-0.043109	1.842582
173.664281	1450.892045	10.480026	-0.043125	1.842804
173.627255	1451.369875	10.485031	-0.043117	1.843090
173.506855	1451.788941	10.490035	-0.043087	1.843333
173.524930	1452.230076	10.495040	-0.043092	1.843602
173.508867	1452.622125	10.500045	-0.043088	1.843838
173.473231	1453.071381	10.505050	-0.043080	1.844106
173.596966	1453.494401	10.510055	-0.043110	1.844374
173.586774	1453.841090	10.515059	-0.043108	1.844583
173.741655	1454.229520	10.520064	-0.043146	1.844832
173.803072	1454.523499	10.525069	-0.043161	1.845016
174.013508	1454.804676	10.530074	-0.043213	1.845205
174.139680	1455.230437	10.535079	-0.043244	1.845475
174.225482	1455.305297	10.540083	-0.043265	1.845528
174.320413	1455.770524	10.545088	-0.043288	1.845818
174.248404	1455.795570	10.550093	-0.043271	1.845827
174.208895	1456.289788	10.555098	-0.043261	1.846122
174.314413	1456.326287	10.560103	-0.043287	1.846154
174.171842	1456.810603	10.565107	-0.043252	1.846433
174.026651	1456.983215	10.570112	-0.043217	1.846524
173.911522	1457.446618	10.575117	-0.043189	1.846793
173.857962	1457.774079	10.580122	-0.043176	1.846986
173.796956	1458.090836	10.585127	-0.043161	1.847172
173.681318	1458.509778	10.590131	-0.043133	1.847415
173.830630	1458.949063	10.595136	-0.043170	1.847694
173.951804	1459.205152	10.600141	-0.043200	1.847860
174.173670	1459.500074	10.605146	-0.043254	1.848058
174.266266	1459.782576	10.610151	-0.043277	1.848238
174.424771	1459.936876	10.615155	-0.043316	1.848346
174.700113	1460.029056	10.620160	-0.043383	1.848427
174.796069	1460.416314	10.625165	-0.043407	1.848669
174.941049	1460.401346	10.630170	-0.043442	1.848674
175.100214	1460.383167	10.635175	-0.043481	1.848678
175.057468	1460.371936	10.640179	-0.043470	1.848667
175.006926	1460.440229	10.645184	-0.043458	1.848703
174.959099	1460.921495	10.650189	-0.043446	1.848989
174.694096	1460.973586	10.655194	-0.043382	1.848996
174.600345	1461.005084	10.660199	-0.043359	1.849007
174.381117	1461.403085	10.665203	-0.043305	1.849227
174.449375	1461.582715	10.670208	-0.043322	1.849341
174.191347	1461.790703	10.675213	-0.043259	1.849443
174.195855	1461.984016	10.680218	-0.043260	1.849560
174.270774	1462.297153	10.685223	-0.043279	1.849756
174.383914	1462.462710	10.690227	-0.043306	1.849866
174.626060	1462.635389	10.695232	-0.043366	1.849993
174.738677	1462.933252	10.700237	-0.043393	1.850183
174.809194	1462.932828	10.705242	-0.043410	1.850189
174.927755	1462.922964	10.710247	-0.043439	1.850194
174.976933	1463.210415	10.715251	-0.043451	1.850372
175.108819	1463.438371	10.720256	-0.043484	1.850522
175.007103	1463.438753	10.725261	-0.043459	1.850513
175.119030	1463.427322	10.730266	-0.043486	1.850516
175.192652	1463.433412	10.735271	-0.043504	1.850527
175.013266	1463.431993	10.740275	-0.043460	1.850509
174.889418	1463.580160	10.745280	-0.043430	1.850587
174.775190	1463.957178	10.750285	-0.043402	1.850804
174.997979	1463.926934	10.755290	-0.043456	1.850806
174.971813	1463.936945	10.760295	-0.043450	1.850810
174.856645	1463.932140	10.765299	-0.043422	1.850796
175.010762	1464.370280	10.770304	-0.043460	1.851075
175.041302	1464.444589	10.775309	-0.043467	1.851122
175.079351	1464.441905	10.780314	-0.043476	1.851124
175.072702	1464.448406	10.785319	-0.043475	1.851127
175.162346	1464.420208	10.790323	-0.043496	1.851119
175.159444	1464.439077	10.795328	-0.043496	1.851130
175.028607	1464.494909	10.800333	-0.043464	1.851151
175.142517	1464.956396	10.805338	-0.043492	1.851440
175.112669	1464.969562	10.810343	-0.043484	1.851445
175.046710	1464.963153	10.815347	-0.043468	1.851435
175.137923	1464.961897	10.820352	-0.043490	1.851443
175.052668	1464.962331	10.825357	-0.043470	1.851435
175.124152	1464.951932	10.830362	-0.043487	1.851436
175.137290	1464.961095	10.835367	-0.043490	1.851442
175.094931	1465.374640	10.840371	-0.043480	1.851688
175.147556	1465.519645	10.845376	-0.043493	1.851780
175.212838	1465.489483	10.850381	-0.043509	1.851768
175.293438	1465.485456	10.855386	-0.043528	1.851773
175.452722	1465.470658	10.860391	-0.043567	1.851778
175.389200	1465.460765	10.865395	-0.043552	1.851767
175.545281	1465.455780	10.870400	-0.043590	1.851778
175.690260	1465.420390	10.875405	-0.043625	1.851770
175.548757	1465.439802	10.880410	-0.043590	1.851769
175.618349	1465.441606	10.885415	-0.043607	1.851776
175.604672	1465.427695	10.890419	-0.043604	1.851766
175.465409	1465.432004	10.895424	-0.043570	1.851756
175.381367	1465.179279	10.900429	-0.043549	1.851596
175.248799	1465.494569	10.905434	-0.043517	1.851774
175.260747	1465.508319	10.910439	-0.043520	1.851783
175.202882	1465.495746	10.915443	-0.043505	1.851770
175.142370	1465.528374	10.920448	-0.043490	1.851784
175.026169	1465.528630	10.925453	-0.043462	1.851774
175.097599	1465.519535	10.930458	-0.043479	1.851775
175.168348	1465.514947	10.935463	-0.043497	1.851778
175.253801	1465.482728	10.940467	-0.043517	1.851767
175.442581	1465.475837	10.945472	-0.043563	1.851780
175.337978	1465.480270	10.950477	-0.043538	1.851773
175.474320	1465.466142	10.955482	-0.043571	1.851777
175.612853	1465.450642	10.960487	-0.043605	1.851781
175.562305	1465.434616	10.965491	-0.043592	1.851766
175.689038	1465.439829	10.970496	-0.043623	1.851781
175.646040	1465.433261	10.975501	-0.043613	1.851773
175.471580	1465.457727	10.980506	-0.043570	1.851772
175.558123	1465.455637	10.985511	-0.043591	1.851778
175.460338	1465.449962	10.990515	-0.043567	1.851766
175.420055	1465.481301	10.995520	-0.043557	1.851781
175.364748	1465.474550	11.000525	-0.043544	1.851772
175.391774	1465.469416	11.005530	-0.043550	1.851771
175.433316	1465.477592	11.010535	-0.043560	1.851780
175.279828	1465.475279	11.015539	-0.043523	1.851764
175.428445	1465.479466	11.020544	-0.043559	1.851781
175.440994	1465.461274	11.025549	-0.043562	1.851771
175.416007	1465.460749	11.030554	-0.043556	1.851768
175.563601	1465.453182	11.035559	-0.043592	1.851777
175.551599	1465.443156	11.040563	-0.043589	1.851770
175.552585	1465.467391	11.045568	-0.043589	1.851785
175.448033	1465.474923	11.050573	-0.043563	1.851780
175.499060	1465.458341	11.055578	-0.043576	1.851774
175.492825	1465.473584	11.060583	-0.043574	1.851783
175.416842	1465.464307	11.065587	-0.043555	1.851770
175.327208	1465.497776	11.070592	-0.043533	1.851782
175.468833	1465.462381	11.075597	-0.043568	1.851774
175.578031	1465.445165	11.080602	-0.043595	1.851773
175.609448	1465.454376	11.085607	-0.043602	1.851782
175.568113	1465.432018	11.090611	-0.043592	1.851765
175.734130	1465.333069	11.095616	-0.043632	1.851720
175.848155	1464.852948	11.100621	-0.043660	1.851441
175.839451	1464.851739	11.105626	-0.043658	1.851440
175.903662	1464.863944	11.110631	-0.043673	1.851453
175.919055	1464.835999	11.115635	-0.043677	1.851438
175.817820	1464.866585	11.120640	-0.043652	1.851447
175.810458	1464.375378	11.125645	-0.043650	1.851150
175.668691	1464.351608	11.130650	-0.043615	1.851122
175.569670	1464.386253	11.135655	-0.043591	1.851134
175.367132	1464.395877	11.140659	-0.043541	1.851121
175.390223	1464.408689	11.145664	-0.043547	1.851131
175.393867	1464.397563	11.150669	-0.043548	1.851124
175.331436	1464.403300	11.155674	-0.043532	1.851122
175.330927	1464.419990	11.160679	-0.043532	1.851132
175.430794	1464.384530	11.165683	-0.043557	1.851120
175.517645	1464.393516	11.170688	-0.043578	1.851133
175.536310	1464.376721	11.175693	-0.043582	1.851125
175.571292	1464.371661	11.180698	-0.043591	1.851125
175.806615	1464.352959	11.185703	-0.043648	1.851136
175.713242	1464.337039	11.190707	-0.043625	1.851117
175.832765	1464.339721	11.195712	-0.043654	1.851130
175.751267	1464.335181	11.200717	-0.043634	1.851120
175.752990	1463.978029	11.205722	-0.043634	1.850904
175.616779	1463.842126	11.210727	-0.043601	1.850810
175.516882	1463.831355	11.215731	-0.043577	1.850794
175.431505	1463.870376	11.220736	-0.043556	1.850810
175.492473	1463.851236	11.225741	-0.043570	1.850804
175.540071	1463.836475	11.230746	-0.043582	1.850799
175.564826	1463.853687	11.235751	-0.043588	1.850812
175.500215	1463.836986	11.240755	-0.043572	1.850796
175.600190	1463.836708	11.245760	-0.043596	1.850805
175.643891	1463.819698	11.250765	-0.043607	1.850798
175.625777	1463.824593	11.255770	-0.043603	1.850800
175.846162	1463.814387	11.260775	-0.043656	1.850814
175.814300	1463.767817	11.265779	-0.043648	1.850783
175.807563	1463.329479	11.270784	-0.043646	1.850518
175.814900	1463.322189	11.275789	-0.043648	1.850514
175.780346	1463.322878	11.280794	-0.043640	1.850511
175.751503	1463.340286	11.285799	-0.043632	1.850519
175.823556	1463.312718	11.290803	-0.043650	1.850509
175.708655	1463.336340	11.295808	-0.043622	1.850513
175.612823	1463.259485	11.300813	-0.043598	1.850457
175.508020	1462.819972	11.305818	-0.043572	1.850183
175.525788	1462.826347	11.310823	-0.043577	1.850188
175.594551	1462.797216	11.315827	-0.043593	1.850177
175.608943	1462.818338	11.320832	-0.043597	1.850191
175.791413	1462.777455	11.325837	-0.043641	1.850183
175.678396	1462.788371	11.330842	-0.043614	1.850179
175.808192	1462.790496	11.335847	-0.043645	1.850192
175.850422	1462.764659	11.340851	-0.043655	1.850181
175.868060	1462.592283	11.345856	-0.043660	1.850078
175.782279	1462.271261	11.350861	-0.043638	1.849877
175.887136	1462.253925	11.355866	-0.043664	1.849876
175.966744	1462.251069	11.360871	-0.043683	1.849881
175.902172	1462.241363	11.365875	-0.043667	1.849870
175.996128	1461.941686	11.370880	-0.043690	1.849697
176.003659	1461.719177	11.375885	-0.043692	1.849564
175.804518	1461.748485	11.380890	-0.043643	1.849563
175.901554	1461.739073	11.385895	-0.043667	1.849566
175.940057	1461.714589	11.390899	-0.043676	1.849555
175.877096	1461.386799	11.395904	-0.043660	1.849351
175.765380	1461.372438	11.400909	-0.043633	1.849332
175.609322	1461.392035	11.405914	-0.043595	1.849330
175.672647	1461.393224	11.410919	-0.043610	1.849336
175.501455	1461.399110	11.415923	-0.043568	1.849324
175.652256	1461.397220	11.420928	-0.043605	1.849337
175.648037	1461.388604	11.425933	-0.043604	1.849331
175.450787	1461.412712	11.430938	-0.043556	1.849327
175.554831	1461.410497	11.435943	-0.043581	1.849336
175.609145	1461.386434	11.440947	-0.043594	1.849326
175.692000	1461.324115	11.445952	-0.043614	1.849296
175.735114	1460.817721	11.450957	-0.043624	1.848994
175.747657	1460.811964	11.455962	-0.043627	1.848992
175.847369	1460.819718	11.460967	-0.043652	1.849006
175.798754	1460.798267	11.465971	-0.043640	1.848988
175.900922	1460.802541	11.470976	-0.043664	1.849000
175.835418	1460.794283	11.475981	-0.043648	1.848989
175.800968	1460.280744	11.480986	-0.043640	1.848676
175.865615	1460.283793	11.485991	-0.043655	1.848684
175.702808	1460.289697	11.490995	-0.043615	1.848672
175.697084	1460.307683	11.496000	-0.043614	1.848683
175.666145	1460.311185	11.501005	-0.043606	1.848682
175.744991	1460.278707	11.506010	-0.043626	1.848669
175.671772	1460.310929	11.511015	-0.043608	1.848682
175.575086	1459.909129	11.516019	-0.043584	1.848430
175.595404	1459.786643	11.521024	-0.043588	1.848358
175.703484	1459.772942	11.526029	-0.043615	1.848360
175.762866	1459.749916	11.531034	-0.043629	1.848352
175.768497	1459.766156	11.536039	-0.043630	1.848362
175.677844	1459.765642	11.541043	-0.043608	1.848353
175.679067	1459.780491	11.546048	-0.043608	1.848362
175.691526	1459.772680	11.551053	-0.043611	1.848359
175.691978	1459.760508	11.556058	-0.043611	1.848351
175.727910	1459.345403	11.561063	-0.043620	1.848104
175.620028	1459.275696	11.566067	-0.043593	1.848052
175.638714	1459.289153	11.571072	-0.043598	1.848062
175.818396	1459.262908	11.576077	-0.043642	1.848062
175.809951	1459.248486	11.581082	-0.043640	1.848053
175.889715	1459.253860	11.586087	-0.043659	1.848063
175.794173	1459.252550	11.591091	-0.043636	1.848054
175.860010	1458.738350	11.596096	-0.043651	1.847749
175.785947	1458.717727	11.601101	-0.043633	1.847730
175.661502	1458.727577	11.606106	-0.043603	1.847724
175.869586	1458.721514	11.611111	-0.043653	1.847740
175.828859	1458.696032	11.616115	-0.043643	1.847721
175.843426	1458.704951	11.621120	-0.043647	1.847727
175.841497	1458.188843	11.626125	-0.043646	1.847415
175.831840	1458.185979	11.631130	-0.043643	1.847413
175.849725	1458.196971	11.636135	-0.043648	1.847421
175.787229	1458.183879	11.641139	-0.043632	1.847407
175.971293	1458.178655	11.646144	-0.043677	1.847421
175.918119	1457.842783	11.651149	-0.043664	1.847213
175.795905	1457.672006	11.656154	-0.043634	1.847099
175.798604	1457.690751	11.661159	-0.043635	1.847110
175.754421	1457.669428	11.666163	-0.043624	1.847093
175.649703	1457.699759	11.671168	-0.043598	1.847102
175.558725	1457.711192	11.676173	-0.043576	1.847100
175.508974	1457.713195	11.681178	-0.043563	1.847097
175.532410	1457.723848	11.686183	-0.043569	1.847105
175.507085	1457.715901	11.691187	-0.043563	1.847098
175.585113	1457.710681	11.696192	-0.043582	1.847102
175.614672	1457.317490	11.701197	-0.043589	1.846867
175.578252	1457.200719	11.706202	-0.043580	1.846793
175.588385	1457.217286	11.711207	-0.043582	1.846804
175.676746	1457.187492	11.716211	-0.043604	1.846794
175.756306	1457.190815	11.721216	-0.043623	1.846804
175.793572	1457.179714	11.726221	-0.043632	1.846800
175.828508	1457.166131	11.731226	-0.043640	1.846795
175.809434	1457.188732	11.736231	-0.043636	1.846807
175.887750	1456.784498	11.741235	-0.043654	1.846570
175.936365	1456.608468	11.746240	-0.043666	1.846468
175.908930	1456.605239	11.751245	-0.043659	1.846464
175.741768	1456.622438	11.756250	-0.043618	1.846459
175.798350	1456.628769	11.761255	-0.043632	1.846468
175.839500	1456.379797	11.766259	-0.043642	1.846321
175.773405	1456.103429	11.771264	-0.043626	1.846148
175.797360	1456.100570	11.776269	-0.043631	1.846148
175.731980	1456.104462	11.781274	-0.043615	1.846144
175.711473	1456.118500	11.786279	-0.043610	1.846151
175.417169	1456.147230	11.791283	-0.043538	1.846141
175.581005	1456.135792	11.796288	-0.043578	1.846149
175.637287	1456.125128	11.801293	-0.043592	1.846148
175.564726	1456.123153	11.806298	-0.043574	1.846140
175.722444	1456.125563	11.811303	-0.043613	1.846156
175.704536	1455.583958	11.816307	-0.043608	1.845827
175.766512	1455.585324	11.821312	-0.043623	1.845833
175.927264	1455.556804	11.826317	-0.043662	1.845831
175.883921	1455.548537	11.831322	-0.043651	1.845822
176.190029	1455.506980	11.836327	-0.043726	1.845825
176.009664	1455.037393	11.841331	-0.043682	1.845524
176.070309	1455.043606	11.846336	-0.043696	1.845534
176.055576	1455.045657	11.851341	-0.043693	1.845534
175.894524	1455.018058	11.856346	-0.043653	1.845502
175.874684	1454.544027	11.861351	-0.043648	1.845213
175.915880	1454.516585	11.866355	-0.043658	1.845201
175.855919	1454.538228	11.871360	-0.043643	1.845208
175.872947	1454.538496	11.876365	-0.043647	1.845210
175.781657	1454.540699	11.881370	-0.043625	1.845203
175.636221	1454.115973	11.886375	-0.043589	1.844932
175.550971	1454.059721	11.891379	-0.043568	1.844890
175.636253	1454.065753	11.896384	-0.043589	1.844902
175.533364	1454.078255	11.901389	-0.043564	1.844900
175.650194	1454.045386	11.906394	-0.043592	1.844891
175.688336	1454.062530	11.911399	-0.043601	1.844904
175.638003	1454.051736	11.916403	-0.043589	1.844893
175.576199	1454.079079	11.921408	-0.043574	1.844904
175.625431	1454.072334	11.926413	-0.043586	1.844904
175.591439	1454.058254	11.931418	-0.043577	1.844893
175.669133	1454.064678	11.936423	-0.043596	1.844904
175.741044	1453.827949	11.941427	-0.043614	1.844767
175.611763	1453.553801	11.946432	-0.043582	1.844589
175.607628	1453.557319	11.951437	-0.043581	1.844591
175.752236	1453.526115	11.956442	-0.043616	1.844586
175.824860	1453.528670	11.961447	-0.043634	1.844594
175.703775	1453.523078	11.966451	-0.043604	1.844579
175.693546	1453.545331	11.971456	-0.043601	1.844592
175.649080	1453.542150	11.976461	-0.043590	1.844586
175.741126	1453.470531	11.981466	-0.043613	1.844551
175.775044	1453.157926	11.986471	-0.043621	1.844365
175.777181	1453.143201	11.991475	-0.043621	1.844356
175.799022	1453.146080	11.996480	-0.043627	1.844360
175.847371	1453.141016	12.001485	-0.043638	1.844361
175.835845	1453.132259	12.006490	-0.043635	1.844355
175.720707	1453.168569	12.011495	-0.043607	1.844366
175.610284	1452.684003	12.016499	-0.043580	1.844062
175.616896	1452.616763	12.021504	-0.043581	1.844022
175.743526	1452.598893	12.026509	-0.043612	1.844023
175.694433	1452.590755	12.031514	-0.043600	1.844014
175.897630	1452.576587	12.036519	-0.043650	1.844024
175.921375	1452.556480	12.041523	-0.043655	1.844014
176.044557	1452.377983	12.046528	-0.043685	1.843917
175.905542	1452.045656	12.051533	-0.043651	1.843703
175.934252	1452.027882	12.056538	-0.043658	1.843695
175.894079	1452.055759	12.061543	-0.043648	1.843708
175.925190	1452.025757	12.066547	-0.043656	1.843693
175.703937	1451.697096	12.071552	-0.043601	1.843473
175.641103	1451.559612	12.076557	-0.043586	1.843384
175.546745	1451.563338	12.081562	-0.043563	1.843377
175.335377	1451.615984	12.086567	-0.043511	1.843390
175.372824	1451.590425	12.091571	-0.043520	1.843378
175.412321	1451.594709	12.096576	-0.043529	1.843384
175.542107	1451.572740	12.101581	-0.043561	1.843383
175.599943	1451.552811	12.106586	-0.043575	1.843376
175.738407	1451.550645	12.111591	-0.043609	1.843387
175.782727	1451.523255	12.116595	-0.043620	1.843375
175.923220	1451.509951	12.121600	-0.043654	1.843380
175.890939	1451.525528	12.126605	-0.043646	1.843386
175.976942	1451.024949	12.131610	-0.043667	1.843091
175.935759	1451.029007	12.136615	-0.043656	1.843090
175.936678	1451.011128	12.141619	-0.043657	1.843079
175.812451	1451.042387	12.146624	-0.043626	1.843086
175.752866	1451.054944	12.151629	-0.043612	1.843088
175.656884	1450.513111	12.156634	-0.043588	1.842751
175.734582	1450.521824	12.161639	-0.043607	1.842764
175.565375	1450.521604	12.166643	-0.043565	1.842748
175.537182	1450.531654	12.171648	-0.043558	1.842751
175.541880	1450.532523	12.176653	-0.043559	1.842752
175.492393	1450.529356	12.181658	-0.043547	1.842746
175.556302	1450.542508	12.186663	-0.043563	1.842759
175.582928	1450.513465	12.191667	-0.043569	1.842744
175.499336	1450.542855	12.196672	-0.043549	1.842754
175.498811	1450.547362	12.201677	-0.043548	1.842757
175.596773	1450.518688	12.206682	-0.043572	1.842749
175.699884	1450.524782	12.211687	-0.043597	1.842762
175.640394	1450.511299	12.216691	-0.043583	1.842748
175.790777	1450.209941	12.221696	-0.043619	1.842580
175.823284	1449.984185	12.226701	-0.043627	1.842446
175.802869	1449.973458	12.231706	-0.043622	1.842437
175.874793	1449.976614	12.236711	-0.043639	1.842446
175.902747	1449.954326	12.241715	-0.043646	1.842435
175.905018	1449.941656	12.246720	-0.043647	1.842428
175.941962	1449.442432	12.251725	-0.043655	1.842129
175.807199	1449.447490	12.256730	-0.043622	1.842119
175.743572	1449.487459	12.261735	-0.043607	1.842137
175.748497	1449.461246	12.266739	-0.043608	1.842122
175.714936	1449.477530	12.271744	-0.043599	1.842129
175.775247	1449.474740	12.276749	-0.043614	1.842132
175.604990	1449.134182	12.281754	-0.043572	1.841910
175.545330	1449.014369	12.286759	-0.043557	1.841832
175.568792	1448.992005	12.291763	-0.043563	1.841821
175.651755	1448.985472	12.296768	-0.043583	1.841824
175.749460	1448.972808	12.301773	-0.043607	1.841826
175.721287	1448.966112	12.306778	-0.043600	1.841819
175.699610	1448.980824	12.311783	-0.043595	1.841826
175.770303	1448.957377	12.316787	-0.043612	1.841818
175.771416	1448.965493	12.321792	-0.043612	1.841823
175.736058	1448.668372	12.326797	-0.043603	1.841640
175.554161	1448.434508	12.331802	-0.043558	1.841481
175.624335	1448.456204	12.336807	-0.043576	1.841501
175.559633	1448.443028	12.341811	-0.043560	1.841487
175.505769	1448.462174	12.346816	-0.043546	1.841493
175.529240	1448.467879	12.351821	-0.043552	1.841499
175.536323	1448.444691	12.356826	-0.043554	1.841485
175.593763	1448.461136	12.361831	-0.043568	1.841501
175.565193	1448.446779	12.366835	-0.043561	1.841489
175.710390	1448.425520	12.371840	-0.043596	1.841490
175.693503	1448.433828	12.376845	-0.043592	1.841493
175.757043	1448.409165	12.381850	-0.043607	1.841484
175.829204	1448.096333	12.386855	-0.043625	1.841301
175.688489	1447.899436	12.391859	-0.043590	1.841169
175.694643	1447.910893	12.396864	-0.043592	1.841176
175.690575	1447.908475	12.401869	-0.043590	1.841174
175.688972	1447.899499	12.406874	-0.043590	1.841169
175.841844	1447.896109	12.411879	-0.043627	1.841181
175.919605	1447.865913	12.416883	-0.043646	1.841170
175.883684	1447.480687	12.421888	-0.043637	1.840933
175.846574	1447.357733	12.426893	-0.043628	1.840855
175.739457	1447.361646	12.431898	-0.043602	1.840847
175.845549	1447.372397	12.436903	-0.043627	1.840864
175.799842	1447.363515	12.441907	-0.043616	1.840854
175.840455	1447.330799	12.446912	-0.043626	1.840838
175.852843	1446.879274	12.451917	-0.043629	1.840565
175.883196	1446.856118	12.456922	-0.043636	1.840554
175.770462	1446.896416	12.461927	-0.043608	1.840568
175.674703	1446.890606	12.466931	-0.043585	1.840555
175.729014	1446.888215	12.471936	-0.043598	1.840559
175.615764	1446.917525	12.476941	-0.043570	1.840566
175.538862	1446.904954	12.481946	-0.043551	1.840551
175.555081	1446.781285	12.486951	-0.043555	1.840478
175.650094	1446.354448	12.491955	-0.043578	1.840228
175.619097	1446.367756	12.496960	-0.043571	1.840233
175.699378	1446.366770	12.501965	-0.043590	1.840240
175.754244	1446.334956	12.506970	-0.043603	1.840226
175.843486	1446.345458	12.511975	-0.043625	1.840240
175.758442	1446.341864	12.516979	-0.043604	1.840230
175.859574	1446.335354	12.521984	-0.043629	1.840236
175.934472	1445.949742	12.526989	-0.043647	1.840009
175.805206	1445.821740	12.531994	-0.043615	1.839919
175.740566	1445.852830	12.536999	-0.043599	1.839932
175.686687	1445.845988	12.542003	-0.043586	1.839922
175.531148	1445.872544	12.547008	-0.043548	1.839924
175.437008	1445.897369	12.552013	-0.043525	1.839930
175.388271	1445.883304	12.557018	-0.043513	1.839917
175.432945	1445.902717	12.562023	-0.043524	1.839933
175.322183	1445.900256	12.567027	-0.043497	1.839921
175.437539	1445.890524	12.572032	-0.043525	1.839926
175.479957	1445.889187	12.577037	-0.043535	1.839929
175.560444	1445.855235	12.582042	-0.043555	1.839916
175.671959	1445.865133	12.587047	-0.043582	1.839932
175.785707	1445.828120	12.592051	-0.043609	1.839920
175.699332	1445.536594	12.597056	-0.043588	1.839736
175.723192	1445.335916	12.602061	-0.043594	1.839616
175.712493	1445.323974	12.607066	-0.043591	1.839608
175.827819	1445.324791	12.612071	-0.043619	1.839619
175.878104	1445.299091	12.617075	-0.043631	1.839608
175.814888	1445.310667	12.622080	-0.043616	1.839609
175.877551	1445.213093	12.627085	-0.043631	1.839556
175.875566	1444.943362	12.632090	-0.043630	1.839392
175.796827	1444.978934	12.637095	-0.043611	1.839406
175.736581	1444.974878	12.642099	-0.043596	1.839398
175.576885	1445.003106	12.647104	-0.043557	1.839400
175.725039	1444.991664	12.652109	-0.043593	1.839407
175.625107	1444.986001	12.657114	-0.043569	1.839394
175.814592	1444.921900	12.662119	-0.043615	1.839373
175.759575	1444.409102	12.667123	-0.043601	1.839056
175.780064	1444.413709	12.672128	-0.043606	1.839061
175.673501	1444.443531	12.677133	-0.043580	1.839069
175.734841	1444.416390	12.682138	-0.043595	1.839059
175.646620	1444.451618	12.687143	-0.043573	1.839072
175.565180	1444.451343	12.692147	-0.043553	1.839064
175.713225	1444.436056	12.697152	-0.043589	1.839068
175.849120	1444.369665	12.702157	-0.043622	1.839041
175.557029	1443.917629	12.707162	-0.043551	1.838739
175.692829	1443.921708	12.712167	-0.043584	1.838754
175.660521	1443.905130	12.717171	-0.043576	1.838741
175.510238	1443.933455	12.722176	-0.043539	1.838744
175.618376	1443.927394	12.727181	-0.043565	1.838751
175.702866	1443.896691	12.732186	-0.043586	1.838740
175.719551	1443.915509	12.737191	-0.043590	1.838753
175.791919	1443.889244	12.742195	-0.043607	1.838743
175.684614	1443.909666	12.747200	-0.043581	1.838746
175.691267	1443.559799	12.752205	-0.043582	1.838534
175.684605	1443.367546	12.757210	-0.043581	1.838417
175.657523	1443.397469	12.762215	-0.043574	1.838432
175.571164	1443.400014	12.767219	-0.043553	1.838426
175.640455	1443.388620	12.772224	-0.043570	1.838425
175.531325	1443.411639	12.777229	-0.043543	1.838429
175.479689	1443.406267	12.782234	-0.043530	1.838421
175.502494	1443.417712	12.787239	-0.043536	1.838430
175.585660	1443.385929	12.792243	-0.043556	1.838418
175.601888	1443.386561	12.797248	-0.043560	1.838420
175.632079	1443.398411	12.802253	-0.043567	1.838430
175.649468	1443.370329	12.807258	-0.043571	1.838415
175.689414	1443.278364	12.812263	-0.043581	1.838363
175.628352	1442.898385	12.817267	-0.043566	1.838126
175.765196	1442.876588	12.822272	-0.043599	1.838126
176.074945	1442.838962	12.827277	-0.043675	1.838132
175.766772	1442.875409	12.832282	-0.043599	1.838125
175.808883	1442.883878	12.837287	-0.043609	1.838134
175.750648	1442.888779	12.842291	-0.043595	1.838132
175.761004	1442.377063	12.847296	-0.043597	1.837822
175.675262	1442.370011	12.852301	-0.043576	1.837809
175.568265	1442.366747	12.857306	-0.043550	1.837797
175.573197	1442.386335	12.862311	-0.043551	1.837810
175.566600	1442.374804	12.867315	-0.043549	1.837802
175.502233	1442.387589	12.872320	-0.043534	1.837804
175.406516	1442.415481	12.877325	-0.043510	1.837812
175.406793	1442.394926	12.882330	-0.043510	1.837799
175.541571	1442.390149	12.887335	-0.043543	1.837809
175.628224	1442.367599	12.892339	-0.043564	1.837803
175.708516	1442.349369	12.897344	-0.043584	1.837800
175.774326	1442.353929	12.902349	-0.043600	1.837809
175.886199	1442.182043	12.907354	-0.043627	1.837715
175.964462	1441.816973	12.912359	-0.043646	1.837500
175.853255	1441.819757	12.917363	-0.043618	1.837491
175.855634	1441.817895	12.922368	-0.043619	1.837490
175.921337	1441.821696	12.927373	-0.043635	1.837499
175.814791	1441.601001	12.932378	-0.043609	1.837355
175.636464	1441.351306	12.937383	-0.043565	1.837186
175.427945	1441.364973	12.942387	-0.043514	1.837175
175.292249	1441.382066	12.947392	-0.043481	1.837173
175.327416	1441.399045	12.952397	-0.043489	1.837186
175.315009	1441.373771	12.957402	-0.043486	1.837170
175.224077	1441.593602	12.962407	-0.043464	1.837295
175.309598	1441.895980	12.967411	-0.043485	1.837487
175.363831	1441.889215	12.972416	-0.043498	1.837488
175.541201	1441.875561	12.977421	-0.043541	1.837496
175.537677	1441.847373	12.982426	-0.043540	1.837478
175.767203	1441.521482	12.987431	-0.043596	1.837302
175.825639	1441.294670	12.992435	-0.043610	1.837169
175.906645	1441.288147	12.997440	-0.043630	1.837173
175.804695	1441.317255	13.002445	-0.043605	1.837181
175.672348	1441.322529	13.007450	-0.043573	1.837172
175.785505	1441.324156	13.012455	-0.043600	1.837183
175.586740	1441.340687	13.017459	-0.043551	1.837175
175.386548	1440.943867	13.022464	-0.043502	1.836915
175.290760	1441.402553	13.027469	-0.043479	1.837185
175.169143	1441.394357	13.032474	-0.043449	1.837168
175.236367	1441.403572	13.037479	-0.043466	1.837180
175.279699	1441.393604	13.042483	-0.043476	1.837178
175.252821	1441.401644	13.047488	-0.043469	1.837180
175.355161	1441.391321	13.052493	-0.043494	1.837184
175.587538	1441.338876	13.057498	-0.043551	1.837174
175.711908	1441.339546	13.062503	-0.043581	1.837186
175.843766	1441.305410	13.067507	-0.043614	1.837177
175.926388	1440.899955	13.072512	-0.043633	1.836939
176.056587	1440.790813	13.077517	-0.043665	1.836884
176.165217	1440.746128	13.082522	-0.043691	1.836867
176.139951	1440.662735	13.087527	-0.043685	1.836814
175.957399	1440.238110	13.092531	-0.043640	1.836539
175.961692	1440.230561	13.097536	-0.043641	1.836535
175.917431	1440.256430	13.102541	-0.043630	1.836546
175.740106	1440.263762	13.107546	-0.043587	1.836534
175.722496	1440.149676	13.112551	-0.043582	1.836463
175.570124	1439.779551	13.117555	-0.043545	1.836224
175.412576	1439.796425	13.122560	-0.043506	1.836219
175.385206	1439.815580	13.127565	-0.043500	1.836228
175.198410	1439.952761	13.132570	-0.043454	1.836294
175.230694	1440.354843	13.137575	-0.043462	1.836542
175.305123	1440.337516	13.142579	-0.043480	1.836538
175.251749	1440.342703	13.147584	-0.043467	1.836536
175.306935	1440.351710	13.152589	-0.043480	1.836547
175.469302	1440.313645	13.157594	-0.043520	1.836539
175.747626	1440.282882	13.162599	-0.043588	1.836546
175.911645	1440.156992	13.167603	-0.043628	1.836485
175.926250	1439.725700	13.172608	-0.043631	1.836224
176.132056	1439.696347	13.177613	-0.043681	1.836226
176.160823	1439.676041	13.182618	-0.043688	1.836216
176.104025	1439.326413	13.187623	-0.043674	1.835998
175.940577	1439.195809	13.192627	-0.043634	1.835903
175.776368	1439.213713	13.197632	-0.043594	1.835899
175.727401	1439.241071	13.202637	-0.043582	1.835911
175.538546	1439.248396	13.207642	-0.043535	1.835897
175.396622	1439.282376	13.212647	-0.043501	1.835905
175.325033	1439.286008	13.217651	-0.043483	1.835900
175.330954	1439.288479	13.222656	-0.043485	1.835902
175.325455	1439.297587	13.227661	-0.043483	1.835907
175.229760	1439.297489	13.232666	-0.043460	1.835898
175.333679	1439.303857	13.237671	-0.043485	1.835912
175.450147	1439.271837	13.242675	-0.043513	1.835903
175.468740	1439.262600	13.247680	-0.043518	1.835899
175.449311	1439.283353	13.252685	-0.043513	1.835910
175.356627	1439.274062	13.257690	-0.043490	1.835896
175.476269	1439.280574	13.262695	-0.043519	1.835911
175.581092	1439.250605	13.267699	-0.043545	1.835902
175.625283	1439.240248	13.272704	-0.043556	1.835900
175.547276	1439.274905	13.277709	-0.043537	1.835914
175.565480	1439.241339	13.282714	-0.043541	1.835895
175.473903	1439.280655	13.287719	-0.043519	1.835911
175.604179	1439.254979	13.292723	-0.043550	1.835907
175.518599	1439.260766	13.297728	-0.043529	1.835903
175.546739	1439.119135	13.302733	-0.043536	1.835819
175.517556	1438.765336	13.307738	-0.043529	1.835601
175.743080	1438.755782	13.312743	-0.043584	1.835616
175.626199	1438.759979	13.317747	-0.043555	1.835608
175.738260	1438.736596	13.322752	-0.043582	1.835604
175.735566	1438.756051	13.327757	-0.043581	1.835616
175.767598	1438.728830	13.332762	-0.043589	1.835602
175.795878	1438.738635	13.337767	-0.043596	1.835611
175.820231	1438.646631	13.342771	-0.043602	1.835557
175.598787	1438.225503	13.347776	-0.043547	1.835280
175.616811	1438.240222	13.352781	-0.043552	1.835291
175.463219	1438.242638	13.357786	-0.043514	1.835278
175.502630	1438.252265	13.362791	-0.043524	1.835287
175.394453	1438.267186	13.367795	-0.043497	1.835286
175.394126	1438.255221	13.372800	-0.043497	1.835279
175.422615	1438.272433	13.377805	-0.043504	1.835292
175.375000	1438.256977	13.382810	-0.043492	1.835278
175.306121	1438.279957	13.387815	-0.043475	1.835286
175.389518	1438.257911	13.392819	-0.043496	1.835280
175.546695	1438.236812	13.397824	-0.043534	1.835282
175.539864	1438.247407	13.402829	-0.043532	1.835288
175.450483	1438.238387	13.407834	-0.043510	1.835274
175.630133	1438.226657	13.412839	-0.043554	1.835284
175.568769	1438.233081	13.417843	-0.043539	1.835282
175.595101	1438.222909	13.422848	-0.043545	1.835278
175.721640	1438.219108	13.427853	-0.043576	1.835287
175.817999	1438.185569	13.432858	-0.043600	1.835276
175.719299	1438.219817	13.437863	-0.043576	1.835288
175.596813	1438.228731	13.442867	-0.043546	1.835282
175.715942	1437.809583	13.447872	-0.043574	1.835038
175.655828	1437.722414	13.452877	-0.043559	1.834979
175.548819	1437.713038	13.457882	-0.043533	1.834963
175.618731	1437.721296	13.462887	-0.043550	1.834975
175.553842	1437.734935	13.467891	-0.043534	1.834977
175.657503	1437.706688	13.472896	-0.043560	1.834969
175.581344	1437.733867	13.477901	-0.043541	1.834979
175.549515	1437.724194	13.482906	-0.043533	1.834970
175.642632	1437.720664	13.487911	-0.043556	1.834976
175.580704	1437.725380	13.492915	-0.043541	1.834974
175.618077	1437.714790	13.497920	-0.043550	1.834971
175.619299	1437.733378	13.502925	-0.043550	1.834982
175.453876	1437.729414	13.507930	-0.043509	1.834964
175.573015	1437.341376	13.512935	-0.043538	1.834739
175.499032	1437.227373	13.517939	-0.043520	1.834663
175.409175	1437.234600	13.522944	-0.043498	1.834659
175.488942	1437.235690	13.527949	-0.043517	1.834667
175.331844	1437.245329	13.532954	-0.043479	1.834658
175.456280	1437.233890	13.537959	-0.043509	1.834663
175.477553	1437.219369	13.542963	-0.043514	1.834656
175.423646	1437.215410	13.547968	-0.043501	1.834648
175.579673	1437.215263	13.552973	-0.043539	1.834663
175.567771	1437.195081	13.557978	-0.043536	1.834649
175.807407	1437.176402	13.562983	-0.043595	1.834660
175.817867	1437.165857	13.567987	-0.043597	1.834655
175.897465	1437.149528	13.572992	-0.043616	1.834652
175.992885	1437.126143	13.577997	-0.043640	1.834647
175.872073	1436.761300	13.583002	-0.043610	1.834414
175.845974	1436.779221	13.588007	-0.043603	1.834422
175.781522	1436.790229	13.593011	-0.043587	1.834423
175.735602	1436.779141	13.598016	-0.043576	1.834412
175.603774	1436.829008	13.603021	-0.043544	1.834430
175.410059	1436.832240	13.608026	-0.043497	1.834413
175.472676	1436.836228	13.613031	-0.043512	1.834422
175.406131	1436.842684	13.618035	-0.043495	1.834419
175.383567	1436.836205	13.623040	-0.043490	1.834413
175.347244	1436.865193	13.628045	-0.043481	1.834427
175.395116	1436.831694	13.633050	-0.043493	1.834412
175.658781	1436.812898	13.638055	-0.043557	1.834425
175.612367	1436.813686	13.643059	-0.043545	1.834421
175.706431	1436.673029	13.648064	-0.043568	1.834344
175.821478	1436.243168	13.653069	-0.043596	1.834093
175.801645	1436.224215	13.658074	-0.043591	1.834080
175.898119	1436.223237	13.663079	-0.043615	1.834088
175.958679	1436.210355	13.668083	-0.043629	1.834086
175.997235	1436.115464	13.673088	-0.043639	1.834032
175.854568	1435.706941	13.678093	-0.043603	1.833770
175.773641	1435.702028	13.683098	-0.043583	1.833759
175.497960	1435.763043	13.688103	-0.043516	1.833770
175.258102	1435.794944	13.693107	-0.043457	1.833767
175.211337	1435.789380	13.698112	-0.043446	1.833760
175.257714	1435.799968	13.703117	-0.043457	1.833770
175.249947	1435.778903	13.708122	-0.043455	1.833757
175.315192	1435.789146	13.713127	-0.043471	1.833769
175.447930	1435.771802	13.718131	-0.043503	1.833771
175.557377	1435.744459	13.723136	-0.043530	1.833765
175.696620	1435.742010	13.728141	-0.043564	1.833776
175.802513	1435.701112	13.733146	-0.043590	1.833761
175.924421	1435.700824	13.738151	-0.043620	1.833772
175.906051	1435.703958	13.743155	-0.043615	1.833772
175.778029	1435.708359	13.748160	-0.043584	1.833763
175.810138	1435.199884	13.753165	-0.043591	1.833457
175.479831	1435.230611	13.758170	-0.043510	1.833444
175.465841	1435.234609	13.763175	-0.043507	1.833445
175.400973	1435.244401	13.768179	-0.043491	1.833445
175.299918	1435.257979	13.773184	-0.043466	1.833444
175.278815	1435.277687	13.778189	-0.043461	1.833454
175.188251	1435.270419	13.783194	-0.043439	1.833441
175.242566	1435.734620	13.788199	-0.043452	1.833729
175.280110	1435.792981	13.793203	-0.043461	1.833768
175.310673	1435.779853	13.798208	-0.043469	1.833762
175.365459	1435.796067	13.803213	-0.043482	1.833777
175.470147	1435.750740	13.808218	-0.043508	1.833760
175.651360	1435.733358	13.813223	-0.043552	1.833766
175.695668	1435.714007	13.818227	-0.043562	1.833758
175.712027	1435.190787	13.823232	-0.043566	1.833441
175.757420	1435.206907	13.828237	-0.043577	1.833455
175.744220	1435.190016	13.833242	-0.043574	1.833444
175.751391	1435.198186	13.838247	-0.043575	1.833450
175.755877	1435.196258	13.843251	-0.043576	1.833449
175.759034	1435.174025	13.848256	-0.043577	1.833435
175.770384	1435.183858	13.853261	-0.043580	1.833442
175.539254	1434.739650	13.858266	-0.043523	1.833150
175.457518	1434.762298	13.863271	-0.043503	1.833156
175.405581	1434.767534	13.868275	-0.043490	1.833155
175.350036	1434.767174	13.873280	-0.043477	1.833149
175.400563	1434.775321	13.878285	-0.043489	1.833159
175.493324	1434.746450	13.883290	-0.043511	1.833150
175.504672	1434.756794	13.888295	-0.043514	1.833157
175.661130	1434.728866	13.893299	-0.043552	1.833155
175.804403	1434.696307	13.898304	-0.043587	1.833149
175.957052	1434.697933	13.903309	-0.043624	1.833164
175.990718	1434.664590	13.908314	-0.043633	1.833147
175.988097	1434.542001	13.913319	-0.043632	1.833072
175.894930	1434.155293	13.918323	-0.043609	1.832827
175.678143	1434.176473	13.923328	-0.043556	1.832820
175.567080	1434.222352	13.928333	-0.043528	1.832837
175.526958	1434.198345	13.933338	-0.043519	1.832819
175.383488	1434.228207	13.938343	-0.043483	1.832824
175.149926	1434.264532	13.943347	-0.043426	1.832824
175.164524	1434.255919	13.948352	-0.043430	1.832820
175.019438	1434.295770	13.953357	-0.043394	1.832831
174.958336	1434.556153	13.958362	-0.043379	1.832983
175.000967	1434.829011	13.963367	-0.043390	1.833154
175.177647	1434.808730	13.968371	-0.043433	1.833158
175.213191	1434.785351	13.973376	-0.043442	1.833147
175.500415	1434.763146	13.978381	-0.043512	1.833160
175.710365	1434.712871	13.983386	-0.043563	1.833149
175.854116	1434.698182	13.988391	-0.043598	1.833154
176.018207	1434.554240	13.993395	-0.043638	1.833082
176.055743	1434.108927	13.998400	-0.043647	1.832814
176.112018	1434.128229	14.003405	-0.043660	1.832831
176.128265	1434.108598	14.008410	-0.043664	1.832820
175.816509	1433.773086	14.013415	-0.043588	1.832587
175.853510	1433.653393	14.018419	-0.043597	1.832517
175.664588	1433.666436	14.023424	-0.043550	1.832507
175.467980	1433.720639	14.028429	-0.043502	1.832522
175.294604	1433.725903	14.033434	-0.043460	1.832509
175.138751	1433.761008	14.038439	-0.043422	1.832516
175.134562	1433.769131	14.043443	-0.043421	1.832520
175.087021	1433.752679	14.048448	-0.043409	1.832506
175.236959	1434.217264	14.053453	-0.043446	1.832803
175.326858	1434.231891	14.058458	-0.043468	1.832820
175.497224	1434.213350	14.063463	-0.043509	1.832825
175.514646	1434.218653	14.068467	-0.043514	1.832829
175.725777	1433.867841	14.073472	-0.043565	1.832636
175.753891	1433.673409	14.078477	-0.043571	1.832520
175.949908	1433.625539	14.083482	-0.043619	1.832509
176.133281	1433.607037	14.088487	-0.043664	1.832515
176.124102	1433.563143	14.093491	-0.043662	1.832487
176.124894	1433.072654	14.098496	-0.043661	1.832189
175.980572	1433.124427	14.103501	-0.043626	1.832206
175.963517	1433.108145	14.108506	-0.043622	1.832195
175.870416	1433.018793	14.113511	-0.043599	1.832132
175.760770	1432.652257	14.118515	-0.043572	1.831898
175.616878	1432.658877	14.123520	-0.043537	1.831889
175.586703	1432.688425	14.128525	-0.043529	1.831904
175.558482	1432.677456	14.133530	-0.043522	1.831894
175.465968	1432.692030	14.138535	-0.043500	1.831894
175.562511	1432.684098	14.143539	-0.043523	1.831899
175.633758	1432.652147	14.148544	-0.043540	1.831886
175.704117	1432.671821	14.153549	-0.043558	1.831904
175.659658	1432.659514	14.158554	-0.043547	1.831893
175.753314	1432.652540	14.163559	-0.043569	1.831897
175.831941	1432.382001	14.168563	-0.043588	1.831740
175.652304	1432.109072	14.173568	-0.043544	1.831556
175.689844	1432.120486	14.178573	-0.043553	1.831567
175.590639	1432.122264	14.183578	-0.043529	1.831559
175.502695	1432.144587	14.188583	-0.043507	1.831564
175.461786	1432.154018	14.193587	-0.043497	1.831566
175.520604	1432.132695	14.198592	-0.043512	1.831558
175.442579	1432.166549	14.203597	-0.043493	1.831572
175.337076	1432.161104	14.208602	-0.043467	1.831558
175.292373	1432.178036	14.213607	-0.043456	1.831564
175.348064	1432.171282	14.218611	-0.043469	1.831566
175.384626	1432.148015	14.223616	-0.043478	1.831555
175.377137	1432.172010	14.228621	-0.043476	1.831569
175.457794	1432.141427	14.233626	-0.043496	1.831558
175.498786	1432.139502	14.238631	-0.043506	1.831560
175.599070	1432.129197	14.243635	-0.043530	1.831563
175.657631	1432.106890	14.248640	-0.043544	1.831555
175.811110	1432.104256	14.253645	-0.043582	1.831568
175.696172	1432.106157	14.258650	-0.043554	1.831558
175.818076	1431.986488	14.263655	-0.043583	1.831497
175.736093	1431.591750	14.268659	-0.043563	1.831249
175.705293	1431.581953	14.273664	-0.043555	1.831240
175.757715	1431.597468	14.278669	-0.043568	1.831254
175.536327	1431.615031	14.283674	-0.043514	1.831244
175.450822	1431.636209	14.288679	-0.043493	1.831249
175.423056	1431.643869	14.293683	-0.043486	1.831251
175.432061	1431.622040	14.298688	-0.043488	1.831238
175.406534	1431.645998	14.303693	-0.043482	1.831250
175.470933	1431.617670	14.308698	-0.043498	1.831239
175.584669	1431.608871	14.313703	-0.043525	1.831244
175.705244	1431.606700	14.318707	-0.043555	1.831254
175.730743	1431.580533	14.323712	-0.043561	1.831241
175.794732	1431.597080	14.328717	-0.043576	1.831257
175.855408	1431.107157	14.333722	-0.043591	1.830964
175.833980	1431.053160	14.338727	-0.043585	1.830929
175.945417	1431.038569	14.343731	-0.043613	1.830931
175.787355	1431.047134	14.348736	-0.043574	1.830921
175.701316	1431.083499	14.353741	-0.043553	1.830935
175.547874	1431.085975	14.358746	-0.043515	1.830922
175.648757	1431.065332	14.363751	-0.043540	1.830919
175.669020	1430.604006	14.368755	-0.043544	1.830639
175.399174	1430.625221	14.373760	-0.043478	1.830627
175.461894	1430.631970	14.378765	-0.043494	1.830637
175.398753	1430.627937	14.383770	-0.043478	1.830628
175.523993	1430.614542	14.388775	-0.043509	1.830632
175.469290	1430.630454	14.393779	-0.043495	1.830637
175.585152	1430.594187	14.398784	-0.043523	1.830625
175.735069	1430.590806	14.403789	-0.043560	1.830637
175.740666	1430.577701	14.408794	-0.043561	1.830630
175.779664	1430.581712	14.413799	-0.043571	1.830636
175.614180	1430.612417	14.418803	-0.043530	1.830639
175.458602	1430.611389	14.423808	-0.043492	1.830624
175.479624	1430.635068	14.428813	-0.043497	1.830640
175.433671	1430.625055	14.433818	-0.043486	1.830630
175.349840	1430.640343	14.438823	-0.043465	1.830631
175.438732	1430.634093	14.443827	-0.043487	1.830636
175.402048	1430.619067	14.448832	-0.043478	1.830623
175.436737	1430.635773	14.453837	-0.043486	1.830636
175.426950	1430.622482	14.458842	-0.043484	1.830627
175.526373	1430.613071	14.463847	-0.043508	1.830631
175.559178	1430.611894	14.468851	-0.043516	1.830633
175.619759	1430.584671	14.473856	-0.043531	1.830622
175.817653	1430.130555	14.478861	-0.043579	1.830364
175.863652	1430.016774	14.483866	-0.043590	1.830299
175.891619	1430.017366	14.488871	-0.043597	1.830302
175.863722	1430.036050	14.493875	-0.043590	1.830311
175.800585	1430.020248	14.498880	-0.043574	1.830295
175.848113	1429.833552	14.503885	-0.043586	1.830186
175.799284	1429.527648	14.508890	-0.043573	1.829994
175.725701	1429.537774	14.513895	-0.043555	1.829994
175.631852	1429.561775	14.518899	-0.043532	1.829999
175.345814	1429.586784	14.523904	-0.043462	1.829988
175.305287	1429.612789	14.528909	-0.043452	1.830000
175.185243	1429.616268	14.533914	-0.043423	1.829990
175.266570	1429.605807	14.538919	-0.043443	1.829992
175.283772	1429.618295	14.543923	-0.043447	1.830001
175.158164	1429.619819	14.548928	-0.043416	1.829990
175.318657	1429.838962	14.553933	-0.043456	1.830139
175.435759	1430.091187	14.558938	-0.043484	1.830304
175.650319	1429.652228	14.563943	-0.043536	1.830056
175.640909	1429.557509	14.568947	-0.043534	1.829997
175.837457	1429.512373	14.573952	-0.043582	1.829988
175.931216	1429.514323	14.578957	-0.043605	1.829998
175.959867	1429.496128	14.583962	-0.043611	1.829990
175.935355	1429.479998	14.588967	-0.043605	1.829978
176.008357	1428.994131	14.593971	-0.043623	1.829688
175.889611	1428.991018	14.598976	-0.043594	1.829675
175.934063	1429.007739	14.603981	-0.043605	1.829689
175.774863	1429.016244	14.608986	-0.043566	1.829680
175.694575	1429.021265	14.613991	-0.043546	1.829675
175.626892	1428.759295	14.618995	-0.043529	1.829509
175.401274	1428.693126	14.624000	-0.043474	1.829447
175.314699	1428.728794	14.629005	-0.043453	1.829461
175.228220	1428.999552	14.634010	-0.043432	1.829618
175.191619	1429.103748	14.639015	-0.043423	1.829678
175.178481	1429.117335	14.644019	-0.043419	1.829685
175.280713	1429.082154	14.649024	-0.043444	1.829673
175.396759	1429.085775	14.654029	-0.043473	1.829686
175.546672	1429.052955	14.659034	-0.043509	1.829680
175.518998	1429.053180	14.664039	-0.043502	1.829678
175.556147	1429.057981	14.669043	-0.043511	1.829684
175.664623	1429.021580	14.674048	-0.043538	1.829672
175.787323	1428.871691	14.679053	-0.043568	1.829592
175.629657	1428.664300	14.684058	-0.043529	1.829451
175.621933	1428.673213	14.689063	-0.043527	1.829455
175.671234	1428.673578	14.694067	-0.043539	1.829460
175.538778	1428.674887	14.699072	-0.043506	1.829449
175.621798	1428.683349	14.704077	-0.043527	1.829461
175.376510	1428.711544	14.709082	-0.043467	1.829456
175.400034	1428.705656	14.714087	-0.043472	1.829454
175.420878	1428.711693	14.719091	-0.043477	1.829460
175.324199	1428.710037	14.724096	-0.043454	1.829450
175.449423	1428.715819	14.729101	-0.043484	1.829465
175.244826	1428.732872	14.734106	-0.043434	1.829456
175.302837	1428.717822	14.739111	-0.043448	1.829452
175.459662	1428.711307	14.744115	-0.043486	1.829463
175.342213	1428.704928	14.749120	-0.043458	1.829448
175.472586	1428.700705	14.754125	-0.043489	1.829458
175.452994	1428.692009	14.759130	-0.043485	1.829451
175.511565	1428.690174	14.764135	-0.043499	1.829455
175.723361	1428.674661	14.769139	-0.043550	1.829465
175.762884	1428.642255	14.774144	-0.043560	1.829449
175.788889	1428.655426	14.779149	-0.043566	1.829460
175.905543	1428.628252	14.784154	-0.043595	1.829454
175.812318	1428.141074	14.789159	-0.043572	1.829148
175.698553	1428.120832	14.794163	-0.043544	1.829125
175.598787	1428.119657	14.799168	-0.043519	1.829115
175.637334	1428.131399	14.804173	-0.043529	1.829126
175.567257	1428.123594	14.809178	-0.043511	1.829114
175.268708	1428.170250	14.814183	-0.043438	1.829114
175.307685	1428.174509	14.819187	-0.043448	1.829121
175.233240	1428.171982	14.824192	-0.043430	1.829112
175.218137	1428.191752	14.829197	-0.043426	1.829123
175.151732	1428.191054	14.834202	-0.043409	1.829116
175.256976	1428.170757	14.839207	-0.043435	1.829114
175.466816	1428.155027	14.844211	-0.043486	1.829124
175.519432	1428.124185	14.849216	-0.043499	1.829110
175.684869	1428.121961	14.854221	-0.043539	1.829124
175.746286	1428.095899	14.859226	-0.043554	1.829114
175.945577	1428.072334	14.864231	-0.043603	1.829118
175.833858	1428.096792	14.869235	-0.043576	1.829123
175.821348	1428.076006	14.874240	-0.043572	1.829109
175.816514	1427.769635	14.879245	-0.043571	1.828921
175.631595	1427.593649	14.884250	-0.043526	1.828796
175.498036	1427.613808	14.889255	-0.043493	1.828796
175.508042	1427.632511	14.894259	-0.043495	1.828808
175.374537	1427.630925	14.899264	-0.043463	1.828795
175.234492	1427.674333	14.904269	-0.043428	1.828808
175.151387	1427.666499	14.909274	-0.043408	1.828795
175.150233	1427.888186	14.914279	-0.043408	1.828931
175.392710	1428.166903	14.919283	-0.043467	1.829124
175.421581	1428.141773	14.924288	-0.043474	1.829111
175.523594	1428.147808	14.929293	-0.043499	1.829124
175.742975	1427.860777	14.934298	-0.043552	1.828970
175.642403	1427.594019	14.939303	-0.043527	1.828797

175.804127	1427.584691	14.944307	-0.043567	1.828807
175.689687	1427.583741	14.949312	-0.043539	1.828795
175.899888	1427.281292	14.954317	-0.043590	1.828631
175.619325	1427.074344	14.959322	-0.043521	1.828478
175.690671	1426.863692	14.964327	-0.043538	1.828356
175.478619	1426.625499	14.969331	-0.043486	1.828190
175.137665	1426.437662	14.974336	-0.043403	1.828043
175.139256	1426.132528	14.979341	-0.043403	1.827857
175.266155	1425.843081	14.984346	-0.043434	1.827692
175.225162	1425.564771	14.989351	-0.043423	1.827518
175.335740	1425.082425	14.994355	-0.043450	1.827234
175.368234	1424.630608	14.999360	-0.043457	1.826961
175.478326	1424.136470	15.004365	-0.043484	1.826670
175.520987	1423.569571	15.009370	-0.043494	1.826327
175.479960	1422.914346	15.014375	-0.043483	1.825923
175.479076	1422.316626	15.019379	-0.043483	1.825557
175.429037	1421.670732	15.024384	-0.043470	1.825157
175.536604	1420.969741	15.029389	-0.043496	1.824739
175.454521	1420.320423	15.034394	-0.043475	1.824334
175.284299	1419.554818	15.039399	-0.043433	1.823849
175.349309	1418.768344	15.044403	-0.043448	1.823374
175.193834	1417.922633	15.049408	-0.043409	1.822841
175.234892	1417.140548	15.054413	-0.043419	1.822366
175.055313	1416.248619	15.059418	-0.043374	1.821802
175.022455	1415.327144	15.064423	-0.043365	1.821234
175.018221	1414.456010	15.069427	-0.043364	1.820700
174.914706	1413.507100	15.074432	-0.043338	1.820108
174.780285	1412.681603	15.079437	-0.043304	1.819589
174.826441	1411.701210	15.084442	-0.043315	1.818992
174.700888	1410.699171	15.089447	-0.043283	1.818365
174.626612	1409.681413	15.094451	-0.043264	1.817733
174.763049	1408.567334	15.099456	-0.043297	1.817061
174.876710	1407.400289	15.104461	-0.043324	1.816355
175.014351	1406.181222	15.109466	-0.043356	1.815619
175.142623	1404.887953	15.114471	-0.043387	1.814835
175.230258	1403.614464	15.119475	-0.043407	1.814060
174.924534	1402.293766	15.124480	-0.043331	1.813218
174.918449	1400.911261	15.129485	-0.043329	1.812366
174.709924	1399.556779	15.134490	-0.043277	1.811512
174.454762	1398.249706	15.139495	-0.043214	1.810681
174.352902	1396.929331	15.144499	-0.043188	1.809857
174.215635	1395.622661	15.149504	-0.043153	1.809038
174.196349	1394.265402	15.154509	-0.043147	1.808198
173.920509	1392.908218	15.159514	-0.043079	1.807334
173.781663	1391.470818	15.164519	-0.043044	1.806432
174.018048	1390.050280	15.169523	-0.043101	1.805577
174.013372	1388.601763	15.174528	-0.043098	1.804680
174.212423	1387.070312	15.179533	-0.043146	1.803752
174.182301	1385.446475	15.184538	-0.043137	1.802744
174.337273	1383.703537	15.189543	-0.043174	1.801679
174.298407	1382.031065	15.194547	-0.043163	1.800639
174.174574	1380.384127	15.199552	-0.043132	1.799605
174.166500	1378.668817	15.204557	-0.043128	1.798540
173.993569	1376.892258	15.209562	-0.043085	1.797420
173.600917	1375.178482	15.214567	-0.042987	1.796317
173.585204	1373.467029	15.219571	-0.042982	1.795252
173.343515	1371.813681	15.224576	-0.042922	1.794200
173.101537	1370.115263	15.229581	-0.042862	1.793119
172.969276	1368.386752	15.234586	-0.042828	1.792030
172.937580	1366.630840	15.239591	-0.042819	1.790932
172.873662	1364.936352	15.244595	-0.042802	1.789869
172.665062	1363.204968	15.249600	-0.042750	1.788769
172.558354	1361.432518	15.254605	-0.042722	1.787652
172.748537	1359.541077	15.259610	-0.042767	1.786489
172.677178	1357.689250	15.264615	-0.042749	1.785324
172.794286	1355.856797	15.269619	-0.042776	1.784189
172.800860	1353.854323	15.274624	-0.042776	1.782936
172.896549	1351.793212	15.279629	-0.042798	1.781654
172.927883	1349.734684	15.284634	-0.042804	1.780367
172.949676	1347.696047	15.289639	-0.042808	1.779090
172.898987	1345.552910	15.294643	-0.042794	1.777740
172.680705	1343.377099	15.299648	-0.042739	1.776351
172.667644	1341.271103	15.304653	-0.042734	1.775026
172.478681	1339.126099	15.309658	-0.042686	1.773658
172.137182	1336.995353	15.314663	-0.042601	1.772282
171.939977	1334.901119	15.319667	-0.042552	1.770943
171.548919	1332.882035	15.324672	-0.042455	1.769630
171.423439	1330.822043	15.329677	-0.042422	1.768318
171.128787	1328.777866	15.334682	-0.042349	1.766997
171.059510	1326.686989	15.339687	-0.042330	1.765669
170.959312	1324.728374	15.344691	-0.042304	1.764420
171.043813	1322.532313	15.349696	-0.042323	1.763038
171.088555	1320.356038	15.354701	-0.042333	1.761664
171.148250	1318.145869	15.359706	-0.042346	1.760268
171.377313	1315.893521	15.364711	-0.042400	1.758862
171.428121	1313.512058	15.369715	-0.042411	1.757355
171.452760	1311.063599	15.374720	-0.042415	1.755801
171.360195	1308.734400	15.379725	-0.042391	1.754310
171.282220	1306.276001	15.384730	-0.042370	1.752737
170.965603	1303.847499	15.389735	-0.042291	1.751157
170.790376	1301.551078	15.394739	-0.042246	1.749675
170.593311	1299.146698	15.399744	-0.042196	1.748120
170.553599	1296.723035	15.404749	-0.042185	1.746567
170.195994	1294.397477	15.409754	-0.042095	1.745043
169.996294	1292.051238	15.414759	-0.042045	1.743521
169.975846	1289.642174	15.419763	-0.042038	1.741976
169.657757	1287.280479	15.424768	-0.041959	1.740429
169.645733	1284.965068	15.429773	-0.041954	1.738942
169.568870	1282.525902	15.434778	-0.041933	1.737367
169.563810	1280.053308	15.439783	-0.041930	1.735777
169.644946	1277.616330	15.444787	-0.041948	1.734216
169.638682	1275.045950	15.449792	-0.041945	1.732560
169.557083	1272.463867	15.454797	-0.041923	1.730887
169.399423	1269.985847	15.459802	-0.041883	1.729271
169.180113	1267.424591	15.464807	-0.041827	1.727594
169.177108	1264.835326	15.469811	-0.041825	1.725920
169.017062	1262.323235	15.474816	-0.041784	1.724277
168.845493	1259.739801	15.479821	-0.041740	1.722586
168.693439	1257.159936	15.484826	-0.041701	1.720897
168.638274	1254.657093	15.489831	-0.041686	1.719266
168.284991	1252.076929	15.494835	-0.041597	1.717553
168.009500	1249.528532	15.499840	-0.041528	1.715867
167.898362	1247.066958	15.504845	-0.041499	1.714253
167.818246	1244.448597	15.509850	-0.041478	1.712538
167.664727	1241.905840	15.514855	-0.041438	1.710863
167.641325	1239.383047	15.519859	-0.041431	1.709213
167.628983	1236.712214	15.524864	-0.041426	1.707466
167.779306	1234.031917	15.529869	-0.041461	1.705728
167.707292	1231.387281	15.534874	-0.041441	1.703988
167.712487	1228.596886	15.539879	-0.041440	1.702159
167.769862	1225.858174	15.544883	-0.041452	1.700368
167.588345	1223.080138	15.549888	-0.041406	1.698523
167.604460	1220.224851	15.554893	-0.041408	1.696647
167.398531	1217.469245	15.559898	-0.041355	1.694811
167.124243	1214.647206	15.564903	-0.041286	1.692921
167.030422	1211.870097	15.569907	-0.041261	1.691078
166.762227	1209.139661	15.574912	-0.041194	1.689246
166.479498	1206.371448	15.579917	-0.041123	1.687385
166.257768	1203.666783	15.584922	-0.041066	1.685570
166.002719	1200.971644	15.589927	-0.041002	1.683757
165.775302	1198.259054	15.594931	-0.040945	1.681932
165.743320	1195.582809	15.599936	-0.040935	1.680151
165.812051	1192.804022	15.604941	-0.040950	1.678310
165.737442	1189.983655	15.609946	-0.040929	1.676425
165.885201	1187.154942	15.614951	-0.040963	1.674555
166.063484	1184.203058	15.619955	-0.041005	1.672605
166.025642	1181.272420	15.624960	-0.040993	1.670643
166.028141	1178.310258	15.629965	-0.040992	1.668662
165.944328	1175.286591	15.634970	-0.040969	1.666628
165.799214	1172.354981	15.639975	-0.040931	1.664647
165.605551	1169.359470	15.644979	-0.040882	1.662615
165.391155	1166.397743	15.649984	-0.040827	1.660601
165.041296	1163.497346	15.654989	-0.040740	1.658612
164.717944	1160.575416	15.659994	-0.040659	1.656608
164.319322	1157.767416	15.664999	-0.040559	1.654670
164.139051	1154.900373	15.670003	-0.040513	1.652714
163.783484	1152.113020	15.675008	-0.040424	1.650790
163.678573	1149.318274	15.680013	-0.040396	1.648887
163.622363	1146.425408	15.685018	-0.040381	1.646920
163.540836	1143.632337	15.690023	-0.040359	1.645016
163.576086	1140.722472	15.695027	-0.040365	1.643044
163.663104	1137.765222	15.700032	-0.040384	1.641042
163.617844	1134.838136	15.705037	-0.040371	1.639044
163.697762	1131.781883	15.710042	-0.040388	1.636969
163.613291	1128.802899	15.715047	-0.040365	1.634926
163.636507	1125.722457	15.720051	-0.040369	1.632823
163.749534	1122.601906	15.725056	-0.040394	1.630700
163.567178	1119.514500	15.730061	-0.040347	1.628563
163.355225	1116.412637	15.735066	-0.040293	1.626411
163.013286	1113.397516	15.740071	-0.040207	1.624301
162.632330	1110.373555	15.745075	-0.040112	1.622177
162.133825	1107.457405	15.750080	-0.039988	1.620112
161.938472	1104.486690	15.755085	-0.039938	1.618041
161.654369	1101.600348	15.760090	-0.039867	1.616015
161.369773	1098.694350	15.765095	-0.039795	1.613973
161.280384	1095.775885	15.770099	-0.039771	1.611942
161.059306	1092.929320	15.775104	-0.039715	1.609944
161.138866	1089.961718	15.780109	-0.039732	1.607893
161.234987	1086.981010	15.785114	-0.039754	1.605832
161.176506	1083.968983	15.790119	-0.039737	1.603729
161.315710	1080.902896	15.795123	-0.039769	1.601608
161.301611	1077.853520	15.800128	-0.039763	1.599479
161.399016	1074.660143	15.805133	-0.039785	1.597258
161.358863	1071.548666	15.810138	-0.039773	1.595076
161.197234	1068.343045	15.815143	-0.039731	1.592812
161.000587	1065.260978	15.820147	-0.039680	1.590626
160.880182	1062.056980	15.825152	-0.039649	1.588361
160.647650	1058.956804	15.830157	-0.039590	1.586152
160.216193	1055.904968	15.835162	-0.039482	1.583952
159.760843	1052.864813	15.840167	-0.039368	1.581753
159.628462	1049.907675	15.845171	-0.039334	1.579648
159.220504	1046.896944	15.850176	-0.039232	1.577470
159.143115	1043.940609	15.855181	-0.039211	1.575366
159.057947	1040.895655	15.860186	-0.039188	1.573196
158.775912	1037.929276	15.865191	-0.039117	1.571055
158.779193	1034.934874	15.870195	-0.039115	1.568925
158.744868	1031.861655	15.875200	-0.039105	1.566732
158.834171	1028.808528	15.880205	-0.039124	1.564564
158.807010	1025.667578	15.885210	-0.039116	1.562317
158.811368	1022.587839	15.890215	-0.039114	1.560114
158.878882	1019.374797	15.895219	-0.039128	1.557820
158.824132	1016.209186	15.900224	-0.039113	1.555542
158.714180	1012.963210	15.905229	-0.039084	1.553196
158.616669	1009.799222	15.910234	-0.039057	1.550908
158.231365	1006.605005	15.915239	-0.038961	1.548559
157.958358	1003.517009	15.920243	-0.038892	1.546297
157.641216	1000.415976	15.925248	-0.038812	1.544017
157.445633	997.311004	15.930253	-0.038762	1.541746
157.104728	994.290460	15.935258	-0.038677	1.539514
156.854470	991.206444	15.940263	-0.038613	1.537245
156.647336	988.215550	15.945267	-0.038560	1.535045
156.388442	985.149003	15.950272	-0.038495	1.532780
156.306966	982.159431	15.955277	-0.038473	1.530590
156.329592	979.065969	15.960282	-0.038476	1.528333
156.434961	975.952541	15.965287	-0.038500	1.526069
156.488725	972.792711	15.970291	-0.038510	1.523761
156.351650	969.657313	15.975296	-0.038475	1.521443
156.421285	966.473809	15.980301	-0.038489	1.519113
156.575513	963.214825	15.985306	-0.038525	1.516734
156.186771	960.004891	15.990311	-0.038427	1.514319
156.129626	956.797552	15.995315	-0.038411	1.511945
155.928148	953.608364	16.000320	-0.038359	1.509561
155.598151	950.427177	16.005325	-0.038276	1.507164
155.411284	947.304697	16.010330	-0.038228	1.504825
154.964488	944.179072	16.015335	-0.038117	1.502447
154.818798	941.129642	16.020339	-0.038079	1.500159
154.456137	938.024179	16.025344	-0.037988	1.497800
154.365263	934.977599	16.030349	-0.037964	1.495514
154.248685	931.861806	16.035354	-0.037933	1.493170
154.177173	928.778966	16.040359	-0.037913	1.490853
154.216504	925.625437	16.045363	-0.037921	1.488493
154.199529	922.466263	16.050368	-0.037914	1.486118
154.098307	919.277256	16.055373	-0.037887	1.483706
154.091457	916.127392	16.060378	-0.037883	1.481331
153.986054	912.896351	16.065383	-0.037855	1.478879
154.021991	909.687823	16.070387	-0.037862	1.476458
153.758023	906.449900	16.075392	-0.037795	1.473972
153.685084	903.249929	16.080397	-0.037774	1.471535
153.457167	900.048950	16.085402	-0.037716	1.469074
153.324009	896.846570	16.090407	-0.037682	1.466619
153.052030	893.679536	16.095411	-0.037613	1.464170
152.740171	890.536143	16.100416	-0.037534	1.461729
152.418822	887.425854	16.105421	-0.037454	1.459308
152.195674	884.318819	16.110426	-0.037397	1.456898
152.047584	881.177622	16.115431	-0.037358	1.454468
151.801391	878.117085	16.120435	-0.037296	1.452083
151.709031	875.011567	16.125440	-0.037271	1.449679
151.470320	871.907680	16.130445	-0.037210	1.447254
151.372162	868.829133	16.135450	-0.037184	1.444862
151.305838	865.702726	16.140455	-0.037166	1.442434
151.304292	862.606764	16.145459	-0.037163	1.440034
151.161262	859.438500	16.150464	-0.037126	1.437555
151.379053	856.233525	16.155469	-0.037177	1.435091
151.294427	853.022027	16.160474	-0.037154	1.432577
151.108605	849.821734	16.165479	-0.037106	1.430054
150.930003	846.637705	16.170483	-0.037060	1.427540
150.625459	843.495281	16.175488	-0.036983	1.425038
150.568247	840.303796	16.180493	-0.036967	1.422526
150.298878	837.193646	16.185498	-0.036899	1.420045
149.852590	834.071887	16.190503	-0.036787	1.417526
149.665551	831.008840	16.195507	-0.036740	1.415084
149.445756	827.898570	16.200512	-0.036684	1.412597
149.156252	824.860633	16.205517	-0.036611	1.410152
149.048899	821.796180	16.210522	-0.036582	1.407707
149.028006	818.704159	16.215527	-0.036575	1.405248
149.112003	815.566573	16.220531	-0.036593	1.402763
148.861997	812.488316	16.225536	-0.036530	1.400274
148.815694	809.345977	16.230541	-0.036516	1.397758
148.882048	806.195737	16.235546	-0.036530	1.395247
148.854059	802.989577	16.240551	-0.036521	1.392673
148.834351	799.812394	16.245555	-0.036514	1.390119
148.674655	796.604555	16.250560	-0.036472	1.387516
148.440590	793.444492	16.255565	-0.036413	1.384936
148.401412	790.261564	16.260570	-0.036401	1.382361
148.033325	787.089239	16.265575	-0.036309	1.379742
147.671682	784.008196	16.270579	-0.036218	1.377194
147.429891	780.888849	16.275584	-0.036157	1.374627
147.202696	777.824480	16.280589	-0.036099	1.372102
147.074731	774.710967	16.285594	-0.036065	1.369546
146.622046	771.708913	16.290599	-0.035953	1.367030
146.592117	768.658884	16.295603	-0.035943	1.364530
146.599397	765.576408	16.300608	-0.035942	1.362005
146.321260	762.518828	16.305613	-0.035872	1.359454
146.414026	759.445127	16.310618	-0.035893	1.356939
146.208468	756.313719	16.315623	-0.035840	1.354328
146.298066	753.227556	16.320627	-0.035860	1.351792
146.098825	750.086578	16.325632	-0.035809	1.349165
146.079472	746.979747	16.330637	-0.035802	1.346586
145.928126	743.832212	16.335642	-0.035763	1.343950
145.622226	740.781953	16.340647	-0.035686	1.341367
145.508570	737.660336	16.345651	-0.035656	1.338747
145.374815	734.570973	16.350656	-0.035621	1.336147
145.035987	731.471148	16.355661	-0.035536	1.333502
144.933145	728.434399	16.360666	-0.035508	1.330940
144.520900	725.391003	16.365671	-0.035405	1.328321
144.343823	722.393533	16.370675	-0.035360	1.325771
144.010997	719.399497	16.375680	-0.035276	1.323196
143.856715	716.431488	16.380685	-0.035236	1.320664
143.596394	713.471519	16.385690	-0.035171	1.318118
143.450897	710.486251	16.390695	-0.035133	1.315563
143.388009	707.510345	16.395699	-0.035115	1.313024
143.170098	704.542241	16.400704	-0.035060	1.310462
143.270593	701.522808	16.405709	-0.035082	1.307900
143.192627	698.507196	16.410714	-0.035061	1.305309
143.116741	695.500517	16.415719	-0.035040	1.302721
142.896855	692.511439	16.420723	-0.034984	1.300121
142.828094	689.467807	16.425728	-0.034965	1.297492
142.803445	686.380021	16.430733	-0.034957	1.294826
142.632848	683.378525	16.435738	-0.034913	1.292207
142.296541	680.342036	16.440743	-0.034829	1.289526
142.144335	677.374514	16.445747	-0.034789	1.286929
141.673729	674.417959	16.450752	-0.034672	1.284287
141.645956	671.477995	16.455757	-0.034663	1.281721
141.353607	668.539591	16.460762	-0.034590	1.279112
140.977181	665.657566	16.465767	-0.034496	1.276533
140.885962	662.723452	16.470771	-0.034471	1.273947
140.737944	659.825793	16.475776	-0.034433	1.271380
140.486672	656.922626	16.480781	-0.034369	1.268786
140.529244	654.011228	16.485786	-0.034378	1.266225
140.388171	651.063438	16.490791	-0.034341	1.263599
140.206094	648.199730	16.495795	-0.034294	1.261035
140.031415	645.263553	16.500800	-0.034250	1.258402
139.970369	642.334083	16.505805	-0.034233	1.255788
139.699211	639.458661	16.510810	-0.034164	1.253184
139.255828	636.608896	16.515815	-0.034054	1.250569
139.067253	633.793319	16.520819	-0.034006	1.248020
138.629457	630.999647	16.525824	-0.033897	1.245446
138.431661	628.244953	16.530829	-0.033846	1.242940
138.109357	625.501921	16.535834	-0.033765	1.240419
137.777305	622.784773	16.540839	-0.033682	1.237915
137.623361	620.044462	16.545843	-0.033643	1.235414
137.245206	617.393747	16.550848	-0.033548	1.232952
137.028846	614.703303	16.555853	-0.033494	1.230476
136.749951	612.079338	16.560858	-0.033423	1.228044
136.586954	609.396926	16.565863	-0.033382	1.225574
136.464084	606.760592	16.570867	-0.033350	1.223147
136.277269	604.095260	16.575872	-0.033302	1.220679
135.931694	601.476745	16.580877	-0.033216	1.218222
135.671029	598.883338	16.585882	-0.033150	1.215797
135.413309	596.299957	16.590887	-0.033085	1.213377
135.424851	593.675456	16.595891	-0.033086	1.210959
135.008553	591.131366	16.600896	-0.032983	1.208540
134.733920	588.596983	16.605901	-0.032914	1.206148
134.577744	586.061873	16.610906	-0.032874	1.203770
134.189715	583.576931	16.615911	-0.032777	1.201396
133.885024	581.111644	16.620915	-0.032701	1.199049
133.562251	578.661168	16.625920	-0.032620	1.196708
133.298393	576.208341	16.630925	-0.032554	1.194370
132.943748	573.863435	16.635930	-0.032465	1.192114
132.730331	571.417985	16.640935	-0.032411	1.189783
132.616427	569.077235	16.645939	-0.032382	1.187562
132.346059	566.652294	16.650944	-0.032314	1.185231
132.272104	564.288019	16.655949	-0.032294	1.182987
132.095064	561.897390	16.660954	-0.032249	1.180695
131.951093	559.487279	16.665959	-0.032212	1.178387
131.736031	557.113452	16.670963	-0.032158	1.176096
131.522391	554.744751	16.675968	-0.032104	1.173805
131.333911	552.385245	16.680973	-0.032056	1.171524
131.103792	550.043301	16.685978	-0.031998	1.169247
130.869067	547.723312	16.690983	-0.031939	1.166986
130.560437	545.397732	16.695987	-0.031862	1.164703
130.308048	543.162090	16.700992	-0.031799	1.162511
129.927093	540.881441	16.705997	-0.031704	1.160250
129.790052	538.653141	16.711002	-0.031669	1.158077
129.401268	536.404344	16.716007	-0.031572	1.155836
129.269368	534.189870	16.721011	-0.031538	1.153669
128.853815	532.015355	16.726016	-0.031435	1.151487
128.802304	529.791006	16.731021	-0.031421	1.149316
128.736509	527.600687	16.736026	-0.031403	1.147172
128.619548	525.322457	16.741031	-0.031373	1.144929
128.432391	523.160825	16.746035	-0.031326	1.142783
128.170281	520.938054	16.751040	-0.031260	1.140559
127.971110	518.747060	16.756045	-0.031210	1.138374
127.473332	516.623253	16.761050	-0.031086	1.136198
126.953394	514.550664	16.766055	-0.030958	1.134064
126.660731	512.512672	16.771059	-0.030885	1.132000
126.056759	510.512246	16.776064	-0.030736	1.129915
125.677068	508.594132	16.781069	-0.030641	1.127947
125.462515	506.609131	16.786074	-0.030588	1.125939
125.149904	504.692528	16.791079	-0.030510	1.123977
125.055830	502.739003	16.796083	-0.030485	1.122015
124.851764	500.766112	16.801088	-0.030434	1.120010
124.847104	498.806246	16.806093	-0.030431	1.118051
124.892093	496.768745	16.811098	-0.030441	1.116020
124.763379	494.766923	16.816103	-0.030408	1.113989
124.739180	492.756583	16.821107	-0.030401	1.111965
124.481715	490.735720	16.826112	-0.030336	1.109884
124.297583	488.783928	16.831117	-0.030290	1.107882
124.141106	486.765722	16.836122	-0.030250	1.105814
123.872473	484.826758	16.841127	-0.030183	1.103802
123.581647	482.884868	16.846131	-0.030110	1.101779
123.123583	480.990910	16.851136	-0.029997	1.099771
122.905273	479.089704	16.856141	-0.029942	1.097796
122.582826	477.204926	16.861146	-0.029862	1.095814
122.309917	475.363691	16.866151	-0.029794	1.093883
122.316495	473.459524	16.871155	-0.029794	1.091936
122.068274	471.566292	16.876160	-0.029732	1.089949
121.927436	469.728281	16.881165	-0.029696	1.088035
121.933860	467.791366	16.886170	-0.029696	1.086043
121.798010	465.902780	16.891175	-0.029662	1.084071
121.723587	464.013130	16.896179	-0.029642	1.082106
121.456056	462.086713	16.901184	-0.029575	1.080063
121.360099	460.217997	16.906189	-0.029551	1.078108
121.210220	458.296233	16.911194	-0.029513	1.076085
120.877099	456.443398	16.916199	-0.029430	1.074094
120.613248	454.614714	16.921203	-0.029364	1.072138
120.252878	452.767232	16.926208	-0.029275	1.070141
120.090474	450.985656	16.931213	-0.029234	1.068246
119.833926	449.165132	16.936218	-0.029169	1.066289
119.676311	447.349949	16.941223	-0.029130	1.064354
119.470844	445.550372	16.946227	-0.029078	1.062421
119.119613	443.763142	16.951232	-0.028991	1.060471
118.832245	442.033635	16.956237	-0.028919	1.058590
118.438411	440.317966	16.961242	-0.028822	1.056699
118.128458	438.596501	16.966247	-0.028745	1.054815
117.946579	436.914080	16.971251	-0.028699	1.052995
117.707823	435.202737	16.976256	-0.028640	1.051129
117.650724	433.497626	16.981261	-0.028624	1.049302
117.508959	431.793340	16.986266	-0.028588	1.047456
117.361109	430.035951	16.991271	-0.028551	1.045549
117.181193	428.396021	16.996275	-0.028506	1.043758
117.213346	426.623282	17.001280	-0.028512	1.041863
116.985149	424.892177	17.006285	-0.028455	1.039958
116.926089	423.181390	17.011290	-0.028439	1.038104
116.557156	421.464205	17.016295	-0.028348	1.036180
116.434989	419.776423	17.021299	-0.028317	1.034332
116.021703	418.131727	17.026304	-0.028215	1.032470
115.864606	416.420143	17.031309	-0.028175	1.030582
115.395327	414.878562	17.036314	-0.028059	1.028814
115.005359	413.265250	17.041319	-0.027963	1.026981
114.733219	411.678735	17.046323	-0.027895	1.025197
114.602959	410.130906	17.051328	-0.027862	1.023480
114.546942	408.482868	17.056333	-0.027847	1.021666
114.375232	406.898003	17.061338	-0.027804	1.019895
114.270021	405.277358	17.066343	-0.027777	1.018095
114.335721	403.595520	17.071347	-0.027792	1.016259
114.453721	401.920294	17.076352	-0.027819	1.014437
114.300898	400.242673	17.081357	-0.027781	1.012555
114.304905	398.526282	17.086362	-0.027780	1.010658
114.226537	396.864337	17.091367	-0.027760	1.008801
114.152844	395.122274	17.096371	-0.027741	1.006852
113.916794	393.444840	17.101376	-0.027682	1.004938
113.755504	391.764328	17.106381	-0.027641	1.003033
113.451569	390.098596	17.111386	-0.027566	1.001111
113.105441	388.486659	17.116391	-0.027480	0.999237
112.797389	386.870585	17.121395	-0.027403	0.997362
112.533571	385.247151	17.126400	-0.027338	0.995485
112.155437	383.721646	17.131405	-0.027244	0.993691
111.939294	382.126554	17.136410	-0.027190	0.991848
111.648476	380.588456	17.141415	-0.027118	0.990052
111.564436	379.026761	17.146419	-0.027096	0.988268
111.372344	377.437725	17.151424	-0.027048	0.986427
111.367079	375.841219	17.156429	-0.027046	0.984614
111.174940	374.275101	17.161434	-0.026997	0.982793
111.037379	372.653270	17.166439	-0.026963	0.980916
110.896506	371.095808	17.171443	-0.026927	0.979108
110.623645	369.523445	17.176448	-0.026859	0.977252
110.509306	367.938708	17.181453	-0.026830	0.975412
110.486445	366.365059	17.186458	-0.026823	0.973601
110.219095	364.768530	17.191463	-0.026757	0.971708
109.814444	363.275252	17.196467	-0.026657	0.969901
109.677112	361.732530	17.201472	-0.026622	0.968090
109.352887	360.199298	17.206477	-0.026542	0.966247
109.304127	358.699455	17.211482	-0.026529	0.964499
108.952189	357.197479	17.216487	-0.026441	0.962679
108.764578	355.670946	17.221491	-0.026394	0.960863
108.574795	354.204459	17.226496	-0.026347	0.959113
108.410676	352.673311	17.231501	-0.026306	0.957290
108.352900	351.160398	17.236506	-0.026291	0.955507
108.032931	349.698170	17.241511	-0.026211	0.953724
107.868496	348.186470	17.246515	-0.026170	0.951913
107.641087	346.727800	17.251520	-0.026113	0.950148
107.524898	345.247225	17.256525	-0.026084	0.948377
107.380429	343.741966	17.261530	-0.026047	0.946568
107.209706	342.274584	17.266535	-0.026004	0.944794
106.984222	340.823308	17.271539	-0.025948	0.943025
106.910172	339.304058	17.276544	-0.025929	0.941204
106.736032	337.844810	17.281549	-0.025885	0.939429
106.767854	336.302824	17.286554	-0.025892	0.937598
106.357186	334.846485	17.291559	-0.025791	0.935767
106.444325	333.351810	17.296563	-0.025811	0.933998
106.250387	331.838084	17.301568	-0.025762	0.932140
106.104850	330.343235	17.306573	-0.025725	0.930311
105.798902	328.906806	17.311578	-0.025650	0.928513
105.641594	327.402399	17.316583	-0.025610	0.926663
105.553724	325.946249	17.321587	-0.025587	0.924884
105.522222	324.436898	17.326592	-0.025579	0.923049
105.307152	322.922903	17.331597	-0.025525	0.921163
105.301237	321.447089	17.336602	-0.025522	0.919368
105.063935	319.926451	17.341607	-0.025463	0.917461
105.021356	318.422554	17.346611	-0.025452	0.915616
104.855558	316.936681	17.351616	-0.025410	0.913760
104.563485	315.438743	17.356621	-0.025338	0.911857
104.392869	313.986066	17.361626	-0.025295	0.910034
104.099836	312.526558	17.366631	-0.025222	0.908170
103.873401	311.062032	17.371635	-0.025166	0.906312
103.444712	309.702843	17.376640	-0.025060	0.904533
103.026220	308.307772	17.381645	-0.024957	0.902709
102.884425	306.899659	17.386650	-0.024921	0.900929
102.523899	305.557196	17.391655	-0.024832	0.899176
102.333154	304.178230	17.396659	-0.024784	0.897414
102.306220	302.773148	17.401664	-0.024776	0.895654
102.251393	301.372192	17.406669	-0.024762	0.893889
102.144034	299.955422	17.411674	-0.024735	0.892089
102.095489	298.539672	17.416679	-0.024722	0.890300
102.127238	297.084664	17.421683	-0.024728	0.888477
101.933433	295.649153	17.426688	-0.024680	0.886621
101.732630	294.265138	17.431693	-0.024630	0.884825
101.606752	292.834994	17.436698	-0.024598	0.882985
101.387397	291.407711	17.441703	-0.024543	0.881122
101.222312	290.023788	17.446707	-0.024502	0.879323
100.919109	288.628890	17.451712	-0.024427	0.877474
100.457607	287.307387	17.456717	-0.024313	0.875676
100.255619	285.974006	17.461722	-0.024263	0.873922
99.952034	284.621458	17.466727	-0.024187	0.872116
99.787592	283.314999	17.471731	-0.024146	0.870398
99.706006	281.960855	17.476736	-0.024125	0.868635
99.607535	280.570220	17.481741	-0.024100	0.866818
99.630992	279.231263	17.486746	-0.024105	0.865094
99.670623	277.805393	17.491751	-0.024113	0.863257
99.680462	276.360375	17.496755	-0.024115	0.861384
99.527638	274.986055	17.501760	-0.024076	0.859559
99.463328	273.526354	17.506765	-0.024060	0.857641
99.380873	272.120692	17.511770	-0.024038	0.855785
99.232130	270.698601	17.516775	-0.024001	0.853887
98.988998	269.284604	17.521779	-0.023940	0.851971
98.825071	267.911180	17.526784	-0.023899	0.850125
98.587640	266.507023	17.531789	-0.023840	0.848215
98.275552	265.150066	17.536794	-0.023763	0.846346
97.982084	263.833513	17.541799	-0.023690	0.844530
97.954646	262.423399	17.546803	-0.023683	0.842652
97.738035	261.068842	17.551808	-0.023629	0.840797
97.694988	259.678126	17.556813	-0.023617	0.838933
97.529216	258.290058	17.561818	-0.023575	0.837038
97.299087	256.953401	17.566823	-0.023518	0.835191
97.281012	255.550484	17.571827	-0.023513	0.833304
97.104669	254.169343	17.576832	-0.023469	0.831402
96.821059	252.844078	17.581837	-0.023398	0.829544
96.653006	251.474838	17.586842	-0.023356	0.827652
96.429324	250.135260	17.591847	-0.023300	0.825782
96.058773	248.841887	17.596851	-0.023209	0.823932
95.740942	247.534253	17.601856	-0.023130	0.822072
95.592673	246.227754	17.606861	-0.023093	0.820253
95.511772	244.898771	17.611866	-0.023072	0.818417
95.340219	243.562881	17.616871	-0.023029	0.816544
95.062887	242.306941	17.621875	-0.022961	0.814749
95.043540	240.955208	17.626880	-0.022955	0.812885
94.821972	239.656169	17.631885	-0.022900	0.811036
94.606275	238.378728	17.636890	-0.022846	0.809215
94.580005	237.023634	17.641895	-0.022839	0.807332
94.426034	235.745407	17.646899	-0.022800	0.805518
94.238835	234.439930	17.651904	-0.022753	0.803652
94.095692	233.104025	17.656909	-0.022717	0.801752
93.931794	231.839158	17.661914	-0.022676	0.799941
93.788385	230.500390	17.666919	-0.022640	0.798027
93.648414	229.203286	17.671923	-0.022605	0.796169
93.503371	227.911902	17.676928	-0.022569	0.794313
93.341305	226.578256	17.681933	-0.022528	0.792388
93.242893	225.304730	17.686938	-0.022503	0.790561
93.028562	223.998737	17.691943	-0.022450	0.788652
93.057326	222.650884	17.696947	-0.022456	0.786744
92.903965	221.373856	17.701952	-0.022417	0.784884
92.657562	220.054943	17.706957	-0.022356	0.782934
92.700558	218.715128	17.711962	-0.022365	0.781028
92.427210	217.412307	17.716967	-0.022298	0.779084
92.273857	216.091423	17.721971	-0.022259	0.777142
92.114555	214.820135	17.726976	-0.022219	0.775266
91.886121	213.504564	17.731981	-0.022162	0.773301
91.774782	212.213696	17.736986	-0.022134	0.771400
91.751927	210.882709	17.741991	-0.022128	0.769460
91.460361	209.588339	17.746995	-0.022055	0.767494
91.442328	208.301926	17.752000	-0.022050	0.765610
91.178294	207.002519	17.757005	-0.021985	0.763635
91.219971	205.661232	17.762010	-0.021994	0.761678
90.890433	204.399096	17.767015	-0.021912	0.759729
90.773375	203.080445	17.772019	-0.021883	0.757750
90.663782	201.795132	17.777024	-0.021855	0.755819
90.360633	200.522578	17.782029	-0.021780	0.753846
90.105043	199.261780	17.787034	-0.021716	0.751899
89.696780	198.065591	17.792039	-0.021616	0.750000
89.492796	196.807810	17.797043	-0.021565	0.748063
89.291051	195.593660	17.802048	-0.021515	0.746186
89.015298	194.378643	17.807053	-0.021446	0.744282
88.968119	193.118353	17.812058	-0.021434	0.742371
88.754260	191.916248	17.817063	-0.021381	0.740494
88.726425	190.643254	17.822067	-0.021373	0.738559
88.725859	189.381357	17.827072	-0.021372	0.736644
88.485619	188.151133	17.832077	-0.021312	0.734703
88.486970	186.865232	17.837082	-0.021312	0.732741
88.474837	185.602612	17.842087	-0.021308	0.730806
88.369867	184.311689	17.847091	-0.021281	0.728795
87.988177	183.103750	17.852096	-0.021187	0.726825
87.827055	181.881556	17.857101	-0.021146	0.724893
87.623891	180.637359	17.862106	-0.021096	0.722909
87.399116	179.428514	17.867111	-0.021040	0.720968
87.136569	178.223940	17.872115	-0.020975	0.719017
86.816948	177.039527	17.877120	-0.020896	0.717076
86.499196	175.886818	17.882125	-0.020817	0.715179
86.392798	174.685659	17.887130	-0.020790	0.713265
86.305030	173.489085	17.892135	-0.020768	0.711358
86.184710	172.298816	17.897139	-0.020738	0.709446
86.173446	171.063416	17.902144	-0.020734	0.707490
86.145797	169.857045	17.907149	-0.020726	0.705570
86.206555	168.584879	17.912154	-0.020740	0.703567
86.075253	167.351775	17.917159	-0.020707	0.701562
86.205767	166.056715	17.922163	-0.020738	0.699533
86.213446	164.759147	17.927168	-0.020739	0.697455
86.014535	163.528356	17.932173	-0.020690	0.695416
85.903245	162.246252	17.937178	-0.020661	0.693314
85.489024	161.054679	17.942183	-0.020559	0.691259
85.179128	159.855982	17.947187	-0.020483	0.689219
84.888740	158.661461	17.952192	-0.020411	0.687185
84.556277	157.514751	17.957197	-0.020329	0.685211
84.379529	156.319373	17.962202	-0.020284	0.683199
83.961105	155.203675	17.967207	-0.020181	0.681237
83.812100	154.040725	17.972211	-0.020144	0.679276
83.677336	152.869096	17.977216	-0.020110	0.677299
83.612888	151.699501	17.982221	-0.020094	0.675343
83.458166	150.526873	17.987226	-0.020055	0.673347
83.441382	149.341607	17.992231	-0.020050	0.671368
83.477699	148.130878	17.997235	-0.020058	0.669357
83.607606	146.872784	18.002240	-0.020089	0.667291
83.416848	145.677431	18.007245	-0.020041	0.665221
83.326060	144.451443	18.012250	-0.020018	0.663125
83.214491	143.238489	18.017255	-0.019990	0.661038
82.966668	142.040990	18.022259	-0.019928	0.658926
82.656024	140.888123	18.027264	-0.019852	0.656862
82.425781	139.713013	18.032269	-0.019794	0.654781
82.110192	138.571870	18.037274	-0.019716	0.652723
81.684187	137.491749	18.042279	-0.019611	0.650727
81.332962	136.379171	18.047283	-0.019525	0.648693
81.143658	135.288328	18.052288	-0.019478	0.646744
80.980740	134.177908	18.057293	-0.019437	0.644765
80.918537	133.036370	18.062298	-0.019421	0.642759
80.810121	131.926808	18.067303	-0.019394	0.640786
80.830197	130.748565	18.072307	-0.019398	0.638731
80.873936	129.591382	18.077312	-0.019407	0.636714
80.970773	128.380613	18.082317	-0.019430	0.634614
80.972378	127.189708	18.087322	-0.019430	0.632510
80.963297	126.000287	18.092327	-0.019426	0.630398
80.893603	124.782846	18.097331	-0.019408	0.628208
80.742306	123.635912	18.102336	-0.019371	0.626108
80.314745	122.496764	18.107341	-0.019265	0.623920
80.075212	121.371958	18.112346	-0.019206	0.621815
79.612332	120.282888	18.117351	-0.019092	0.619690
79.359770	119.181154	18.122355	-0.019029	0.617608
79.069579	118.120183	18.127360	-0.018958	0.615580
78.667400	117.046176	18.132365	-0.018859	0.613482
78.757868	115.942197	18.137370	-0.018880	0.611495
78.466924	114.860397	18.142375	-0.018808	0.609408
78.347171	113.777480	18.147379	-0.018778	0.607372
78.430743	112.662461	18.152384	-0.018797	0.605343
78.393070	111.513009	18.157389	-0.018787	0.603200
78.723406	110.328473	18.162394	-0.018867	0.601115
78.655954	109.150182	18.167399	-0.018850	0.598892
78.527292	108.018812	18.172403	-0.018817	0.596726
78.550011	106.837862	18.177408	-0.018822	0.594514
78.466508	105.673146	18.182413	-0.018801	0.592286
78.337427	104.527957	18.187418	-0.018768	0.590070
78.076658	103.392093	18.192423	-0.018704	0.587815
77.604835	102.338632	18.197427	-0.018588	0.585630
77.173619	101.268916	18.202432	-0.018481	0.583421
76.869913	100.219539	18.207437	-0.018406	0.581291
76.560759	99.169212	18.212442	-0.018330	0.579148
75.990277	98.202440	18.217447	-0.018190	0.577062
75.891367	97.150732	18.222451	-0.018165	0.574980
75.839012	96.093545	18.227456	-0.018151	0.572898
75.676935	95.064721	18.232461	-0.018111	0.570822
75.774623	93.959760	18.237466	-0.018134	0.568687
75.676469	92.915774	18.242471	-0.018109	0.566590
75.312552	91.899506	18.247475	-0.018019	0.564438
75.391221	90.824523	18.252480	-0.018038	0.562332
75.216258	89.771062	18.257485	-0.017994	0.560162
75.191415	88.700108	18.262490	-0.017987	0.558007
74.969629	87.675723	18.267495	-0.017932	0.555861
74.992278	86.577585	18.272499	-0.017937	0.553653
74.611186	85.600467	18.277504	-0.017843	0.551524
74.184130	84.607660	18.282509	-0.017738	0.549336
73.924469	83.640467	18.287514	-0.017674	0.547257
73.922916	82.601962	18.292519	-0.017673	0.545127
73.821808	81.571574	18.297523	-0.017647	0.542966
73.671795	80.568726	18.302528	-0.017610	0.540833
73.598110	79.524227	18.307533	-0.017591	0.538636
73.819961	78.457895	18.312538	-0.017644	0.536505
73.820645	77.369348	18.317543	-0.017644	0.534228
73.714649	76.335822	18.322547	-0.017617	0.532013
73.764029	75.245680	18.327552	-0.017628	0.529734
73.679767	74.187387	18.332557	-0.017607	0.527457
73.561348	73.134989	18.337562	-0.017577	0.525169
73.255535	72.116781	18.342567	-0.017501	0.522866
72.864981	71.135818	18.347571	-0.017405	0.520598
72.361143	70.192899	18.352576	-0.017281	0.518354
72.148883	69.219195	18.357581	-0.017229	0.516157
71.890318	68.250867	18.362586	-0.017165	0.513942
71.651295	67.309979	18.367591	-0.017106	0.511786
71.450654	66.340146	18.372595	-0.017056	0.509573
71.421260	65.365001	18.377600	-0.017048	0.507413
71.220913	64.398786	18.382605	-0.016998	0.505189
71.143383	63.429045	18.387610	-0.016979	0.503001
71.100565	62.436181	18.392615	-0.016967	0.500767
71.076635	61.432643	18.397619	-0.016961	0.498507
71.025438	60.452936	18.402624	-0.016947	0.496279
70.886221	59.455212	18.407629	-0.016913	0.493961
70.857393	58.479597	18.412634	-0.016905	0.491731
70.421473	57.550005	18.417639	-0.016798	0.489415
70.183355	56.630946	18.422643	-0.016739	0.487201
69.929140	55.703066	18.427648	-0.016676	0.484949
69.569244	54.807761	18.432653	-0.016587	0.482714
69.167685	53.941679	18.437658	-0.016488	0.480518
68.786644	53.079716	18.442663	-0.016395	0.478331
68.359585	52.257956	18.447667	-0.016290	0.476208
68.003277	51.423110	18.452672	-0.016202	0.474076
67.764906	50.598170	18.457677	-0.016143	0.472013
67.578687	49.751242	18.462682	-0.016097	0.469912
67.652003	48.865006	18.467687	-0.016114	0.467829
67.632826	47.983151	18.472691	-0.016109	0.465704
67.843914	47.044530	18.477696	-0.016159	0.463540
67.657393	46.174697	18.482701	-0.016113	0.461345
67.613751	45.271274	18.487706	-0.016102	0.459126
67.714832	44.356024	18.492711	-0.016126	0.456936
67.612269	43.443683	18.497715	-0.016100	0.454644
67.435301	42.580682	18.502720	-0.016056	0.452428
67.105702	41.726718	18.507725	-0.015975	0.450149
66.862663	40.893516	18.512730	-0.015915	0.447952
66.460561	40.090694	18.517735	-0.015816	0.445743
66.113019	39.286343	18.522739	-0.015730	0.443546
65.893087	38.481788	18.527744	-0.015676	0.441401
65.657836	37.659887	18.532749	-0.015618	0.439193
65.533509	36.863400	18.537754	-0.015587	0.437095
65.165526	36.081935	18.542759	-0.015496	0.434903
64.919398	35.311935	18.547763	-0.015436	0.432790
64.880196	34.495532	18.552768	-0.015425	0.430652
64.616369	33.721834	18.557773	-0.015360	0.428500
64.645058	32.905925	18.562778	-0.015367	0.426377
64.314571	32.141465	18.567783	-0.015285	0.424193
63.914567	31.420530	18.572787	-0.015187	0.422078
63.459973	30.715636	18.577792	-0.015075	0.419966
62.934430	30.049002	18.582797	-0.014946	0.417909
62.304919	29.426587	18.587802	-0.014792	0.415906
61.499032	28.863540	18.592807	-0.014595	0.413961
60.910770	28.303068	18.597811	-0.014450	0.412129
60.387089	27.739550	18.602816	-0.014322	0.410316
59.721024	27.228297	18.607821	-0.014159	0.408561
59.125147	26.739386	18.612826	-0.014013	0.406897
58.520558	26.256233	18.617831	-0.013865	0.405238
58.061297	25.774963	18.622835	-0.013752	0.403656
57.457315	25.352787	18.627840	-0.013604	0.402154
57.022479	24.891281	18.632845	-0.013497	0.400629
56.875632	24.388832	18.637850	-0.013461	0.399140
56.535711	23.954514	18.642855	-0.013378	0.397732
56.318458	23.479206	18.647859	-0.013324	0.396271
56.111064	22.999718	18.652864	-0.013273	0.394797
55.716286	22.581921	18.657869	-0.013176	0.393390
55.577929	22.122365	18.662874	-0.013142	0.392002
55.147538	21.707919	18.667879	-0.013037	0.390574
54.832940	21.282725	18.672883	-0.012959	0.389175
54.509360	20.906619	18.677888	-0.012880	0.387908
54.063297	20.518874	18.682893	-0.012771	0.386533
53.596683	20.164012	18.687898	-0.012656	0.385238
53.149650	19.818304	18.692903	-0.012547	0.383976
52.740286	19.492816	18.697907	-0.012446	0.382790
52.407897	19.150164	18.702912	-0.012365	0.381595
51.880038	18.842544	18.707917	-0.012236	0.380386
51.665377	18.504000	18.712922	-0.012183	0.379263
51.517617	18.167420	18.717927	-0.012146	0.378182
51.160915	17.853020	18.722931	-0.012059	0.377041
50.943223	17.528018	18.727936	-0.012006	0.375947
50.650411	17.201319	18.732941	-0.011934	0.374801
50.663338	16.850330	18.737946	-0.011937	0.373757
50.402767	16.536002	18.742951	-0.011873	0.372660
50.238872	16.201211	18.747955	-0.011832	0.371555
49.783688	15.924173	18.752960	-0.011721	0.370449
49.444375	15.640342	18.757965	-0.011638	0.369388
49.209242	15.360354	18.762970	-0.011580	0.368397
48.925086	15.080732	18.767975	-0.011510	0.367376
48.474948	14.836316	18.772979	-0.011400	0.366360
48.129304	14.584898	18.777984	-0.011315	0.365383
47.581567	14.380275	18.782989	-0.011181	0.364425
47.344514	14.145658	18.787994	-0.011123	0.363559
47.111484	13.902779	18.792999	-0.011066	0.362669
46.602996	13.715855	18.798003	-0.010941	0.361782
46.406782	13.484421	18.803008	-0.010893	0.360945
46.157174	13.246816	18.808013	-0.010832	0.360054
46.024157	13.008528	18.813018	-0.010799	0.359231
45.649801	12.836026	18.818023	-0.010708	0.358463
45.407074	12.614654	18.823027	-0.010648	0.357621
45.520883	12.338721	18.828032	-0.010676	0.356825
45.284673	12.109487	18.833037	-0.010618	0.355958
45.000111	11.893213	18.838042	-0.010548	0.355101
44.598955	11.721166	18.843047	-0.010450	0.354309
44.536335	11.491935	18.848051	-0.010434	0.353544
44.325521	11.287273	18.853056	-0.010382	0.352763
43.891759	11.118008	18.858061	-0.010276	0.351954
43.670919	10.923081	18.863066	-0.010222	0.351195
43.110961	10.790801	18.868071	-0.010085	0.350421
42.696438	10.656187	18.873075	-0.009984	0.349730
42.557561	10.476747	18.878080	-0.009949	0.349067
42.107625	10.367622	18.883085	-0.009839	0.348433
41.977757	10.183758	18.888090	-0.009807	0.347759
41.603262	10.059421	18.893095	-0.009716	0.347121
41.457454	9.889514	18.898099	-0.009680	0.346479
41.565153	9.669986	18.903104	-0.009706	0.345836
41.221615	9.526303	18.908109	-0.009622	0.345152
41.278226	9.315763	18.913114	-0.009636	0.344503
41.131081	9.142140	18.918119	-0.009599	0.343844
41.073346	8.950619	18.923123	-0.009585	0.343182
41.113195	8.725132	18.928128	-0.009595	0.342470
40.715876	8.575256	18.933133	-0.009497	0.341723
40.469697	8.419942	18.938138	-0.009437	0.341055
40.141909	8.272992	18.943143	-0.009357	0.340360
39.994870	8.097440	18.948147	-0.009321	0.339686
39.662670	7.964702	18.953152	-0.009239	0.339032
39.246739	7.866936	18.958157	-0.009138	0.338439
38.985327	7.732492	18.963162	-0.009074	0.337823
38.532049	7.643349	18.968167	-0.008963	0.337232
38.292398	7.515037	18.973171	-0.008904	0.336648
38.204922	7.371734	18.978176	-0.008882	0.336113
37.998368	7.233317	18.983181	-0.008832	0.335516
38.050756	7.053805	18.988186	-0.008844	0.334950
37.718250	6.937274	18.993191	-0.008763	0.334341
37.545372	6.806290	18.998195	-0.008721	0.333788
37.580995	6.640299	19.003200	-0.008729	0.333253
37.453019	6.478761	19.008205	-0.008698	0.332624
37.435842	6.299985	19.013210	-0.008693	0.332010
37.177543	6.163214	19.018215	-0.008630	0.331376
36.881369	6.032853	19.023219	-0.008557	0.330738
36.690409	5.895921	19.028224	-0.008511	0.330146
36.276931	5.800973	19.033229	-0.008409	0.329548
36.327257	5.623602	19.038234	-0.008421	0.328977
36.092302	5.518814	19.043239	-0.008364	0.328463
35.591134	5.438170	19.048243	-0.008241	0.327851
35.548414	5.286065	19.053248	-0.008231	0.327302
35.102106	5.207782	19.058253	-0.008122	0.326733
35.021284	5.077266	19.063258	-0.008102	0.326230
34.721734	4.970725	19.068263	-0.008028	0.325662
34.423360	4.871996	19.073267	-0.007955	0.325120
34.390086	4.741965	19.078272	-0.007947	0.324648
34.181906	4.620354	19.083277	-0.007896	0.324087
34.197094	4.480568	19.088282	-0.007899	0.323613
34.010862	4.359414	19.093287	-0.007854	0.323066
33.746507	4.255150	19.098291	-0.007789	0.322524
33.727996	4.095545	19.103296	-0.007784	0.321955
33.447539	3.990963	19.108301	-0.007716	0.321399
33.385672	3.847333	19.113306	-0.007700	0.320855
33.007031	3.765410	19.118311	-0.007608	0.320309
32.741163	3.659364	19.123315	-0.007543	0.319754
32.432959	3.580254	19.128320	-0.007467	0.319264
31.835804	3.572465	19.133325	-0.007321	0.318825
31.867620	3.443845	19.138330	-0.007329	0.318394
31.467112	3.386925	19.143335	-0.007231	0.317917
31.137866	3.336422	19.148339	-0.007150	0.317510
30.988354	3.233573	19.153344	-0.007114	0.317043
30.728578	3.169286	19.158349	-0.007050	0.316635
30.768197	3.048714	19.163354	-0.007060	0.316235
30.768739	2.911087	19.168359	-0.007060	0.315747
30.700701	2.795394	19.173363	-0.007043	0.315288
30.947432	2.604844	19.178368	-0.007103	0.314782
30.730693	2.492336	19.183373	-0.007050	0.314229
30.737208	2.361363	19.188378	-0.007051	0.313766
30.388827	2.281761	19.193383	-0.006966	0.313236
30.113156	2.173284	19.198387	-0.006898	0.312654
30.050317	2.049045	19.203392	-0.006883	0.312163
29.582548	1.997246	19.208397	-0.006769	0.311647
29.299435	1.907687	19.213402	-0.006699	0.311124
29.087321	1.826186	19.218407	-0.006647	0.310680
28.694483	1.757388	19.223411	-0.006551	0.310153
28.445574	1.700370	19.228416	-0.006490	0.309770
28.230220	1.613922	19.233421	-0.006437	0.309303
28.212439	1.512984	19.238426	-0.006433	0.308924
28.049327	1.432475	19.243431	-0.006393	0.308515
27.864764	1.330530	19.248435	-0.006348	0.308013
27.730158	1.248835	19.253440	-0.006315	0.307619
27.556968	1.139234	19.258445	-0.006272	0.307095
27.599934	1.015134	19.263450	-0.006283	0.306672
27.516784	0.888697	19.268455	-0.006262	0.306149
27.026349	0.852163	19.273459	-0.006142	0.305662
26.817064	0.767572	19.278464	-0.006091	0.305201
26.477428	0.719044	19.283469	-0.006008	0.304777
26.375823	0.612117	19.288474	-0.005983	0.304310
26.123635	0.562803	19.293479	-0.005921	0.303945
25.995195	0.471921	19.298483	-0.005890	0.303516
25.653625	0.418020	19.303488	-0.005806	0.303069
25.125831	0.415785	19.308493	-0.005677	0.302677
25.131071	0.318833	19.313498	-0.005678	0.302321
24.806976	0.277008	19.318503	-0.005599	0.301929
24.788955	0.169440	19.323507	-0.005594	0.301516
24.800736	0.067791	19.328512	-0.005597	0.301146
24.427969	0.028989	19.333517	-0.005506	0.300729
24.238258	-0.042108	19.338522	-0.005459	0.300324
24.120158	-0.123847	19.343527	-0.005430	0.299932
24.111156	-0.229346	19.348531	-0.005428	0.299531
24.141563	-0.342723	19.353536	-0.005435	0.299128
23.850664	-0.394527	19.358541	-0.005364	0.298719
23.649538	-0.463816	19.363546	-0.005315	0.298310
23.342360	-0.520198	19.368551	-0.005240	0.297871
23.094123	-0.582454	19.373555	-0.005179	0.297453
22.920478	-0.648816	19.378560	-0.005136	0.297074
22.648732	-0.700144	19.383565	-0.005070	0.296678
22.336241	-0.745280	19.388570	-0.004993	0.296275
21.977870	-0.771550	19.393575	-0.004906	0.295909
21.711304	-0.813231	19.398579	-0.004841	0.295552
21.482603	-0.845276	19.403584	-0.004785	0.295260
21.318746	-0.903078	19.408589	-0.004744	0.294917
21.337734	-0.997130	19.413594	-0.004749	0.294573
21.270420	-1.070613	19.418599	-0.004732	0.294243
21.177017	-1.132449	19.423603	-0.004709	0.293937
21.240328	-1.249795	19.428608	-0.004725	0.293536
21.022687	-1.320561	19.433613	-0.004671	0.293102
20.925114	-1.398699	19.438618	-0.004647	0.292729
20.641982	-1.452998	19.443623	-0.004578	0.292308
20.283793	-1.493121	19.448627	-0.004491	0.291883
20.288156	-1.587538	19.453632	-0.004491	0.291523
19.678962	-1.570524	19.458637	-0.004343	0.291128
19.451579	-1.611513	19.463642	-0.004287	0.290798
19.040601	-1.614354	19.468647	-0.004186	0.290475
18.749678	-1.637872	19.473651	-0.004115	0.290163
18.540325	-1.661518	19.478656	-0.004064	0.289913
18.234406	-1.679021	19.483661	-0.003989	0.289612
18.262609	-1.749453	19.488666	-0.003996	0.289361
18.118079	-1.790228	19.493671	-0.003961	0.289092
18.006526	-1.830725	19.498675	-0.003933	0.288850
17.974883	-1.905162	19.503680	-0.003925	0.288536
17.834457	-1.968876	19.508685	-0.003891	0.288181
17.841568	-2.057626	19.513690	-0.003893	0.287840
17.588010	-2.092462	19.518695	-0.003830	0.287510
17.032867	-2.073448	19.523699	-0.003695	0.287159
16.644566	-2.061195	19.528704	-0.003600	0.286908
16.040816	-1.997761	19.533709	-0.003452	0.286693
15.670403	-1.994834	19.538714	-0.003362	0.286419
15.580554	-1.997944	19.543719	-0.003340	0.286338
15.587625	-2.071250	19.548723	-0.003341	0.286055
15.668012	-2.141303	19.553728	-0.003361	0.285842
15.239824	-2.114877	19.558733	-0.003256	0.285616
15.384812	-2.198908	19.563738	-0.003291	0.285397
15.227221	-2.234929	19.568743	-0.003253	0.285134
15.036437	-2.275097	19.573747	-0.003206	0.284828
15.212269	-2.370581	19.578752	-0.003249	0.284587
15.242299	-2.458088	19.583757	-0.003256	0.284265
15.125278	-2.501779	19.588762	-0.003227	0.284002
14.700959	-2.503929	19.593767	-0.003124	0.283664
14.374224	-2.521117	19.598771	-0.003044	0.283342
13.690152	-2.451367	19.603776	-0.002877	0.283086
12.764981	-2.299701	19.608781	-0.002651	0.282966
12.470148	-2.288253	19.613786	-0.002579	0.282782
11.906090	-2.202921	19.618791	-0.002441	0.282681
11.464609	-2.118585	19.623795	-0.002333	0.282671
11.403975	-2.103885	19.628800	-0.002318	0.282682
11.312728	-2.089038	19.633805	-0.002296	0.282669
11.280241	-2.080666	19.638810	-0.002288	0.282677
11.118955	-2.047344	19.643815	-0.002248	0.282683
11.358300	-2.176475	19.648819	-0.002306	0.282357
11.897895	-2.282899	19.653824	-0.002438	0.282355
11.765082	-2.338358	19.658829	-0.002406	0.282031
12.073524	-2.447395	19.663834	-0.002481	0.281837
12.014927	-2.505260	19.668839	-0.002466	0.281561
11.776513	-2.541964	19.673843	-0.002408	0.281228
11.313333	-2.510087	19.678848	-0.002295	0.280992
11.066538	-2.524473	19.683853	-0.002234	0.280740
10.666145	-2.517872	19.688858	-0.002136	0.280452
9.938090	-2.411994	19.693863	-0.001959	0.280303
9.267781	-2.318865	19.698867	-0.001795	0.280149
9.056700	-2.274005	19.703872	-0.001743	0.280162
8.293492	-2.126373	19.708877	-0.001557	0.280153
7.953218	-2.058953	19.713882	-0.001474	0.280155
8.379936	-2.142129	19.718887	-0.001578	0.280157
8.705339	-2.207491	19.723891	-0.001657	0.280151
8.504142	-2.244545	19.728896	-0.001608	0.279844
8.159389	-2.180079	19.733901	-0.001524	0.279831
8.832045	-2.337168	19.738906	-0.001688	0.279731
8.770834	-2.375080	19.743911	-0.001673	0.279530
8.429731	-2.380859	19.748915	-0.001589	0.279237
8.782487	-2.476397	19.753920	-0.001675	0.279132
8.943389	-2.571396	19.758925	-0.001715	0.278877
8.642014	-2.596798	19.763930	-0.001641	0.278536
7.673733	-2.456290	19.768935	-0.001404	0.278335
7.268432	-2.448514	19.773939	-0.001305	0.278045
6.680132	-2.340132	19.778944	-0.001161	0.278016
6.539551	-2.339205	19.783949	-0.001127	0.277908
6.048349	-2.291741	19.788954	-0.001007	0.277710
5.742473	-2.230579	19.793959	-0.000932	0.277714
5.504429	-2.186683	19.798963	-0.000874	0.277702
5.565041	-2.194073	19.803968	-0.000889	0.277720
5.469488	-2.179707	19.808973	-0.000865	0.277702
5.452076	-2.255303	19.813978	-0.000861	0.277382
5.309638	-2.226381	19.818983	-0.000826	0.277386
5.463936	-2.274902	19.823987	-0.000864	0.277312
5.728903	-2.384670	19.828992	-0.000928	0.277078
5.762343	-2.446728	19.833997	-0.000936	0.276853
5.611490	-2.463031	19.839002	-0.000899	0.276667
5.239100	-2.442211	19.844007	-0.000808	0.276454
5.040918	-2.481258	19.849011	-0.000760	0.276137
4.818954	-2.465167	19.854016	-0.000705	0.276025
4.131422	-2.386165	19.859021	-0.000537	0.275797
4.243722	-2.448172	19.864026	-0.000565	0.275634
3.536448	-2.345534	19.869031	-0.000392	0.275486
3.240523	-2.289760	19.874035	-0.000320	0.275476
3.275587	-2.331955	19.879040	-0.000328	0.275332
2.575474	-2.230480	19.884045	-0.000157	0.275185
2.950375	-2.304355	19.889050	-0.000249	0.275184
3.055069	-2.352582	19.894055	-0.000274	0.275071
2.513068	-2.300000	19.899059	-0.000142	0.274850
2.654208	-2.325561	19.904064	-0.000176	0.274859
2.319569	-2.336501	19.909069	-0.000094	0.274546
2.489495	-2.368623	19.914074	-0.000136	0.274550
1.950536	-2.331390	19.919079	-0.000004	0.274269
1.918042	-2.333875	19.924083	0.000004	0.274233
1.834932	-2.344224	19.929088	0.000025	0.274124
1.285463	-2.261864	19.934093	0.000159	0.274019
1.332647	-2.284610	19.939098	0.000147	0.273963
