Sun Feb 26 13:47:42 2017

Number of Points = 3608
Depth (nm)	Load (µN)	Time (s)	Depth (V)	Load (V)
0.762130	0.015046	0.000000	0.000022	0.281082

0.571350	0.056485	0.005005	0.000069	0.281098
0.546310	0.119482	0.010010	0.000075	0.281329
0.727668	0.031925	0.015014	0.000031	0.281122
0.724769	0.027040	0.020019	0.000032	0.281099
0.774380	0.014065	0.025024	0.000020	0.281086
0.925450	-0.012630	0.030029	-0.000017	0.281097
0.856495	-0.009770	0.035034	-0.000000	0.281054
0.696261	-0.047110	0.040038	0.000039	0.280779
0.794553	-0.064766	0.045043	0.000015	0.280785
0.731721	-0.080734	0.050048	0.000031	0.280672
0.872880	-0.160829	0.055053	-0.000004	0.280462
0.837625	-0.174533	0.060058	0.000005	0.280379
0.988538	-0.259223	0.065062	-0.000031	0.280158
0.921370	-0.294858	0.070067	-0.000015	0.279962
0.784352	-0.308606	0.075072	0.000019	0.279798
0.888361	-0.395721	0.080077	-0.000006	0.279530
0.750030	-0.426413	0.085082	0.000027	0.279297
0.769324	-0.471368	0.090086	0.000023	0.279131
0.809449	-0.521467	0.095091	0.000013	0.278961
0.626091	-0.562654	0.100096	0.000058	0.278650
0.665544	-0.633901	0.105101	0.000049	0.278394
0.505153	-0.669660	0.110106	0.000088	0.278122
0.557231	-0.742846	0.115110	0.000076	0.277867
0.440020	-0.782615	0.120115	0.000104	0.277613
0.469917	-0.866001	0.125120	0.000097	0.277299
0.530331	-0.951018	0.130125	0.000083	0.277003
0.622849	-1.050667	0.135130	0.000060	0.276672
0.565064	-1.123451	0.140134	0.000075	0.276330
0.486516	-1.194278	0.145139	0.000094	0.275979
0.244209	-1.235934	0.150144	0.000153	0.275615
0.204566	-1.303483	0.155149	0.000163	0.275308
0.022203	-1.351911	0.160154	0.000208	0.274964
-0.050862	-1.420387	0.165158	0.000226	0.274625
-0.129586	-1.481521	0.170163	0.000245	0.274311
-0.161054	-1.540317	0.175168	0.000253	0.274045
-0.138704	-1.633984	0.180173	0.000248	0.273679
-0.184353	-1.717518	0.185178	0.000259	0.273299
-0.266692	-1.790288	0.190182	0.000280	0.272933
-0.227369	-1.884074	0.195187	0.000270	0.272578
-0.414236	-1.944121	0.200192	0.000316	0.272179
-0.392981	-2.042332	0.205197	0.000311	0.271790
-0.611083	-2.095446	0.210202	0.000365	0.271393
-0.824808	-2.146999	0.215206	0.000417	0.271006
-0.982512	-2.198074	0.220211	0.000456	0.270665
-1.412572	-2.198469	0.225216	0.000561	0.270313
-1.710511	-2.210371	0.230221	0.000634	0.270020
-1.927235	-2.233076	0.235226	0.000687	0.269748
-1.894948	-2.306469	0.240230	0.000679	0.269468
-1.887986	-2.369440	0.245235	0.000678	0.269211
-2.133917	-2.379030	0.250240	0.000738	0.268969
-2.048615	-2.468821	0.255245	0.000717	0.268663
-2.099644	-2.535422	0.260250	0.000730	0.268343
-2.065105	-2.623055	0.265254	0.000722	0.268004
-2.125578	-2.684153	0.270259	0.000737	0.267698
-2.286137	-2.735944	0.275264	0.000776	0.267348
-2.481716	-2.776190	0.280269	0.000824	0.267017
-3.399038	-2.650839	0.285274	0.001048	0.266785
-3.997291	-2.595733	0.290278	0.001194	0.266522
-4.141725	-2.565042	0.295283	0.001230	0.266531
-4.485170	-2.569213	0.300288	0.001314	0.266229
-5.488205	-2.379431	0.305293	0.001559	0.266197
-5.665675	-2.345772	0.310298	0.001602	0.266192
-5.157696	-2.446268	0.315302	0.001478	0.266188
-5.165120	-2.443410	0.320307	0.001480	0.266194
-5.193727	-2.440564	0.325312	0.001488	0.266182
-4.946218	-2.494686	0.330317	0.001427	0.266158
-5.674432	-2.418921	0.335322	0.001605	0.265874
-6.074248	-2.340012	0.340326	0.001703	0.265875
-6.418721	-2.270033	0.345331	0.001787	0.265884
-6.402603	-2.273111	0.350336	0.001783	0.265884
-6.529103	-2.174529	0.355341	0.001814	0.266194
-6.957183	-2.091880	0.360346	0.001919	0.266188
-6.377695	-2.205822	0.365350	0.001778	0.266187
-6.441869	-2.191072	0.370355	0.001794	0.266195
-6.329257	-2.215677	0.375360	0.001766	0.266185
-5.879215	-2.360684	0.380365	0.001656	0.265945
-5.675930	-2.417910	0.385370	0.001607	0.265872
-5.341067	-2.545597	0.390374	0.001525	0.265610
-5.187292	-2.616848	0.395379	0.001488	0.265436
-4.990447	-2.729890	0.400384	0.001440	0.265121
-4.945627	-2.812747	0.405389	0.001429	0.264807
-5.502737	-2.770066	0.410394	0.001566	0.264523
-5.908396	-2.741645	0.415398	0.001665	0.264305
-6.426723	-2.690515	0.420403	0.001792	0.264089
-7.280486	-2.528636	0.425408	0.002000	0.264063
-7.846597	-2.414008	0.430413	0.002138	0.264077
-8.544878	-2.279688	0.435418	0.002309	0.264064
-9.019716	-2.186096	0.440422	0.002425	0.264065
-9.845703	-1.973569	0.445427	0.002627	0.264278
-9.992779	-1.907707	0.450432	0.002663	0.264434
-9.403368	-1.978459	0.455437	0.002519	0.264625
-9.770083	-1.853353	0.460442	0.002609	0.264850
-8.930293	-2.000942	0.465446	0.002404	0.264923
-8.580445	-2.067069	0.470451	0.002319	0.264934
-8.282444	-2.128791	0.475456	0.002246	0.264920
-7.570628	-2.273403	0.480461	0.002072	0.264900
-7.230119	-2.407164	0.485466	0.001989	0.264616
-6.556727	-2.595561	0.490470	0.001825	0.264377
-6.497940	-2.670397	0.495475	0.001811	0.264108
-6.478291	-2.773881	0.500480	0.001806	0.263684
-6.608696	-2.833962	0.505485	0.001838	0.263318
-7.339477	-2.764778	0.510490	0.002017	0.263000
-7.854834	-2.716216	0.515494	0.002143	0.262775
-8.796554	-2.603599	0.520499	0.002373	0.262465
-9.739499	-2.420546	0.525504	0.002604	0.262454
-10.103261	-2.345432	0.530509	0.002692	0.262469
-10.732208	-2.222971	0.535514	0.002846	0.262464
-10.798622	-2.137569	0.540518	0.002862	0.262773
-11.067583	-2.077430	0.545523	0.002928	0.262803
-11.604417	-1.947246	0.550528	0.003060	0.262908
-11.340889	-1.954721	0.555533	0.002995	0.263097
-11.364707	-1.925052	0.560538	0.003001	0.263203
-10.306609	-2.084773	0.565542	0.002743	0.263408
-10.359002	-2.090349	0.570547	0.002756	0.263340
-10.425273	-2.137650	0.575552	0.002772	0.263083
-10.012184	-2.215126	0.580557	0.002671	0.263098
-10.169325	-2.185686	0.585562	0.002710	0.263091
-9.854634	-2.303577	0.590566	0.002633	0.262852
-9.764686	-2.332034	0.595571	0.002611	0.262805
-9.883215	-2.386791	0.600576	0.002641	0.262471
-9.735600	-2.441511	0.605581	0.002605	0.262361
-10.137591	-2.410294	0.610586	0.002703	0.262156
-9.670863	-2.560669	0.615590	0.002589	0.261904
-10.150102	-2.504837	0.620595	0.002706	0.261739
-10.418857	-2.499400	0.625600	0.002772	0.261535
-9.842729	-2.674596	0.630605	0.002632	0.261269
-10.728135	-2.551346	0.635610	0.002848	0.261050
-11.645010	-2.408265	0.640614	0.003072	0.260890
-11.567478	-2.420282	0.645619	0.003053	0.260903
-12.039603	-2.331051	0.650624	0.003169	0.260887
-12.634820	-2.212194	0.655629	0.003314	0.260895
-13.356768	-2.070223	0.660634	0.003491	0.260895
-13.450559	-2.052751	0.665638	0.003514	0.260890
-13.510441	-1.967310	0.670643	0.003528	0.261206
-14.063381	-1.861084	0.675648	0.003664	0.261195
-14.033144	-1.796584	0.680653	0.003656	0.261498
-13.830069	-1.827001	0.685658	0.003607	0.261538
-13.495811	-1.891982	0.690662	0.003525	0.261541
-13.117068	-1.896113	0.695667	0.003433	0.261842
-12.399742	-2.102546	0.700672	0.003258	0.261560
-11.790022	-2.226273	0.705677	0.003109	0.261543
-11.723968	-2.314835	0.710682	0.003093	0.261218
-11.063758	-2.499800	0.715686	0.002932	0.260980
-11.099184	-2.569669	0.720691	0.002941	0.260649
-11.600782	-2.551313	0.725696	0.003064	0.260303
-11.447206	-2.649065	0.730701	0.003026	0.260011
-12.100887	-2.594542	0.735706	0.003186	0.259691
-12.518176	-2.568681	0.740710	0.003288	0.259447
-13.172593	-2.467223	0.745715	0.003448	0.259329
-13.367877	-2.462955	0.750720	0.003496	0.259181
-13.994015	-2.359786	0.755725	0.003649	0.259094
-14.721392	-2.217257	0.760730	0.003827	0.259092
-15.158913	-2.131141	0.765734	0.003934	0.259092
-15.399211	-2.037581	0.770739	0.003993	0.259292
-15.449862	-2.021958	0.775744	0.004005	0.259316
-15.332574	-2.042503	0.780749	0.003977	0.259327
-15.703209	-1.955679	0.785754	0.004067	0.259387
-15.475817	-1.942822	0.790758	0.004012	0.259635
-15.659269	-1.904161	0.795763	0.004057	0.259646
-15.385899	-1.960147	0.800768	0.003990	0.259636
-15.069117	-2.019608	0.805773	0.003913	0.259648
-15.254979	-1.984772	0.810778	0.003958	0.259640
-14.801169	-2.075585	0.815782	0.003848	0.259632
-14.461095	-2.212448	0.820787	0.003765	0.259329
-14.397429	-2.236603	0.825792	0.003749	0.259278
-14.325518	-2.293038	0.830797	0.003732	0.259094
-13.812141	-2.449484	0.835802	0.003607	0.258853
-13.936099	-2.495812	0.840806	0.003637	0.258546
-14.179278	-2.512207	0.845811	0.003697	0.258266
-14.419940	-2.528883	0.850816	0.003756	0.257988
-14.729179	-2.505534	0.855821	0.003832	0.257824
-15.299838	-2.470378	0.860826	0.003971	0.257488
-15.569401	-2.418807	0.865830	0.004037	0.257481
-16.290602	-2.337993	0.870835	0.004213	0.257215
-17.077114	-2.193534	0.875840	0.004405	0.257170
-17.593589	-2.033821	0.880845	0.004532	0.257424
-17.818303	-1.974191	0.885850	0.004587	0.257491
-18.171349	-1.900071	0.890854	0.004673	0.257511
-18.254216	-1.810468	0.895859	0.004693	0.257830
-18.176641	-1.828885	0.900864	0.004675	0.257816
-17.588741	-1.893104	0.905869	0.004531	0.258039
-17.300812	-1.935998	0.910874	0.004461	0.258098
-17.118897	-2.037270	0.915878	0.004417	0.257812
-16.986502	-2.059868	0.920883	0.004384	0.257827
-16.905975	-2.078806	0.925888	0.004365	0.257813
-16.644844	-2.185616	0.930893	0.004301	0.257570
-16.725673	-2.187946	0.935898	0.004321	0.257490
-16.552878	-2.288957	0.940902	0.004279	0.257197
-16.444659	-2.339631	0.945907	0.004253	0.257069
-17.006628	-2.278829	0.950912	0.004390	0.256851
-16.812250	-2.373982	0.955917	0.004343	0.256602
-17.421588	-2.268019	0.960922	0.004492	0.256541
-17.532576	-2.318985	0.965926	0.004519	0.256221
-17.839277	-2.255914	0.970931	0.004594	0.256233
-18.311322	-2.217689	0.975936	0.004710	0.255993
-18.570884	-2.184457	0.980941	0.004773	0.255915
-18.618397	-2.175806	0.985946	0.004785	0.255911
-18.552453	-2.189195	0.990950	0.004769	0.255909
-18.815815	-2.134598	0.995955	0.004833	0.255921
-19.216126	-2.057800	1.000960	0.004931	0.255912

-19.648398	-1.972934	1.010957	0.005037	0.255911
-19.551532	-1.949382	1.020954	0.005014	0.256097
-19.512041	-1.926504	1.030950	0.005004	0.256230
-19.062521	-2.014956	1.040947	0.004895	0.256229
-18.454792	-2.134781	1.050944	0.004747	0.256226
-17.881401	-2.266973	1.060941	0.004607	0.256140
-18.055003	-2.283806	1.070938	0.004650	0.255915
-18.235774	-2.309847	1.080934	0.004694	0.255644
-18.909843	-2.188626	1.090931	0.004859	0.255594
-19.154102	-2.084282	1.100928	0.004919	0.255840
-19.473311	-1.999003	1.110925	0.004997	0.255938
-19.164986	-1.992818	1.120922	0.004922	0.256230
-19.278730	-1.933619	1.130918	0.004950	0.256390
-18.520739	-2.043294	1.140915	0.004765	0.256562
-18.223873	-2.102080	1.150912	0.004693	0.256559
-17.742163	-2.216319	1.160909	0.004576	0.256472
-17.991519	-2.222482	1.170906	0.004637	0.256230
-17.954814	-2.229684	1.180902	0.004628	0.256229
-18.044023	-2.212424	1.190899	0.004650	0.256227
-18.398701	-2.142584	1.200896	0.004737	0.256226
-18.785040	-2.055281	1.210893	0.004832	0.256275
-18.852036	-1.976266	1.220890	0.004848	0.256562
-18.768197	-1.939541	1.230886	0.004828	0.256794
-18.331736	-2.010004	1.240883	0.004722	0.256860
-17.697176	-2.135335	1.250880	0.004567	0.256857
-16.914098	-2.290205	1.260877	0.004376	0.256852
-17.103687	-2.319148	1.270874	0.004423	0.256561
-17.274663	-2.284796	1.280870	0.004465	0.256564
-17.856022	-2.201511	1.290867	0.004607	0.256427
-18.206128	-2.101917	1.300864	0.004693	0.256561
-18.403022	-2.017810	1.310861	0.004741	0.256758
-18.260200	-2.018214	1.320858	0.004706	0.256878
-17.846361	-2.030302	1.330854	0.004605	0.257180
-17.691801	-2.060323	1.340851	0.004568	0.257181
-17.552562	-2.088585	1.350848	0.004534	0.257176
-17.422619	-2.114004	1.360845	0.004503	0.257176
-17.260149	-2.145360	1.370842	0.004463	0.257177
-16.788140	-2.237716	1.380838	0.004348	0.257178
-16.594024	-2.276027	1.390835	0.004301	0.257177
-16.760191	-2.311403	1.400832	0.004342	0.256878
-17.165271	-2.236113	1.410829	0.004441	0.256858
-17.577701	-2.130070	1.420826	0.004542	0.256967
-17.739950	-2.049498	1.430822	0.004582	0.257178
-18.016780	-1.930866	1.440819	0.004650	0.257458
-17.375136	-1.986962	1.450816	0.004493	0.257762
-17.029275	-2.042350	1.460813	0.004409	0.257816
-16.715826	-2.103868	1.470810	0.004333	0.257815
-16.602265	-2.125523	1.480806	0.004306	0.257817
-16.260596	-2.192233	1.490803	0.004222	0.257818
-16.171639	-2.276386	1.500800	0.004201	0.257527
-16.228936	-2.274286	1.510797	0.004215	0.257486
-15.902777	-2.353448	1.520794	0.004136	0.257419
-16.301608	-2.329811	1.530790	0.004234	0.257180
-16.752406	-2.241617	1.540787	0.004344	0.257177
-17.407591	-2.045298	1.550784	0.004504	0.257471
-17.534251	-1.951372	1.560781	0.004535	0.257770
-17.668237	-1.845243	1.570778	0.004568	0.258117
-17.124067	-1.877132	1.580774	0.004436	0.258442
-16.363417	-1.972108	1.590771	0.004250	0.258678
-15.619816	-2.139823	1.600768	0.004069	0.258584
-14.796501	-2.357523	1.610765	0.003868	0.258340
-15.070778	-2.377551	1.620762	0.003935	0.258018
-15.790009	-2.281073	1.630758	0.004111	0.257821
-15.993352	-2.241260	1.640755	0.004161	0.257820
-16.124114	-2.215589	1.650752	0.004193	0.257819
-16.033735	-2.179993	1.660749	0.004171	0.258050
-15.670536	-2.258100	1.670746	0.004083	0.258020
-16.261171	-2.119288	1.680742	0.004228	0.258118
-16.585126	-2.032179	1.690739	0.004307	0.258219
-16.698010	-1.944912	1.700736	0.004335	0.258501
-16.665906	-1.884656	1.710733	0.004327	0.258789
-16.622602	-1.818385	1.720730	0.004317	0.259112
-15.490500	-1.991491	1.730726	0.004040	0.259325
-14.302891	-2.265205	1.740723	0.003751	0.259150
-13.615274	-2.487319	1.750720	0.003583	0.258772
-13.795643	-2.559370	1.760717	0.003628	0.258304
-14.425288	-2.512619	1.770714	0.003782	0.257968
-15.438509	-2.347102	1.780710	0.004029	0.257821
-16.484317	-2.086957	1.790707	0.004285	0.258057
-17.042412	-1.866367	1.800704	0.004421	0.258538
-16.715065	-1.823623	1.810701	0.004342	0.259002
-16.459940	-1.782464	1.820698	0.004280	0.259397
-15.340831	-1.945460	1.830694	0.004007	0.259642
-14.263345	-2.157732	1.840691	0.003744	0.259639
-13.802663	-2.309997	1.850688	0.003632	0.259371
-13.487218	-2.425372	1.860685	0.003555	0.259139
-13.764577	-2.452058	1.870682	0.003623	0.258786
-14.175891	-2.429866	1.880678	0.003724	0.258531
-15.048883	-2.270290	1.890675	0.003937	0.258478
-15.195239	-2.177699	1.900672	0.003973	0.258754
-15.560354	-2.070375	1.910669	0.004062	0.258907
-15.604567	-2.001853	1.920666	0.004073	0.259165
-15.452401	-1.979314	1.930662	0.004036	0.259392
-14.724010	-2.064368	1.940659	0.003859	0.259642
-14.140278	-2.179858	1.950656	0.003717	0.259638
-13.875513	-2.244371	1.960653	0.003652	0.259583
-14.143127	-2.251727	1.970650	0.003718	0.259323
-13.938069	-2.290975	1.980646	0.003668	0.259326
-13.909358	-2.297090	1.990643	0.003661	0.259323
-14.081453	-2.263230	2.000640	0.003704	0.259323
-14.069385	-2.265626	2.010637	0.003701	0.259322
-13.884554	-2.301801	2.020634	0.003656	0.259321
-14.140770	-2.250896	2.030630	0.003719	0.259323
-14.268560	-2.225409	2.040627	0.003750	0.259323
-14.592534	-2.125332	2.050624	0.003830	0.259480
-14.543214	-2.097777	2.060621	0.003818	0.259640
-14.276065	-2.085545	2.070618	0.003753	0.259919
-13.555083	-2.219839	2.080614	0.003577	0.259950
-13.364171	-2.257480	2.090611	0.003531	0.259949
-13.485866	-2.298417	2.100608	0.003561	0.259668
-13.311657	-2.338965	2.110605	0.003518	0.259640
-13.551404	-2.290830	2.120602	0.003577	0.259643
-13.834974	-2.229131	2.130598	0.003647	0.259668
-13.656243	-2.199606	2.140595	0.003603	0.259946
-13.424085	-2.245481	2.150592	0.003547	0.259944
-13.761280	-2.179428	2.160589	0.003630	0.259942
-13.844351	-2.135685	2.170586	0.003650	0.260060
-13.379317	-2.176800	2.180582	0.003537	0.260276
-13.247648	-2.203132	2.190579	0.003505	0.260273
-13.315262	-2.190113	2.200576	0.003522	0.260271
-13.041754	-2.243436	2.210573	0.003455	0.260272
-12.808839	-2.288984	2.220570	0.003399	0.260272
-12.776430	-2.294420	2.230566	0.003391	0.260275
-12.604987	-2.328375	2.240563	0.003349	0.260273
-12.851827	-2.353305	2.250560	0.003410	0.259955
-12.843849	-2.319871	2.260557	0.003408	0.260105
-13.496293	-2.153773	2.270554	0.003568	0.260268
-13.640111	-2.093054	2.280550	0.003603	0.260407
-13.496303	-2.068083	2.290547	0.003568	0.260635
-13.278613	-2.052154	2.300544	0.003515	0.260887
-12.537209	-2.197214	2.310541	0.003334	0.260889
-12.092558	-2.284450	2.320538	0.003226	0.260889
-11.823898	-2.367638	2.330534	0.003161	0.260757
-11.917149	-2.393185	2.340531	0.003184	0.260567
-11.694827	-2.449963	2.350528	0.003130	0.260510
-12.147359	-2.415825	2.360525	0.003241	0.260273
-12.914786	-2.242020	2.370522	0.003428	0.260371
-12.843680	-2.209404	2.380518	0.003411	0.260571
-13.074067	-2.110224	2.390515	0.003468	0.260802
-13.136202	-2.041682	2.400512	0.003483	0.261044
-12.644972	-2.101477	2.410509	0.003363	0.261201
-12.051160	-2.169339	2.420506	0.003219	0.261410
-11.784479	-2.233594	2.430502	0.003154	0.261358
-11.548506	-2.314684	2.440499	0.003096	0.261208
-11.183665	-2.386883	2.450496	0.003008	0.261205
-11.447343	-2.407152	2.460493	0.003072	0.260894
-11.871372	-2.323313	2.470490	0.003176	0.260895
-12.037196	-2.277656	2.480486	0.003217	0.260950
-11.715616	-2.318466	2.490483	0.003139	0.261046
-11.907145	-2.244504	2.500480	0.003186	0.261201
-12.606861	-2.092114	2.510477	0.003357	0.261264
-12.016861	-2.143183	2.520474	0.003213	0.261542
-12.064694	-2.115168	2.530470	0.003225	0.261621
-11.708513	-2.135319	2.540467	0.003138	0.261834
-11.520430	-2.172541	2.550464	0.003092	0.261832
-10.686728	-2.335785	2.560461	0.002889	0.261833
-10.716948	-2.384309	2.570458	0.002897	0.261599
-10.353939	-2.477623	2.580454	0.002808	0.261504
-10.822863	-2.454944	2.590451	0.002923	0.261204
-11.314503	-2.358703	2.600448	0.003044	0.261202
-11.832657	-2.209447	2.610445	0.003170	0.261404
-12.028006	-2.120296	2.620442	0.003218	0.261621
-11.817179	-2.108903	2.630438	0.003167	0.261847
-11.726987	-2.054893	2.640435	0.003145	0.262153
-10.919613	-2.214420	2.650432	0.002948	0.262149
-10.297468	-2.336872	2.660429	0.002797	0.262147
-10.181484	-2.389291	2.670426	0.002769	0.262019
-10.642574	-2.340626	2.680422	0.002882	0.261839
-10.560974	-2.356673	2.690419	0.002862	0.261838
-10.866124	-2.296743	2.700416	0.002937	0.261837
-10.897624	-2.224327	2.710413	0.002945	0.262120
-10.891588	-2.216659	2.720410	0.002943	0.262157
-10.567775	-2.279540	2.730406	0.002865	0.262159
-10.346032	-2.323022	2.740403	0.002811	0.262158
-10.162648	-2.359699	2.750400	0.002766	0.262155
-10.056877	-2.381012	2.760397	0.002741	0.262152
-10.236684	-2.344705	2.770394	0.002785	0.262155
-10.890488	-2.214805	2.780390	0.002945	0.262160
-10.823881	-2.173933	2.790387	0.002929	0.262390
-11.117080	-2.079004	2.800384	0.003000	0.262549
-10.430889	-2.156002	2.810381	0.002833	0.262795
-10.116316	-2.217325	2.820378	0.002757	0.262796
-9.676872	-2.303108	2.830374	0.002650	0.262798
-9.384854	-2.360845	2.840371	0.002579	0.262795
-9.142826	-2.482400	2.850368	0.002520	0.262478
-9.036099	-2.535654	2.860365	0.002494	0.262339
-9.615995	-2.464906	2.870362	0.002636	0.262153
-10.168980	-2.355482	2.880358	0.002771	0.262156
-10.540100	-2.212723	2.890355	0.002862	0.262453
-10.472257	-2.173963	2.900352	0.002846	0.262675
-10.621118	-2.083700	2.910349	0.002882	0.262935
-10.416162	-2.070506	2.920346	0.002832	0.263162
-9.656492	-2.160169	2.930342	0.002647	0.263416
-9.296600	-2.230952	2.940339	0.002560	0.263415
-8.898342	-2.316811	2.950336	0.002463	0.263381
-8.580447	-2.447541	2.960333	0.002385	0.263089
-8.329533	-2.536343	2.970330	0.002324	0.262920
-8.350989	-2.596118	2.980326	0.002330	0.262646
-8.913497	-2.527209	2.990323	0.002467	0.262467
-9.599538	-2.393146	3.000320	0.002635	0.262462
-10.363124	-2.170130	3.010317	0.002822	0.262773
-10.430828	-2.068467	3.020314	0.002839	0.263150
-9.981391	-2.080992	3.030310	0.002729	0.263472
-9.353128	-2.143119	3.040307	0.002576	0.263732
-9.217781	-2.170106	3.050304	0.002543	0.263730
-8.693693	-2.272961	3.060301	0.002415	0.263729
-8.216198	-2.365741	3.070298	0.002299	0.263733
-7.899632	-2.470753	3.080294	0.002222	0.263550
-7.959280	-2.489549	3.090291	0.002237	0.263419
-8.039379	-2.543380	3.100288	0.002257	0.263121
-8.419749	-2.475933	3.110285	0.002350	0.263089
-9.296625	-2.296242	3.120282	0.002564	0.263120
-9.311078	-2.223046	3.130278	0.002568	0.263419
-9.343233	-2.158135	3.140275	0.002576	0.263667
-9.104168	-2.145664	3.150272	0.002518	0.263920
-8.528542	-2.223982	3.160269	0.002378	0.264067
-8.194291	-2.288879	3.170266	0.002296	0.264069
-8.294338	-2.268589	3.180262	0.002321	0.264071
-8.033758	-2.319729	3.190259	0.002258	0.264070
-7.611666	-2.403805	3.200256	0.002155	0.264065
-7.883078	-2.423964	3.210253	0.002221	0.263751
-7.861473	-2.433201	3.220250	0.002216	0.263729
-7.538095	-2.496059	3.230246	0.002138	0.263731
-7.817893	-2.440479	3.240243	0.002206	0.263733
-8.324824	-2.341440	3.250240	0.002330	0.263729
-8.797632	-2.196022	3.260237	0.002446	0.263952
-8.772235	-2.148069	3.270234	0.002440	0.264176
-8.717262	-2.101508	3.280230	0.002427	0.264418
-7.802845	-2.232685	3.290227	0.002204	0.264624
-7.387381	-2.314378	3.300224	0.002103	0.264622
-6.983737	-2.418825	3.310221	0.002004	0.264515
-6.955948	-2.472568	3.320218	0.001998	0.264309
-6.993147	-2.482447	3.330214	0.002007	0.264235
-7.360092	-2.448773	3.340211	0.002097	0.264071
-7.450850	-2.430460	3.350208	0.002120	0.264072
-7.501437	-2.376231	3.360205	0.002132	0.264259
-8.068870	-2.252974	3.370202	0.002271	0.264308
-8.304664	-2.147232	3.380198	0.002329	0.264559
-8.290059	-2.080218	3.390195	0.002325	0.264855
-7.508999	-2.163816	3.400192	0.002135	0.265150
-6.829742	-2.284071	3.410189	0.001969	0.265205
-6.353794	-2.442353	3.420186	0.001853	0.264930
-6.089646	-2.532964	3.430182	0.001789	0.264765
-6.135632	-2.557656	3.440179	0.001801	0.264621
-6.917536	-2.476646	3.450176	0.001992	0.264312
-7.314885	-2.324687	3.460173	0.002089	0.264625
-7.838917	-2.196833	3.470170	0.002217	0.264729
-7.465907	-2.218061	3.480166	0.002127	0.264949
-7.156978	-2.203286	3.490163	0.002051	0.265268
-6.569767	-2.319408	3.500160	0.001908	0.265264
-6.262045	-2.379728	3.510157	0.001833	0.265264
-6.123906	-2.446353	3.520154	0.001800	0.265096
-6.450025	-2.420337	3.530150	0.001880	0.264933
-6.327972	-2.444631	3.540147	0.001850	0.264931
-6.439209	-2.422901	3.550144	0.001878	0.264930
-6.475983	-2.367141	3.560141	0.001887	0.265134
-6.247603	-2.381451	3.570138	0.001831	0.265263
-6.489045	-2.333073	3.580134	0.001891	0.265266
-6.880144	-2.256207	3.590131	0.001986	0.265265
-6.583749	-2.258473	3.600128	0.001914	0.265501
-6.508224	-2.260942	3.610125	0.001896	0.265552
-6.321780	-2.296351	3.620122	0.001851	0.265557
-5.738511	-2.397910	3.630118	0.001709	0.265611
-5.136215	-2.528687	3.640115	0.001562	0.265557
-5.041308	-2.601022	3.650112	0.001539	0.265330
-5.319567	-2.562627	3.660109	0.001607	0.265260
-6.165077	-2.395269	3.670106	0.001814	0.265264
-6.552809	-2.312647	3.680102	0.001909	0.265290
-6.583216	-2.243206	3.690099	0.001917	0.265558
-5.698639	-2.354950	3.700096	0.001701	0.265819
-5.743003	-2.332724	3.710093	0.001712	0.265875
-5.525125	-2.374688	3.720090	0.001659	0.265878
-5.308226	-2.416756	3.730086	0.001606	0.265879
-5.260886	-2.436779	3.740083	0.001595	0.265833
-5.441687	-2.412193	3.750080	0.001639	0.265786
-5.488163	-2.382006	3.760077	0.001651	0.265874
-4.978248	-2.492105	3.770074	0.001527	0.265831
-5.141834	-2.523604	3.780070	0.001567	0.265562
-5.316494	-2.464156	3.790067	0.001610	0.265667
-5.113939	-2.453261	3.800064	0.001561	0.265880
-5.666116	-2.345099	3.810061	0.001696	0.265878
-5.646200	-2.336326	3.820058	0.001691	0.265930
-5.527979	-2.296615	3.830054	0.001662	0.266195
-5.228813	-2.355683	3.840051	0.001590	0.266193
-5.164089	-2.303160	3.850048	0.001574	0.266467
-4.646518	-2.390967	3.860045	0.001448	0.266525
-4.625751	-2.441819	3.870042	0.001443	0.266327
-4.646973	-2.469439	3.880038	0.001449	0.266192
-4.633390	-2.471936	3.890035	0.001446	0.266192
-4.420650	-2.514126	3.900032	0.001394	0.266189
-4.388251	-2.520353	3.910029	0.001386	0.266189
-4.842919	-2.431188	3.920026	0.001498	0.266187
-4.888434	-2.352374	3.930022	0.001509	0.266481
-4.847899	-2.349151	3.940019	0.001499	0.266527
-4.811004	-2.331586	3.950016	0.001491	0.266631
-4.649071	-2.318807	3.960013	0.001451	0.266817
-4.368560	-2.372281	3.970010	0.001383	0.266823
-4.534871	-2.338735	3.980006	0.001424	0.266826
-4.289874	-2.386647	3.990003	0.001364	0.266826
-4.064227	-2.431146	4.000000	0.001309	0.266825
-3.886103	-2.466915	4.009997	0.001266	0.266820
-3.533834	-2.535173	4.019994	0.001180	0.266824
-3.734165	-2.494770	4.029990	0.001230	0.266827
-4.192222	-2.405114	4.039987	0.001342	0.266825
-4.768529	-2.276075	4.049984	0.001483	0.266890
-4.140371	-2.339592	4.059981	0.001330	0.267141
-4.146835	-2.337336	4.069978	0.001331	0.267144
-3.964427	-2.350592	4.079974	0.001287	0.267238
-3.900812	-2.310933	4.089971	0.001272	0.267457
-3.626569	-2.364497	4.099968	0.001205	0.267457
-3.556509	-2.378669	4.109965	0.001188	0.267454
-3.719880	-2.346482	4.119962	0.001228	0.267454
-3.590307	-2.371669	4.129958	0.001197	0.267454
-3.875063	-2.311262	4.139955	0.001267	0.267472
-3.552004	-2.300343	4.149952	0.001188	0.267783
-3.404729	-2.328803	4.159949	0.001153	0.267784
-3.262308	-2.355647	4.169946	0.001118	0.267788
-3.015986	-2.403785	4.179942	0.001058	0.267788
-2.957927	-2.420182	4.189939	0.001044	0.267766
-3.284143	-2.361243	4.199936	0.001124	0.267744
-3.670302	-2.275508	4.209933	0.001219	0.267784
-3.735377	-2.221192	4.219930	0.001235	0.267957
-3.568188	-2.223264	4.229926	0.001194	0.268085
-3.273388	-2.228410	4.239923	0.001122	0.268305
-3.166196	-2.225535	4.249920	0.001097	0.268405
-3.032800	-2.251673	4.259917	0.001064	0.268404
-2.673117	-2.322239	4.269914	0.000977	0.268404
-2.523918	-2.351394	4.279910	0.000941	0.268403
-2.522840	-2.350873	4.289907	0.000941	0.268406
-2.605531	-2.334910	4.299904	0.000961	0.268404
-2.751846	-2.305828	4.309901	0.000997	0.268404
-2.984645	-2.259906	4.319898	0.001054	0.268404
-2.777447	-2.238356	4.329894	0.001004	0.268663
-2.621584	-2.254181	4.339891	0.000966	0.268724
-2.552672	-2.267761	4.349888	0.000949	0.268723
-2.426609	-2.293192	4.359885	0.000919	0.268719
-2.345183	-2.308941	4.369882	0.000899	0.268720
-2.291246	-2.318244	4.379878	0.000886	0.268724
-2.453338	-2.250222	4.389875	0.000926	0.268874
-2.459747	-2.204571	4.399872	0.000928	0.269059
-2.479004	-2.201875	4.409869	0.000933	0.269053
-2.501659	-2.168855	4.419866	0.000939	0.269171
-2.292860	-2.181602	4.429862	0.000888	0.269288
-2.316253	-2.176871	4.439859	0.000894	0.269288
-2.054590	-2.175134	4.449856	0.000830	0.269509
-1.836067	-2.196654	4.459853	0.000777	0.269597
-1.981500	-2.167634	4.469850	0.000813	0.269598
-1.888561	-2.184963	4.479846	0.000790	0.269601
-2.030666	-2.157137	4.489843	0.000825	0.269600
-2.001444	-2.122603	4.499840	0.000819	0.269766
-2.046337	-2.080167	4.509837	0.000830	0.269905
-1.880478	-2.112101	4.519834	0.000790	0.269907
-1.766863	-2.072451	4.529830	0.000762	0.270164
-1.679166	-2.072692	4.539827	0.000741	0.270234
-1.670891	-2.074649	4.549824	0.000739	0.270231
-1.617811	-2.082362	4.559821	0.000726	0.270242
-1.716439	-1.992871	4.569818	0.000751	0.270532
-1.725805	-1.989531	4.579814	0.000753	0.270537
-1.674221	-1.946999	4.589811	0.000741	0.270755
-1.532083	-1.952147	4.599808	0.000706	0.270848
-1.536311	-1.929487	4.609805	0.000708	0.270938
-1.598246	-1.862113	4.619802	0.000723	0.271165
-1.487426	-1.865988	4.629798	0.000696	0.271239
-1.434361	-1.814419	4.639795	0.000684	0.271494
-1.475227	-1.787000	4.649792	0.000694	0.271573
-1.424385	-1.742847	4.659789	0.000682	0.271796
-1.342444	-1.730912	4.669786	0.000662	0.271911
-1.122306	-1.725473	4.679782	0.000608	0.272111
-1.036741	-1.741744	4.689779	0.000588	0.272113
-0.922764	-1.710575	4.699776	0.000560	0.272332
-0.932606	-1.686423	4.709773	0.000563	0.272423
-0.862187	-1.699375	4.719770	0.000546	0.272426
-1.064950	-1.612421	4.729766	0.000596	0.272619
-1.169672	-1.557669	4.739763	0.000621	0.272759
-1.050375	-1.508922	4.749760	0.000592	0.273055
-0.987407	-1.491803	4.759757	0.000577	0.273175
-0.859671	-1.468073	4.769754	0.000546	0.273375
-0.742288	-1.454140	4.779750	0.000518	0.273526
-0.638238	-1.431868	4.789747	0.000493	0.273700
-0.665868	-1.405859	4.799744	0.000500	0.273784
-0.886501	-1.303591	4.809741	0.000554	0.274024
-0.972460	-1.242873	4.819738	0.000575	0.274203
-0.928777	-1.193948	4.829734	0.000565	0.274437
-0.781140	-1.159558	4.839731	0.000529	0.274695
-0.650713	-1.142387	4.849728	0.000497	0.274869
-0.519047	-1.088632	4.859725	0.000465	0.275193
-0.475723	-1.070571	4.869722	0.000455	0.275301
-0.243166	-1.067585	4.879718	0.000398	0.275498
-0.364074	-1.000745	4.889715	0.000428	0.275673
-0.443403	-0.942291	4.899712	0.000448	0.275847
-0.503253	-0.859471	4.909709	0.000463	0.276135
-0.386119	-0.811392	4.919706	0.000434	0.276423
-0.256111	-0.787498	4.929702	0.000403	0.276622
-0.107011	-0.780790	4.939699	0.000366	0.276768
-0.074348	-0.712641	4.949696	0.000359	0.277069
-0.031163	-0.690069	4.959693	0.000348	0.277194
-0.099043	-0.628212	4.969690	0.000365	0.277389
-0.150983	-0.538302	4.979686	0.000378	0.277711
-0.245867	-0.459342	4.989683	0.000401	0.277954
-0.235245	-0.386816	4.999680	0.000399	0.278254
-0.189223	-0.315291	5.009677	0.000388	0.278578
0.008336	-0.277142	5.019674	0.000340	0.278887
0.201883	-0.262542	5.029670	0.000293	0.279098
0.205829	-0.219363	5.039667	0.000292	0.279273
0.224091	-0.158461	5.049664	0.000288	0.279532
0.077899	-0.060419	5.059661	0.000324	0.279809
0.062220	0.020823	5.069658	0.000328	0.280121
0.000000	0.104948	5.079654	0.000343	0.280409

-0.000835	0.135188	5.084659	0.000344	0.280528
-0.037106	0.205397	5.089664	0.000353	0.280780
-0.012690	0.270158	5.094669	0.000347	0.281058
0.106173	0.307726	5.099674	0.000318	0.281300
0.254513	0.346274	5.104678	0.000282	0.281570
0.368654	0.390316	5.109683	0.000254	0.281834
0.498782	0.434110	5.114688	0.000222	0.282110
0.680296	0.469451	5.119693	0.000178	0.282392
0.866466	0.504952	5.124698	0.000133	0.282678
0.758654	0.604133	5.129702	0.000159	0.282987
0.705631	0.703116	5.134707	0.000172	0.283337
0.717113	0.792286	5.139712	0.000169	0.283699
0.724134	0.884089	5.144717	0.000168	0.284067
0.678955	0.973275	5.149722	0.000179	0.284384
0.703508	1.088969	5.154726	0.000173	0.284858
0.623399	1.216062	5.159731	0.000192	0.285296
0.448538	1.380023	5.164736	0.000235	0.285805
0.593053	1.488784	5.169741	0.000200	0.286343
0.673997	1.606462	5.174746	0.000180	0.286866
0.924053	1.705047	5.179750	0.000119	0.287442
0.837946	1.856963	5.184755	0.000140	0.287969
0.920850	1.988222	5.189760	0.000120	0.288543
1.075521	2.099838	5.194765	0.000082	0.289094
1.216098	2.207822	5.199770	0.000048	0.289619
1.235310	2.364887	5.204774	0.000043	0.290242
1.189667	2.532087	5.209779	0.000054	0.290852
1.268751	2.689068	5.214784	0.000035	0.291517
1.316764	2.852615	5.219789	0.000023	0.292182
1.161551	3.061234	5.224794	0.000061	0.292865
1.021231	3.282785	5.229798	0.000096	0.293607
1.076689	3.456366	5.234803	0.000082	0.294311
1.088735	3.652776	5.239808	0.000079	0.295067
1.189067	3.853147	5.244813	0.000055	0.295903
1.224622	4.054590	5.249818	0.000046	0.296692
1.350748	4.257312	5.254822	0.000015	0.297551
1.272457	4.496188	5.259827	0.000034	0.298392
1.378318	4.694046	5.264832	0.000008	0.299213
1.543277	4.890698	5.269837	-0.000032	0.300070
1.669751	5.102331	5.274842	-0.000063	0.300953
1.912087	5.296225	5.279846	-0.000122	0.301852
2.021947	5.508097	5.284851	-0.000149	0.302718
2.117394	5.729950	5.289856	-0.000172	0.303608
2.070633	5.972058	5.294861	-0.000161	0.304468
2.165256	6.203490	5.299866	-0.000184	0.305387
2.442396	6.407399	5.304870	-0.000252	0.306335
2.420928	6.667182	5.309875	-0.000247	0.307269
2.384905	6.938107	5.314880	-0.000238	0.308231
2.524438	7.167408	5.319885	-0.000272	0.309164
2.483688	7.435945	5.324890	-0.000262	0.310108
2.479041	7.724096	5.329894	-0.000261	0.311145
2.470533	8.018111	5.334899	-0.000259	0.312197
2.550479	8.301022	5.339904	-0.000279	0.313268
2.666828	8.563000	5.344909	-0.000307	0.314287
2.645226	8.868858	5.349914	-0.000302	0.315361
2.689776	9.179386	5.354918	-0.000313	0.316495
2.823550	9.469364	5.359923	-0.000346	0.317614
2.844952	9.786971	5.364928	-0.000351	0.318749
3.039535	10.061941	5.369933	-0.000399	0.319849
3.252360	10.347385	5.374938	-0.000451	0.320995
3.300427	10.672259	5.379942	-0.000462	0.322161
3.380918	10.991718	5.384947	-0.000482	0.323326
3.414303	11.307240	5.389952	-0.000490	0.324442
3.457081	11.653043	5.394957	-0.000501	0.325664
3.521946	11.991688	5.399962	-0.000517	0.326872
3.597242	12.342756	5.404966	-0.000536	0.328126
3.672836	12.668707	5.409971	-0.000554	0.329289
3.639886	13.043569	5.414976	-0.000546	0.330541
3.756588	13.405589	5.419981	-0.000575	0.331845
3.798170	13.778190	5.424986	-0.000585	0.333130
3.903082	14.136275	5.429990	-0.000611	0.334403
3.970105	14.515547	5.434995	-0.000627	0.335717
4.181928	14.872419	5.440000	-0.000679	0.337045
4.305028	15.249256	5.445005	-0.000709	0.338377
4.258991	15.647363	5.450010	-0.000698	0.339665
4.434605	16.031117	5.455014	-0.000741	0.341043
4.363006	16.462521	5.460019	-0.000724	0.342414
4.506516	16.860144	5.465024	-0.000759	0.343806
4.459961	17.293693	5.470029	-0.000748	0.345188
4.442265	17.744829	5.475034	-0.000744	0.346640
4.547837	18.179994	5.480038	-0.000770	0.348112
4.557622	18.616253	5.485043	-0.000772	0.349521
4.463925	19.106515	5.490048	-0.000750	0.351033
4.663877	19.552173	5.495053	-0.000799	0.352579
4.647982	20.017397	5.500058	-0.000795	0.354047
4.894720	20.455711	5.505062	-0.000856	0.355585
4.984856	20.927915	5.510067	-0.000878	0.357128
5.209522	21.367852	5.515072	-0.000933	0.358645
5.501670	21.790805	5.520077	-0.001004	0.360143
5.551970	22.275108	5.525082	-0.001017	0.361680
5.851842	22.713651	5.530086	-0.001090	0.363219
6.011636	23.158658	5.535091	-0.001130	0.364687
6.081793	23.647418	5.540096	-0.001147	0.366229
6.309494	24.115734	5.545101	-0.001203	0.367797
6.400246	24.572523	5.550106	-0.001225	0.369242
6.447088	25.077274	5.555110	-0.001237	0.370800
6.471794	25.594543	5.560115	-0.001243	0.372376
6.471882	26.109636	5.565120	-0.001243	0.373925
6.403176	26.661884	5.570125	-0.001227	0.375538
6.295652	27.239363	5.575130	-0.001201	0.377197
6.395730	27.776235	5.580134	-0.001226	0.378848
6.571988	28.308967	5.585139	-0.001269	0.380524
6.580465	28.884554	5.590144	-0.001271	0.382223
6.693778	29.440317	5.595149	-0.001299	0.383915
6.587972	30.048546	5.600154	-0.001274	0.385628
6.712449	30.639208	5.605158	-0.001304	0.387413
6.929121	31.179017	5.610163	-0.001357	0.389096
6.817172	31.818321	5.615168	-0.001330	0.390872
7.127368	32.389886	5.620173	-0.001406	0.392682
7.146070	32.982708	5.625178	-0.001411	0.394383
7.159820	33.623837	5.630182	-0.001415	0.396210
7.427512	34.213146	5.635187	-0.001481	0.398023
7.428739	34.840741	5.640192	-0.001481	0.399789
7.570575	35.476370	5.645197	-0.001516	0.401646
7.561062	36.127341	5.650202	-0.001514	0.403455
7.623091	36.784902	5.655206	-0.001530	0.405313
7.692500	37.457002	5.660211	-0.001547	0.407206
7.724315	38.115826	5.665216	-0.001555	0.409034
7.853057	38.795245	5.670221	-0.001587	0.410962
7.860322	39.496142	5.675226	-0.001589	0.412875
8.140582	40.138033	5.680230	-0.001658	0.414764
8.118012	40.866502	5.685235	-0.001653	0.416718
8.299688	41.545665	5.690240	-0.001698	0.418637
8.485469	42.236927	5.695245	-0.001743	0.420582
8.550613	42.955258	5.700250	-0.001760	0.422528
8.703883	43.657570	5.705254	-0.001797	0.424468
8.823524	44.387586	5.710259	-0.001827	0.426454
9.099249	45.071156	5.715264	-0.001895	0.428390
9.318455	45.771451	5.720269	-0.001949	0.430331
9.288775	46.538706	5.725274	-0.001942	0.432312
9.423416	47.252717	5.730278	-0.001975	0.434229
9.435973	48.029798	5.735283	-0.001979	0.436238
9.413185	48.812691	5.740288	-0.001973	0.438235
9.529574	49.579663	5.745293	-0.002002	0.440252
9.522920	50.391186	5.750298	-0.002001	0.442312
9.512102	51.196962	5.755302	-0.001999	0.444346
9.568658	52.024084	5.760307	-0.002013	0.446457
9.637376	52.834481	5.765312	-0.002030	0.448522
9.823123	53.651037	5.770317	-0.002076	0.450650
9.962720	54.469431	5.775322	-0.002111	0.452750
10.051900	55.305729	5.780326	-0.002133	0.454861
10.411929	56.105903	5.785331	-0.002221	0.457002
10.553698	56.916309	5.790336	-0.002256	0.459055
10.772112	57.756487	5.795341	-0.002310	0.461207
10.886669	58.589873	5.800346	-0.002339	0.463284
11.017809	59.440747	5.805350	-0.002371	0.465401
11.254577	60.276301	5.810355	-0.002430	0.467521
11.282906	61.135284	5.815360	-0.002437	0.469591
11.405234	62.023277	5.820365	-0.002467	0.471764
11.338633	62.914215	5.825370	-0.002452	0.473848
11.343019	63.849001	5.830374	-0.002453	0.476058
11.345584	64.775535	5.835379	-0.002454	0.478237
11.304078	65.730934	5.840384	-0.002445	0.480454
11.456861	66.673265	5.845389	-0.002483	0.482719
11.456806	67.636259	5.850394	-0.002483	0.484951
11.490485	68.622864	5.855398	-0.002492	0.487244
11.695697	69.559566	5.860403	-0.002543	0.489487
11.823382	70.546568	5.865408	-0.002574	0.491800
11.870346	71.529629	5.870413	-0.002586	0.494058
12.087595	72.515370	5.875418	-0.002640	0.496387
12.316631	73.484361	5.880422	-0.002697	0.498672
12.344408	74.509009	5.885427	-0.002704	0.500984
12.480143	75.516356	5.890432	-0.002738	0.503293
12.602698	76.542667	5.895437	-0.002768	0.505629
12.726745	77.563962	5.900442	-0.002799	0.507943
12.900916	78.585597	5.905446	-0.002842	0.510268
12.884464	79.659489	5.910451	-0.002839	0.512617
12.931322	80.722178	5.915456	-0.002851	0.514957
13.283711	81.750902	5.920461	-0.002938	0.517341
13.378391	82.804171	5.925466	-0.002961	0.519660
13.388161	83.916093	5.930470	-0.002964	0.522059
13.579017	84.982743	5.935475	-0.003012	0.524425
13.677663	86.084185	5.940480	-0.003036	0.526816
13.857717	87.157334	5.945485	-0.003081	0.529171
14.068169	88.260201	5.950490	-0.003133	0.531590
14.290210	89.333341	5.955494	-0.003188	0.533940
14.361152	90.472709	5.960499	-0.003206	0.536357
14.354775	91.606799	5.965504	-0.003205	0.538721
14.419947	92.782686	5.970509	-0.003222	0.541190
14.468956	93.932574	5.975514	-0.003234	0.543588
14.393925	95.164962	5.980518	-0.003217	0.546095
14.509572	96.334037	5.985523	-0.003246	0.548537
14.755721	97.516721	5.990528	-0.003307	0.551048
14.823745	98.711915	5.995533	-0.003324	0.553502
14.755884	99.975387	6.000538	-0.003308	0.556030
15.030212	101.162932	6.005542	-0.003376	0.558528
15.168553	102.408509	6.010547	-0.003410	0.561077
15.132857	103.666448	6.015552	-0.003402	0.563573
15.496837	104.900483	6.020557	-0.003492	0.566163
15.654627	106.113079	6.025562	-0.003531	0.568621
15.764070	107.401768	6.030566	-0.003559	0.571199
16.008261	108.626765	6.035571	-0.003619	0.573692
16.091534	109.919014	6.040576	-0.003640	0.576244
16.238100	111.190396	6.045581	-0.003677	0.578769
16.283363	112.508975	6.050586	-0.003689	0.581335
16.615224	113.767921	6.055590	-0.003771	0.583883
16.670639	115.099258	6.060595	-0.003785	0.586455
16.810065	116.387891	6.065600	-0.003820	0.588966
16.848303	117.750224	6.070605	-0.003830	0.591569
16.934657	119.079821	6.075610	-0.003852	0.594116
17.032174	120.448138	6.080614	-0.003877	0.596729
17.140811	121.804205	6.085619	-0.003904	0.599312
17.236087	123.192173	6.090624	-0.003928	0.601938
17.326057	124.589193	6.095629	-0.003951	0.604568
17.486645	125.973834	6.100634	-0.003991	0.607189
17.610744	127.372766	6.105638	-0.004022	0.609812
17.660707	128.806503	6.110643	-0.004035	0.612461
17.752412	130.241886	6.115648	-0.004059	0.615116
18.017651	131.655651	6.120653	-0.004124	0.617782
18.020419	133.132796	6.125658	-0.004126	0.620459
18.197953	134.574045	6.130662	-0.004170	0.623120
18.239415	136.083666	6.135667	-0.004181	0.625846
18.368664	137.534724	6.140672	-0.004214	0.628486
18.432675	139.061270	6.145677	-0.004230	0.631226
18.530219	140.565927	6.150682	-0.004255	0.633927
18.889163	142.046048	6.155686	-0.004344	0.636662
18.923567	143.576138	6.160691	-0.004353	0.639364
19.068911	145.098569	6.165696	-0.004389	0.642078
19.290588	146.637323	6.170701	-0.004445	0.644835
19.392223	148.166704	6.175706	-0.004470	0.647523
19.483273	149.741062	6.180710	-0.004494	0.650275
19.737281	151.271764	6.185715	-0.004557	0.652993
19.853058	152.854841	6.190720	-0.004586	0.655745
20.269682	154.368578	6.195725	-0.004689	0.658465
20.257349	155.974508	6.200730	-0.004687	0.661191
20.390871	157.566941	6.205734	-0.004720	0.663930
20.551009	159.169275	6.210739	-0.004760	0.666683
20.667642	160.772235	6.215744	-0.004790	0.669412
20.787767	162.394528	6.220749	-0.004820	0.672163
20.737545	164.061739	6.225754	-0.004809	0.674923
20.893817	165.705873	6.230758	-0.004848	0.677699
21.010832	167.386999	6.235763	-0.004878	0.680513
21.119906	169.043764	6.240768	-0.004906	0.683272
21.163065	170.766611	6.245773	-0.004917	0.686108
21.423228	172.425768	6.250778	-0.004982	0.688896
21.548280	174.134022	6.255782	-0.005013	0.691710
21.668764	175.861629	6.260787	-0.005044	0.694543
21.752274	177.589352	6.265792	-0.005065	0.697353
21.882803	179.355529	6.270797	-0.005098	0.700227
21.988579	181.094678	6.275802	-0.005125	0.703040
22.141335	182.871800	6.280806	-0.005164	0.705915
22.435247	184.600496	6.285811	-0.005237	0.708745
22.662669	186.343861	6.290816	-0.005293	0.711567
22.890083	188.111751	6.295821	-0.005350	0.714416
22.957085	189.888967	6.300826	-0.005368	0.717221
23.203470	191.675306	6.305830	-0.005429	0.720082
23.284849	193.473227	6.310835	-0.005450	0.722901
23.408271	195.290123	6.315840	-0.005481	0.725750
23.789847	197.052028	6.320845	-0.005576	0.728580
23.876102	198.868438	6.325850	-0.005598	0.731396
23.968915	200.710094	6.330854	-0.005622	0.734241
24.142982	202.542990	6.335859	-0.005665	0.737086
24.151781	204.431894	6.340864	-0.005669	0.739957
24.381831	206.276155	6.345869	-0.005726	0.742813
24.432026	208.181975	6.350874	-0.005740	0.745699
24.701844	210.038334	6.355878	-0.005807	0.748562
24.853606	211.932020	6.360883	-0.005845	0.751437
24.918844	213.845241	6.365888	-0.005862	0.754306
25.019652	215.758886	6.370893	-0.005888	0.757174
25.002149	217.740764	6.375898	-0.005885	0.760098
25.272525	219.656724	6.380902	-0.005952	0.762996
25.450666	221.609178	6.385907	-0.005997	0.765909
25.580153	223.561607	6.390912	-0.006030	0.768799
25.873738	225.503021	6.395917	-0.006103	0.771706
26.021369	227.477656	6.400922	-0.006140	0.774611
26.141389	229.452840	6.405926	-0.006171	0.777498
26.247391	231.471261	6.410931	-0.006198	0.780433
26.442182	233.457535	6.415936	-0.006247	0.783335
26.684477	235.454977	6.420941	-0.006307	0.786254
26.769352	237.473673	6.425946	-0.006329	0.789151
26.818889	239.515376	6.430950	-0.006343	0.792060
26.852189	241.607877	6.435955	-0.006352	0.795026
27.036549	243.645644	6.440960	-0.006399	0.797944
27.244360	245.728841	6.445965	-0.006451	0.800922
27.367733	247.816583	6.450970	-0.006482	0.803872
27.607754	249.873646	6.455974	-0.006542	0.806799
27.794434	251.979632	6.460979	-0.006589	0.809770
28.031953	254.038199	6.465984	-0.006649	0.812678
28.180482	256.160315	6.470989	-0.006686	0.815639
28.226679	258.296836	6.475994	-0.006699	0.818583
28.490584	260.410738	6.480998	-0.006765	0.821542
28.745121	262.551063	6.486003	-0.006828	0.824523
29.082499	264.595889	6.491008	-0.006912	0.827386
29.235554	266.751254	6.496013	-0.006951	0.830341
29.298808	268.887917	6.501018	-0.006968	0.833237
29.410393	271.047521	6.506022	-0.006996	0.836166
29.744784	273.192784	6.511027	-0.007079	0.839123
29.827489	275.335853	6.516032	-0.007101	0.842002
29.827532	277.578936	6.521037	-0.007103	0.844984
30.091669	279.715964	6.526042	-0.007168	0.847881
30.258155	281.923953	6.531046	-0.007211	0.850837
30.186561	284.190901	6.536051	-0.007195	0.853802
30.337991	286.420937	6.541056	-0.007233	0.856762
30.530380	288.689054	6.546061	-0.007281	0.859773
30.723797	290.927612	6.551066	-0.007330	0.862735
30.965110	293.172193	6.556070	-0.007391	0.865706
31.153602	295.427401	6.561075	-0.007438	0.868667
31.241374	297.694075	6.566080	-0.007461	0.871609
31.365854	300.012791	6.571085	-0.007493	0.874617
31.394423	302.327956	6.576090	-0.007501	0.877587
31.634100	304.646772	6.581094	-0.007562	0.880602
32.005549	306.936910	6.586099	-0.007654	0.883601
32.136922	309.220803	6.591104	-0.007687	0.886525
32.362483	311.555191	6.596109	-0.007744	0.889526
32.586665	313.856523	6.601114	-0.007800	0.892475
32.813794	316.173505	6.606118	-0.007857	0.895434
33.098025	318.495148	6.611123	-0.007928	0.898403
33.123163	320.841278	6.616128	-0.007936	0.901332
33.511377	323.175460	6.621133	-0.008032	0.904321
33.641638	325.491162	6.626138	-0.008066	0.907217
33.770400	327.865078	6.631142	-0.008099	0.910176
33.876759	330.236829	6.636147	-0.008126	0.913117
33.837318	332.644297	6.641152	-0.008118	0.916059
33.830868	335.118646	6.646157	-0.008118	0.919081
33.909450	337.556710	6.651162	-0.008139	0.922068
34.076057	340.021813	6.656166	-0.008181	0.925098
34.107736	342.517505	6.661171	-0.008191	0.928125
34.206684	344.998142	6.666176	-0.008216	0.931139
34.371225	347.535159	6.671181	-0.008258	0.934226
34.464813	350.046604	6.676186	-0.008283	0.937255
34.700187	352.573901	6.681190	-0.008342	0.940326
35.053303	355.090364	6.686195	-0.008430	0.943400
35.293362	357.550153	6.691200	-0.008490	0.946371
35.666166	360.049353	6.696205	-0.008583	0.949409
35.855288	362.541910	6.701210	-0.008631	0.952389
36.188653	365.016287	6.706214	-0.008714	0.955370
36.486919	367.517232	6.711219	-0.008788	0.958365
36.702212	369.975903	6.716224	-0.008843	0.961283
36.880433	372.508021	6.721229	-0.008888	0.964270
37.046649	374.990622	6.726234	-0.008930	0.967188
37.092658	377.541287	6.731238	-0.008943	0.970150
37.225062	380.103354	6.736243	-0.008977	0.973134
37.271167	382.670955	6.741248	-0.008990	0.976097
37.472662	385.276859	6.746253	-0.009041	0.979128
37.661617	387.842505	6.751258	-0.009089	0.982101
37.710198	390.475437	6.756262	-0.009102	0.985112
37.937806	393.091198	6.761267	-0.009160	0.988132
37.902733	395.709247	6.766272	-0.009153	0.991090
38.125862	398.374382	6.771277	-0.009209	0.994147
38.346297	400.997843	6.776282	-0.009265	0.997146
38.674256	403.603940	6.781286	-0.009346	1.000140
38.823035	406.278530	6.786291	-0.009385	1.003164
38.939816	408.891198	6.791296	-0.009415	1.006103
39.160277	411.571300	6.796301	-0.009470	1.009130
39.285491	414.237282	6.801306	-0.009503	1.012113
39.490294	416.914932	6.806310	-0.009555	1.015116
39.656078	419.625497	6.811315	-0.009597	1.018138
39.740616	422.319735	6.816320	-0.009619	1.021117
39.979809	425.048138	6.821325	-0.009680	1.024156
40.128882	427.744180	6.826330	-0.009718	1.027133
40.274919	430.468505	6.831334	-0.009755	1.030131
40.582272	433.209998	6.836339	-0.009832	1.033171
40.805435	435.887091	6.841344	-0.009888	1.036116
41.070171	438.633489	6.846349	-0.009955	1.039135
41.336092	441.336181	6.851354	-0.010022	1.042099
41.622977	444.017293	6.856358	-0.010094	1.045035
41.806419	446.766051	6.861363	-0.010140	1.048015
41.917464	449.457805	6.866368	-0.010169	1.050912
42.169222	452.217209	6.871373	-0.010232	1.053900
42.165108	454.991744	6.876378	-0.010233	1.056846
42.459971	457.745264	6.881382	-0.010307	1.059819
42.481281	460.568914	6.886387	-0.010314	1.062805
42.548389	463.359569	6.891392	-0.010332	1.065757
42.866831	466.157976	6.896397	-0.010412	1.068757
42.785938	469.014157	6.901402	-0.010394	1.071733
42.850146	471.877914	6.906406	-0.010412	1.074736
43.102623	474.757908	6.911411	-0.010475	1.077783
43.225340	477.597661	6.916416	-0.010507	1.080756
43.427849	480.499061	6.921421	-0.010559	1.083799
43.626642	483.355551	6.926426	-0.010609	1.086786
43.733641	486.250274	6.931430	-0.010637	1.089788
43.890431	489.201057	6.936435	-0.010677	1.092848
44.036747	492.082689	6.941440	-0.010715	1.095826
44.220113	495.047472	6.946445	-0.010762	1.098888
44.638363	497.925288	6.951450	-0.010866	1.101897
44.768535	500.820775	6.956454	-0.010900	1.104862
45.048607	503.750352	6.961459	-0.010970	1.107882
45.181590	506.646445	6.966464	-0.011004	1.110832
45.457360	509.579317	6.971469	-0.011074	1.113837
45.514231	512.526503	6.976474	-0.011090	1.116809
45.999873	515.409106	6.981478	-0.011210	1.119787
46.219173	518.342206	6.986483	-0.011266	1.122758
46.363885	521.232458	6.991488	-0.011303	1.125665
46.562123	524.182122	6.996493	-0.011353	1.128634
46.759810	527.105190	7.001498	-0.011404	1.131568
46.883547	530.052518	7.006502	-0.011436	1.134506
47.068967	533.048295	7.011507	-0.011483	1.137494
47.308448	535.972409	7.016512	-0.011544	1.140414
47.554019	538.953157	7.021517	-0.011606	1.143383
47.661154	541.912931	7.026522	-0.011634	1.146299
47.810698	544.877619	7.031526	-0.011672	1.149220
47.989978	547.900350	7.036531	-0.011718	1.152196
48.338777	550.804464	7.041536	-0.011805	1.155078
48.508351	553.828929	7.046541	-0.011849	1.158038
48.508591	556.838555	7.051546	-0.011851	1.160947
48.765642	559.834039	7.056550	-0.011915	1.163879
49.080793	562.829222	7.061555	-0.011994	1.166814
49.226968	565.800800	7.066560	-0.012032	1.169690
49.411278	568.860065	7.071565	-0.012079	1.172649
49.664400	571.828020	7.076570	-0.012143	1.175525
49.794101	574.879747	7.081574	-0.012177	1.178453
49.887272	577.953606	7.086579	-0.012202	1.181388
50.131431	580.951404	7.091584	-0.012263	1.184270
50.361617	584.034324	7.096589	-0.012321	1.187222
50.514010	587.038883	7.101594	-0.012361	1.190081
50.601017	590.135847	7.106598	-0.012384	1.193008
50.874606	593.206468	7.111603	-0.012453	1.195934
50.928911	596.294819	7.116608	-0.012468	1.198834
51.155115	599.421276	7.121613	-0.012526	1.201790
51.308016	602.487462	7.126618	-0.012565	1.204671
51.468612	605.612193	7.131622	-0.012606	1.207601
51.566218	608.760422	7.136627	-0.012632	1.210535
51.754508	611.883507	7.141632	-0.012680	1.213453
51.990726	615.050746	7.146637	-0.012740	1.216413
52.203908	618.175263	7.151642	-0.012794	1.219323
52.373407	621.350412	7.156646	-0.012838	1.222265
52.670765	624.472555	7.161651	-0.012913	1.225173
52.968039	627.582295	7.166656	-0.012987	1.228062
53.238168	630.703087	7.171661	-0.013055	1.230950
53.370066	633.838782	7.176666	-0.013090	1.233822
53.592189	636.973055	7.181670	-0.013146	1.236701
53.709001	640.118550	7.186675	-0.013177	1.239566
53.943580	643.275914	7.191680	-0.013236	1.242455
54.248235	646.380874	7.196685	-0.013313	1.245300
54.325340	649.559330	7.201690	-0.013334	1.248169
54.584456	652.705535	7.206694	-0.013399	1.251031
54.807899	655.863331	7.211699	-0.013456	1.253892
55.041094	659.026744	7.216704	-0.013515	1.256752
55.299859	662.159105	7.221709	-0.013580	1.259582
55.541020	665.321567	7.226714	-0.013641	1.262430
55.798699	668.410301	7.231718	-0.013706	1.265209
56.027242	671.572694	7.236723	-0.013764	1.268042
56.020838	674.743632	7.241728	-0.013765	1.270839
56.092710	677.950049	7.246733	-0.013784	1.273674
56.335959	681.169405	7.251738	-0.013846	1.276541
56.572361	684.325873	7.256742	-0.013906	1.279345
56.839778	687.542614	7.261747	-0.013973	1.282200
56.913010	690.707194	7.266752	-0.013993	1.284973
57.188170	693.932155	7.271757	-0.014063	1.287824
57.341612	697.144861	7.276762	-0.014102	1.290640
57.633416	700.324277	7.281766	-0.014176	1.293441
57.776072	703.578263	7.286771	-0.014213	1.296278
58.032747	706.752261	7.291776	-0.014277	1.299057
58.367514	709.967093	7.296781	-0.014361	1.301877
58.523693	713.087849	7.301786	-0.014402	1.304584
58.626015	716.317345	7.306790	-0.014429	1.307370
58.834999	719.530692	7.311795	-0.014482	1.310152
59.028701	722.738484	7.316800	-0.014531	1.312921
59.290224	725.956852	7.321805	-0.014598	1.315703
59.470368	729.165116	7.326810	-0.014644	1.318459
59.589913	732.422836	7.331814	-0.014675	1.321242
59.805799	735.619162	7.336819	-0.014730	1.323981
59.831136	738.919059	7.341824	-0.014738	1.326774
60.103913	742.149786	7.346829	-0.014807	1.329539
60.275273	745.437042	7.351834	-0.014851	1.332331
60.429725	748.697409	7.356838	-0.014891	1.335092
60.589439	752.010672	7.361843	-0.014932	1.337893
60.814080	755.287885	7.366848	-0.014989	1.340667
61.106964	758.526887	7.371853	-0.015063	1.343413
61.315679	761.825985	7.376858	-0.015116	1.346192
61.426627	765.072539	7.381862	-0.015146	1.348906
61.870819	768.367895	7.386867	-0.015256	1.351704
61.959675	771.597380	7.391872	-0.015280	1.354391
62.295470	774.866982	7.396877	-0.015364	1.357141
62.484257	778.120622	7.401882	-0.015413	1.359850
62.704450	781.377490	7.406886	-0.015469	1.362562
62.961542	784.633228	7.411891	-0.015534	1.365273
63.335445	787.812212	7.416896	-0.015627	1.367931
63.487203	791.096263	7.421901	-0.015666	1.370639
63.709913	794.302827	7.426906	-0.015723	1.373289
63.847738	797.585819	7.431910	-0.015759	1.375984
64.140650	800.804670	7.436915	-0.015833	1.378643
64.160880	804.106326	7.441920	-0.015840	1.381325
64.230501	807.402208	7.446925	-0.015859	1.384005
64.404193	810.714938	7.451930	-0.015904	1.386708
64.654985	813.964175	7.456934	-0.015967	1.389365
64.883294	817.293095	7.461939	-0.016025	1.392078
64.864687	820.594650	7.466944	-0.016023	1.394729
65.021319	823.955417	7.471949	-0.016063	1.397447
65.259352	827.306637	7.476954	-0.016124	1.400163
65.420865	830.608853	7.481958	-0.016165	1.402825
65.887893	833.916152	7.486963	-0.016282	1.405527
66.013051	837.197231	7.491968	-0.016314	1.408156
66.293727	840.537200	7.496973	-0.016385	1.410849
66.537549	843.795669	7.501978	-0.016447	1.413466
66.884577	847.085207	7.506982	-0.016534	1.416118
66.999420	850.387928	7.511987	-0.016564	1.418743
67.218930	853.685999	7.516992	-0.016620	1.421374
67.479381	856.926314	7.521997	-0.016686	1.423960
67.678102	860.244668	7.527002	-0.016737	1.426594
67.749231	863.516416	7.532006	-0.016756	1.429170
68.008774	866.853043	7.537011	-0.016822	1.431817
68.166545	870.124026	7.542016	-0.016863	1.434395
68.540581	873.425276	7.547021	-0.016956	1.437020
68.727587	876.711345	7.552026	-0.017004	1.439603
68.800691	880.000957	7.557030	-0.017024	1.442170
69.166565	883.301056	7.562035	-0.017116	1.444779
69.229413	886.590015	7.567040	-0.017133	1.447334
69.522312	889.895909	7.572045	-0.017207	1.449929
69.600494	893.212477	7.577050	-0.017228	1.452499
69.668821	896.584298	7.582054	-0.017247	1.455105
69.826984	899.936950	7.587059	-0.017288	1.457704
70.086025	903.291733	7.592064	-0.017354	1.460313
70.288067	906.615032	7.597069	-0.017405	1.462885
70.344022	910.025893	7.602074	-0.017421	1.465501
70.549262	913.336080	7.607078	-0.017474	1.468055
70.820727	916.747281	7.612083	-0.017542	1.470690
70.825495	920.091696	7.617088	-0.017546	1.473235
71.187418	923.499626	7.622093	-0.017636	1.475870
71.324375	926.860037	7.627098	-0.017672	1.478435
71.716945	930.214648	7.632102	-0.017770	1.481024
72.081688	933.481390	7.637107	-0.017862	1.483539
72.415753	936.790113	7.642112	-0.017945	1.486077
72.739466	940.043530	7.647117	-0.018027	1.488568
73.076891	943.312289	7.652122	-0.018111	1.491068
73.234344	946.537765	7.657126	-0.018152	1.493508
73.617033	949.814198	7.662131	-0.018248	1.496011
73.786773	953.017961	7.667136	-0.018291	1.498428
74.062670	956.281260	7.672141	-0.018361	1.500900
74.119499	959.479054	7.677146	-0.018377	1.503291
74.090708	962.817076	7.682150	-0.018372	1.505771
74.326503	966.077793	7.687155	-0.018432	1.508224
74.437388	969.406215	7.692160	-0.018461	1.510707
74.493814	972.718523	7.697165	-0.018477	1.513167
74.497480	976.145264	7.702170	-0.018480	1.515701
74.636338	979.495358	7.707174	-0.018516	1.518191
74.927580	982.904729	7.712179	-0.018590	1.520740
75.060358	986.225925	7.717184	-0.018625	1.523199
75.337614	989.633402	7.722189	-0.018695	1.525736
75.486847	992.986108	7.727194	-0.018733	1.528213
75.683535	996.388020	7.732198	-0.018784	1.530728
76.028610	999.722482	7.737203	-0.018870	1.533207
76.186795	1003.107032	7.742208	-0.018911	1.535696
76.457862	1006.445685	7.747213	-0.018980	1.538161
76.766244	1009.811940	7.752218	-0.019057	1.540647
77.031465	1013.077179	7.757222	-0.019124	1.543051
77.239952	1016.448235	7.762227	-0.019177	1.545520
77.344211	1019.725840	7.767232	-0.019205	1.547905
77.572206	1023.115017	7.772237	-0.019263	1.550382
77.748673	1026.410275	7.777242	-0.019308	1.552781
77.944327	1029.779500	7.782246	-0.019358	1.555232
78.051039	1033.122019	7.787251	-0.019387	1.557649
78.211422	1036.522844	7.792256	-0.019428	1.560111
78.495487	1039.792668	7.797261	-0.019500	1.562490
78.740164	1043.200470	7.802266	-0.019562	1.564959
78.952131	1046.476279	7.807270	-0.019616	1.567326
79.188204	1049.868255	7.812275	-0.019676	1.569775
79.504566	1053.121463	7.817280	-0.019755	1.572131
79.776233	1056.483688	7.822285	-0.019824	1.574555
79.926857	1059.773201	7.827290	-0.019863	1.576910
80.071505	1063.108102	7.832294	-0.019900	1.579293
80.215953	1066.439536	7.837299	-0.019938	1.581670
80.321558	1069.781362	7.842304	-0.019966	1.584046
80.596160	1073.102324	7.847309	-0.020035	1.586423
80.743298	1076.477126	7.852314	-0.020073	1.588820
80.900085	1079.811791	7.857318	-0.020114	1.591186
81.130321	1083.171594	7.862323	-0.020172	1.593575
81.211355	1086.558017	7.867328	-0.020194	1.595962
81.451620	1089.924208	7.872333	-0.020255	1.598349
81.613777	1093.302370	7.877338	-0.020297	1.600732
81.792982	1096.646622	7.882342	-0.020343	1.603090
82.165885	1100.029171	7.887347	-0.020437	1.605493
82.407539	1103.321043	7.892352	-0.020498	1.607814
82.735438	1106.671642	7.897357	-0.020580	1.610183
83.052385	1109.922537	7.902362	-0.020660	1.612478
83.207466	1113.263745	7.907366	-0.020700	1.614813
83.569764	1116.502825	7.912371	-0.020791	1.617098
83.788027	1119.805692	7.917376	-0.020846	1.619408
83.825742	1123.102001	7.922381	-0.020858	1.621689
84.021096	1126.421555	7.927386	-0.020908	1.624001
84.189710	1129.681355	7.932390	-0.020951	1.626265
84.486407	1132.994324	7.937395	-0.021026	1.628577
84.510749	1136.296583	7.942400	-0.021034	1.630848
84.615400	1139.624730	7.947405	-0.021062	1.633143
84.841326	1142.990724	7.952410	-0.021119	1.635473
85.094053	1146.264749	7.957414	-0.021183	1.637741
85.325494	1149.634481	7.962419	-0.021242	1.640068
85.320113	1152.913691	7.967424	-0.021243	1.642304
85.517421	1156.330645	7.972429	-0.021293	1.644653
85.655302	1159.644417	7.977434	-0.021329	1.646922
85.868799	1163.034696	7.982438	-0.021384	1.649249
86.130506	1166.382406	7.987443	-0.021450	1.651548
86.239949	1169.752008	7.992448	-0.021479	1.653842
86.631746	1173.077044	7.997453	-0.021577	1.656134
86.735106	1176.454562	8.002458	-0.021604	1.658427
86.826796	1179.804876	8.007462	-0.021629	1.660696
87.198751	1183.142235	8.012467	-0.021722	1.662985
87.356807	1186.490415	8.017472	-0.021763	1.665254
87.553016	1189.802637	8.022477	-0.021813	1.667500
87.823365	1193.185659	8.027482	-0.021881	1.669799
87.953656	1196.465974	8.032486	-0.021915	1.672010
88.276358	1199.856670	8.037491	-0.021996	1.674313
88.417837	1203.122425	8.042496	-0.022033	1.676510
88.776174	1206.460317	8.047501	-0.022123	1.678776
89.001300	1209.737599	8.052506	-0.022180	1.680983
89.264964	1213.000629	8.057510	-0.022247	1.683183
89.495269	1216.297146	8.062515	-0.022305	1.685398
89.560051	1219.566598	8.067520	-0.022323	1.687575
89.787616	1222.902490	8.072525	-0.022381	1.689810
89.916144	1226.184948	8.077530	-0.022415	1.691996
90.085362	1229.532510	8.082534	-0.022458	1.694227
90.213544	1232.844767	8.087539	-0.022492	1.696427
90.292488	1236.235850	8.092544	-0.022513	1.698671
90.526034	1239.564429	8.097549	-0.022573	1.700888
90.662091	1242.944186	8.102554	-0.022608	1.703124
90.866844	1246.268917	8.107558	-0.022660	1.705329
91.055671	1249.637735	8.112563	-0.022709	1.707559
91.323645	1252.979531	8.117568	-0.022776	1.709776
91.434206	1256.306049	8.122573	-0.022806	1.711963
91.821249	1259.679956	8.127578	-0.022903	1.714208
92.021989	1262.928751	8.132582	-0.022954	1.716348
92.316421	1266.289694	8.137587	-0.023028	1.718569
92.557473	1269.525849	8.142592	-0.023089	1.720700
92.706757	1272.830000	8.147597	-0.023128	1.722863
92.861367	1276.152673	8.152602	-0.023168	1.725036
93.184682	1279.399012	8.157606	-0.023249	1.727174
93.228896	1282.772787	8.162611	-0.023262	1.729363
93.484980	1285.997368	8.167616	-0.023327	1.731475
93.591569	1289.378631	8.172621	-0.023355	1.733670
93.850241	1292.681957	8.177626	-0.023420	1.735827
94.137292	1295.975049	8.182630	-0.023493	1.737979
94.306454	1299.276713	8.187635	-0.023536	1.740120
94.501968	1302.523894	8.192640	-0.023586	1.742227
94.702116	1305.852940	8.197645	-0.023637	1.744385
94.924922	1309.090019	8.202650	-0.023694	1.746483
95.052393	1312.423729	8.207654	-0.023727	1.748630
95.300670	1315.686554	8.212659	-0.023790	1.750742
95.355682	1319.019905	8.217664	-0.023806	1.752877
95.553237	1322.350003	8.222669	-0.023856	1.755021
95.789312	1325.662236	8.227674	-0.023916	1.757156
95.898886	1329.005418	8.232678	-0.023945	1.759294
96.014768	1332.302573	8.237683	-0.023976	1.761402
96.110717	1335.712646	8.242688	-0.024001	1.763577
96.283292	1339.035093	8.247693	-0.024046	1.765701
96.487881	1342.450528	8.252698	-0.024098	1.767884
96.636462	1345.799320	8.257702	-0.024137	1.770017
96.783323	1349.207362	8.262707	-0.024175	1.772185
97.025929	1352.608306	8.267712	-0.024236	1.774355
97.318215	1355.938053	8.272717	-0.024310	1.776483
97.604742	1359.325906	8.277722	-0.024382	1.778644
97.729475	1362.598527	8.282726	-0.024415	1.780713
98.182387	1365.943954	8.287731	-0.024528	1.782859
98.519407	1369.176768	8.292736	-0.024612	1.784920
98.806295	1372.392121	8.297741	-0.024685	1.786962
99.092885	1375.682436	8.302746	-0.024757	1.789049
99.176623	1378.829751	8.307750	-0.024779	1.791025
99.425289	1382.137664	8.312755	-0.024842	1.793114
99.354866	1385.422211	8.317760	-0.024827	1.795156
99.509785	1388.712417	8.322765	-0.024867	1.797220
99.983308	1391.990167	8.327770	-0.024985	1.799306
100.046515	1395.163944	8.332774	-0.025003	1.801284
100.225656	1398.497527	8.337779	-0.025049	1.803371
100.478771	1401.713450	8.342784	-0.025113	1.805390
100.611536	1404.980785	8.347789	-0.025147	1.807426
100.790957	1408.300392	8.352794	-0.025193	1.809497
100.761979	1411.572338	8.357798	-0.025189	1.811516
101.069744	1414.937837	8.362803	-0.025266	1.813623
101.172548	1418.195789	8.367808	-0.025293	1.815642
101.315320	1421.575219	8.372813	-0.025330	1.817736
101.541042	1424.887347	8.377818	-0.025388	1.819795
101.663543	1428.182695	8.382822	-0.025420	1.821832
102.099598	1431.499146	8.387827	-0.025529	1.823909
102.332571	1434.724593	8.392832	-0.025588	1.825908
102.392477	1438.058714	8.397837	-0.025605	1.827956
102.449870	1441.395962	8.402842	-0.025621	1.830003
102.666585	1444.709042	8.407846	-0.025676	1.832047
102.879369	1448.073341	8.412851	-0.025730	1.834121
103.025435	1451.373419	8.417856	-0.025768	1.836146
103.302889	1454.716191	8.422861	-0.025838	1.838208
103.560391	1457.978845	8.427866	-0.025903	1.840216
103.649465	1461.293190	8.432870	-0.025927	1.842239
103.947697	1464.631014	8.437875	-0.026002	1.844292
104.145676	1467.871636	8.442880	-0.026053	1.846275
104.309072	1471.233569	8.447885	-0.026095	1.848326
104.663239	1474.450206	8.452890	-0.026184	1.850305
104.863314	1477.756605	8.457894	-0.026235	1.852322
105.138276	1481.022333	8.462899	-0.026304	1.854318
105.289740	1484.258025	8.467904	-0.026343	1.856283
105.437182	1487.585977	8.472909	-0.026382	1.858301
105.625940	1490.787714	8.477914	-0.026430	1.860245
105.836921	1494.085352	8.482918	-0.026484	1.862247
105.941948	1497.381999	8.487923	-0.026511	1.864235
106.024515	1500.633814	8.492928	-0.026534	1.866193
106.319009	1503.966463	8.497933	-0.026608	1.868217
106.678917	1507.155317	8.502938	-0.026698	1.870158
106.714919	1510.446901	8.507942	-0.026709	1.872129
106.905533	1513.762339	8.512947	-0.026758	1.874126
106.998592	1517.024245	8.517952	-0.026783	1.876081
107.316490	1520.358620	8.522957	-0.026863	1.878097
107.573018	1523.544150	8.527962	-0.026927	1.880016
107.605693	1526.826146	8.532966	-0.026938	1.881971
107.898729	1530.145096	8.537971	-0.027011	1.883969
107.973314	1533.388462	8.542976	-0.027032	1.885900
108.319316	1536.684358	8.547981	-0.027119	1.887885
108.446349	1539.951908	8.552986	-0.027152	1.889832
108.687187	1543.219088	8.557991	-0.027213	1.891786
108.864094	1546.531390	8.562995	-0.027258	1.893759
109.026192	1549.766116	8.568000	-0.027300	1.895684
109.175480	1553.101458	8.573005	-0.027339	1.897664
109.246599	1556.376599	8.578010	-0.027358	1.899600
109.326934	1559.685292	8.583015	-0.027380	1.901554
109.619208	1563.067696	8.588019	-0.027454	1.903568
109.845238	1566.290925	8.593024	-0.027511	1.905481
110.013130	1569.627658	8.598029	-0.027554	1.907454
110.214073	1572.951198	8.603034	-0.027606	1.909420
110.408139	1576.219249	8.608039	-0.027655	1.911350
110.620327	1579.592617	8.613043	-0.027709	1.913342
110.638033	1582.866243	8.618048	-0.027716	1.915256
110.933885	1586.246901	8.623053	-0.027791	1.917255
111.142529	1589.548133	8.628058	-0.027844	1.919198
111.321833	1592.794714	8.633063	-0.027890	1.921105
111.562658	1596.183236	8.638067	-0.027951	1.923098
111.738310	1599.415328	8.643072	-0.027996	1.924992
111.857814	1602.780365	8.648077	-0.028027	1.926956
112.031611	1606.125402	8.653082	-0.028072	1.928912
112.141355	1609.447906	8.658087	-0.028101	1.930847
112.519778	1612.820199	8.663091	-0.028196	1.932832
112.706861	1616.066172	8.668096	-0.028244	1.934726
112.881748	1619.410462	8.673101	-0.028289	1.936673
113.008083	1622.764071	8.678106	-0.028322	1.938620
113.163501	1626.030357	8.683111	-0.028362	1.940516
113.472370	1629.397665	8.688115	-0.028440	1.942483
113.804778	1632.613279	8.693120	-0.028523	1.944362
114.013184	1635.869045	8.698125	-0.028576	1.946251
114.322302	1639.157385	8.703130	-0.028654	1.948166
114.531209	1642.281874	8.708135	-0.028707	1.949977
114.780843	1645.575734	8.713139	-0.028770	1.951886
114.980790	1648.771199	8.718144	-0.028821	1.953733
115.142549	1651.960952	8.723149	-0.028863	1.955572
115.320779	1655.251044	8.728154	-0.028908	1.957468
115.461854	1658.395918	8.733159	-0.028945	1.959275
115.482968	1661.692356	8.738163	-0.028952	1.961158
115.629153	1665.013462	8.743168	-0.028990	1.963063
115.740697	1668.217898	8.748173	-0.029020	1.964897
115.948243	1671.577540	8.753178	-0.029073	1.966826
115.998024	1674.881963	8.758183	-0.029087	1.968708
116.181196	1678.216635	8.763187	-0.029134	1.970616
116.332085	1681.605620	8.768192	-0.029173	1.972551
116.651285	1684.845840	8.773197	-0.029253	1.974414
116.836844	1688.224504	8.778202	-0.029301	1.976342
117.037205	1691.521509	8.783207	-0.029352	1.978224
117.200510	1694.777142	8.788211	-0.029394	1.980077
117.329148	1698.145556	8.793216	-0.029428	1.981989
117.561100	1701.426758	8.798221	-0.029487	1.983858
117.815368	1704.720051	8.803226	-0.029551	1.985735
117.999595	1708.059008	8.808231	-0.029598	1.987629
118.189354	1711.294033	8.813235	-0.029647	1.989464
118.304730	1714.653922	8.818240	-0.029677	1.991361
118.518602	1717.970072	8.823245	-0.029732	1.993240
118.677975	1721.280409	8.828250	-0.029773	1.995109
118.949716	1724.603672	8.833255	-0.029841	1.996993
119.150703	1727.874095	8.838259	-0.029893	1.998840
119.326963	1731.158202	8.843264	-0.029938	2.000691
119.551490	1734.493714	8.848269	-0.029995	2.002572
119.932804	1737.681405	8.853274	-0.030090	2.004383
120.006809	1740.976842	8.858279	-0.030111	2.006226
120.396198	1744.237230	8.863283	-0.030208	2.008074
120.588604	1747.409899	8.868288	-0.030257	2.009855
120.669882	1750.686147	8.873293	-0.030279	2.011684
120.851921	1753.967052	8.878298	-0.030326	2.013521
121.064858	1757.171964	8.883303	-0.030380	2.015317
121.194393	1760.502870	8.888307	-0.030414	2.017175
121.305748	1763.748482	8.893312	-0.030443	2.018982
121.524444	1767.015606	8.898317	-0.030499	2.020808
121.785039	1770.326839	8.903322	-0.030565	2.022660
121.760175	1773.501938	8.908327	-0.030561	2.024413
121.905866	1776.893560	8.913331	-0.030599	2.026297
122.084724	1780.204307	8.918336	-0.030645	2.028137
122.292209	1783.454463	8.923341	-0.030697	2.029944
122.530756	1786.829610	8.928346	-0.030758	2.031822
122.684726	1790.089276	8.933351	-0.030798	2.033627
123.034399	1793.368551	8.938355	-0.030885	2.035457
123.175431	1796.686946	8.943360	-0.030922	2.037290
123.270629	1799.875766	8.948365	-0.030947	2.039046
123.588958	1803.205913	8.953370	-0.031027	2.040897
123.761343	1806.470062	8.958375	-0.031072	2.042698
124.010124	1809.689909	8.963379	-0.031135	2.044479
124.146059	1813.003426	8.968384	-0.031170	2.046300
124.314028	1816.272160	8.973389	-0.031213	2.048099
124.661272	1819.483745	8.978394	-0.031300	2.049878
124.769809	1822.747649	8.983399	-0.031329	2.051666
125.005938	1826.023670	8.988403	-0.031389	2.053469
125.199880	1829.255312	8.993408	-0.031438	2.055243
125.383915	1832.519371	8.998413	-0.031486	2.057032
125.497439	1835.719089	9.003418	-0.031515	2.058779
125.483936	1839.028333	9.008423	-0.031514	2.060574
125.687455	1842.392965	9.013427	-0.031566	2.062414
125.910925	1845.604197	9.018432	-0.031623	2.064172
126.025223	1848.936505	9.023437	-0.031653	2.065984
126.232132	1852.285135	9.028442	-0.031706	2.067812
126.359818	1855.537690	9.033447	-0.031739	2.069579
126.722962	1858.884488	9.038451	-0.031830	2.071414
126.853352	1862.158061	9.043456	-0.031864	2.073190
126.990613	1865.423942	9.048461	-0.031900	2.074961
127.368420	1868.791872	9.053466	-0.031995	2.076803
127.508719	1871.953414	9.058471	-0.032031	2.078515
127.793919	1875.217011	9.063475	-0.032103	2.080291
128.022705	1878.509222	9.068480	-0.032161	2.082077
128.239106	1881.651865	9.073485	-0.032216	2.083780
128.424723	1884.934882	9.078490	-0.032264	2.085555
128.702239	1888.180641	9.083495	-0.032334	2.087315
128.818771	1891.320720	9.088499	-0.032364	2.089005
128.872223	1894.636370	9.093504	-0.032379	2.090782
128.988791	1897.919061	9.098509	-0.032410	2.092545
129.192277	1901.160704	9.103514	-0.032462	2.094292
129.283142	1904.490955	9.108519	-0.032486	2.096075
129.604049	1907.761765	9.113523	-0.032567	2.097843
129.812598	1910.954797	9.118528	-0.032620	2.099559
130.080312	1914.217297	9.123533	-0.032688	2.101315
130.188279	1917.460734	9.128538	-0.032716	2.103048
130.433715	1920.646404	9.133543	-0.032778	2.104759
130.631584	1923.959385	9.138547	-0.032829	2.106533
130.816390	1927.129549	9.143552	-0.032876	2.108228
130.995321	1930.363842	9.148557	-0.032922	2.109955
131.208095	1933.658910	9.153562	-0.032976	2.111716
131.534576	1936.780892	9.158567	-0.033058	2.113392
131.699939	1939.994764	9.163571	-0.033101	2.115103
131.648122	1943.331547	9.168576	-0.033090	2.116862
131.825281	1946.457114	9.173581	-0.033135	2.118525
132.092507	1949.733089	9.178586	-0.033203	2.120272
132.190776	1953.040183	9.183591	-0.033229	2.122022
132.221112	1956.244143	9.188595	-0.033239	2.123711
132.246489	1959.657356	9.193600	-0.033247	2.125509
132.376044	1963.019435	9.198605	-0.033281	2.127285
132.759754	1966.286533	9.203610	-0.033377	2.129029
132.981132	1969.623357	9.208615	-0.033433	2.130797
133.227601	1972.921110	9.213619	-0.033496	2.132544
133.580323	1976.129973	9.218624	-0.033584	2.134250
133.863874	1979.380650	9.223629	-0.033656	2.135973
134.295206	1982.532320	9.228634	-0.033763	2.137652
134.568625	1985.559102	9.233639	-0.033832	2.139254
134.670119	1988.793860	9.238643	-0.033859	2.140951
134.812605	1991.930672	9.243648	-0.033896	2.142598
134.994697	1995.018038	9.248653	-0.033942	2.144221
135.028833	1998.329968	9.253658	-0.033953	2.145949
134.939442	2001.535671	9.258663	-0.033933	2.147612
134.997104	2004.831587	9.263667	-0.033949	2.149330
135.273045	2008.148698	9.268672	-0.034019	2.151074
135.274135	2011.465305	9.273677	-0.034022	2.152797
135.335662	2014.832812	9.278682	-0.034039	2.154549
135.345919	2018.248390	9.283687	-0.034044	2.156320
135.757121	2021.553114	9.288691	-0.034146	2.158062
135.989301	2024.910599	9.293696	-0.034205	2.159816
136.419942	2028.214622	9.298701	-0.034313	2.161556
136.665761	2031.412668	9.303706	-0.034375	2.163226
136.904169	2034.691384	9.308711	-0.034435	2.164936
137.457751	2037.887162	9.313715	-0.034573	2.166625
137.639218	2040.952162	9.318720	-0.034619	2.168218
137.888901	2044.108927	9.323725	-0.034682	2.169862
138.184927	2047.288507	9.328730	-0.034757	2.171519
138.311689	2050.326199	9.333735	-0.034790	2.173091
138.294137	2053.541081	9.338739	-0.034787	2.174742
138.264655	2056.824786	9.343744	-0.034782	2.176427
138.258423	2059.994978	9.348749	-0.034783	2.178054
138.459857	2063.341984	9.353754	-0.034835	2.179785
138.435476	2066.674048	9.358759	-0.034831	2.181490
138.679518	2069.917249	9.363763	-0.034893	2.183168
138.846043	2073.260552	9.368768	-0.034936	2.184890
138.898699	2076.654411	9.373773	-0.034951	2.186629
139.269377	2079.874475	9.378778	-0.035043	2.188300
139.583310	2083.178850	9.383783	-0.035122	2.190008
139.998156	2086.435153	9.388787	-0.035226	2.191698
140.185855	2089.554555	9.393792	-0.035274	2.193301
140.349768	2092.820866	9.398797	-0.035316	2.194976
140.730159	2096.048118	9.403802	-0.035411	2.196644
140.974876	2099.034361	9.408807	-0.035473	2.198180
141.057314	2102.258286	9.413811	-0.035495	2.199824
141.055115	2105.541913	9.418816	-0.035497	2.201491
141.202470	2108.659170	9.423821	-0.035535	2.203082
141.426357	2111.947025	9.428826	-0.035592	2.204765
141.466904	2115.244625	9.433831	-0.035604	2.206438
141.504570	2118.451047	9.438835	-0.035615	2.208064
141.593127	2121.819682	9.443840	-0.035639	2.209774
141.896538	2125.161715	9.448845	-0.035715	2.211484
142.207644	2128.369971	9.453850	-0.035794	2.213125
142.596420	2131.583870	9.458855	-0.035891	2.214774
142.891637	2134.849383	9.463859	-0.035965	2.216441
143.079412	2137.887378	9.468864	-0.036013	2.217984
143.342375	2141.063813	9.473869	-0.036079	2.219602
143.571875	2144.278156	9.478874	-0.036138	2.221235
143.687194	2147.306514	9.483879	-0.036168	2.222765
143.750655	2150.533807	9.488883	-0.036185	2.224391
144.011834	2153.784916	9.493888	-0.036251	2.226041
144.025828	2156.913463	9.498893	-0.036257	2.227612
144.085491	2160.186989	9.503898	-0.036274	2.229257
144.107090	2163.488291	9.508903	-0.036281	2.230913
144.347200	2166.772254	9.513907	-0.036342	2.232573
144.469549	2170.068190	9.518912	-0.036374	2.234230
144.802934	2173.342864	9.523917	-0.036458	2.235889
145.130327	2176.532083	9.528922	-0.036540	2.237504
145.382101	2179.700913	9.533927	-0.036603	2.239102
145.819784	2182.903397	9.538931	-0.036713	2.240729
146.321459	2185.912171	9.543936	-0.036837	2.242262
146.424300	2188.940668	9.548941	-0.036864	2.243777
146.751888	2192.035220	9.553946	-0.036946	2.245339
146.798148	2195.066662	9.558951	-0.036960	2.246850
146.865118	2198.113120	9.563955	-0.036978	2.248368
146.843583	2201.331499	9.568960	-0.036975	2.249966
146.988714	2204.496130	9.573965	-0.037013	2.251546
146.969967	2207.685954	9.578970	-0.037010	2.253127
146.825653	2211.018414	9.583975	-0.036977	2.254769
146.872779	2214.384417	9.588979	-0.036991	2.256440
147.020288	2217.699929	9.593984	-0.037029	2.258090
147.231431	2221.065722	9.598989	-0.037083	2.259769
147.328977	2224.491070	9.603994	-0.037109	2.261468
147.595813	2227.729460	9.608999	-0.037176	2.263084
148.006611	2231.066802	9.614003	-0.037279	2.264758
148.446701	2234.334479	9.619008	-0.037389	2.266398
148.647124	2237.420641	9.624013	-0.037440	2.267931
149.044602	2240.648928	9.629018	-0.037539	2.269547
149.348116	2243.807540	9.634023	-0.037615	2.271120
149.720752	2246.765651	9.639027	-0.037708	2.272599
149.836918	2249.915092	9.644032	-0.037739	2.274154
150.031857	2253.019839	9.649037	-0.037788	2.275691
150.399625	2256.011211	9.654042	-0.037880	2.277183
150.246163	2259.073104	9.659047	-0.037845	2.278674
150.385780	2262.249383	9.664051	-0.037881	2.280240
150.424153	2265.415273	9.669056	-0.037893	2.281793
150.607023	2268.520129	9.674061	-0.037939	2.283324
150.640201	2271.804361	9.679066	-0.037950	2.284932
150.646965	2275.047390	9.684071	-0.037953	2.286518
150.735393	2278.305700	9.689075	-0.037977	2.288115
150.989504	2281.628908	9.694080	-0.038041	2.289753
151.240627	2284.888036	9.699085	-0.038105	2.291358
151.473190	2288.099703	9.704090	-0.038164	2.292938
151.730510	2291.348914	9.709095	-0.038229	2.294536
151.929508	2294.599684	9.714099	-0.038280	2.296131
152.231535	2297.678872	9.719104	-0.038356	2.297647
152.448908	2300.875562	9.724109	-0.038411	2.299215
152.726065	2304.110805	9.729114	-0.038481	2.300803
152.753791	2307.151218	9.734119	-0.038490	2.302281
152.995963	2310.374498	9.739123	-0.038551	2.303859
153.181770	2313.602502	9.744128	-0.038598	2.305435
153.375012	2316.693176	9.749133	-0.038648	2.306944
153.497743	2319.895351	9.754138	-0.038680	2.308502
153.747144	2323.087594	9.759143	-0.038743	2.310061
153.907942	2326.247276	9.764147	-0.038784	2.311599
154.159258	2329.398426	9.769152	-0.038848	2.313137
154.333408	2332.580750	9.774157	-0.038892	2.314683
154.511358	2335.760554	9.779162	-0.038938	2.316228
154.613630	2338.830131	9.784167	-0.038965	2.317714
154.923455	2342.029354	9.789171	-0.039043	2.319275
155.112521	2345.238193	9.794176	-0.039091	2.320831
155.168891	2348.284161	9.799181	-0.039107	2.322300
155.331591	2351.552617	9.804186	-0.039149	2.323882
155.279319	2354.822577	9.809191	-0.039138	2.325450
155.506962	2357.999098	9.814195	-0.039196	2.326989
155.570114	2361.301964	9.819200	-0.039214	2.328577
155.740911	2364.594012	9.824205	-0.039258	2.330166
155.942800	2367.870049	9.829210	-0.039309	2.331748
155.986277	2371.148669	9.834215	-0.039322	2.333321
156.292570	2374.491649	9.839219	-0.039399	2.334939
156.628876	2377.733287	9.844224	-0.039483	2.336510
156.839024	2380.884102	9.849229	-0.039537	2.338028
157.166029	2384.152311	9.854234	-0.039619	2.339609
157.286318	2387.335858	9.859239	-0.039650	2.341135
157.612754	2390.431832	9.864243	-0.039732	2.342631
157.852295	2393.633285	9.869248	-0.039793	2.344172
157.983366	2396.806395	9.874253	-0.039827	2.345691
158.327105	2399.832295	9.879258	-0.039913	2.347152
158.503086	2402.975285	9.884263	-0.039958	2.348657
158.801940	2406.122867	9.889267	-0.040033	2.350171
158.890382	2409.204153	9.894272	-0.040057	2.351640
159.009351	2412.271364	9.899277	-0.040088	2.353104
159.168088	2415.477674	9.904282	-0.040129	2.354634
159.188134	2418.629503	9.909287	-0.040136	2.356130
159.476504	2421.702075	9.914291	-0.040209	2.357603
159.513708	2424.933574	9.919296	-0.040220	2.359136
159.681008	2428.147515	9.924301	-0.040263	2.360667
159.939610	2431.254375	9.929306	-0.040328	2.362151
160.113896	2434.448189	9.934311	-0.040373	2.363671
160.255243	2437.685268	9.939315	-0.040409	2.365208
160.312555	2440.847035	9.944320	-0.040426	2.366704
160.497244	2444.044173	9.949325	-0.040473	2.368223
160.905522	2447.303848	9.954330	-0.040575	2.369784
160.943091	2450.478604	9.959335	-0.040586	2.371281
161.205713	2453.641490	9.964339	-0.040652	2.372786
161.214702	2456.915815	9.969344	-0.040657	2.374327
161.395517	2460.119667	9.974349	-0.040703	2.375844
161.603747	2463.261046	9.979354	-0.040756	2.377332
161.839726	2466.502742	9.984359	-0.040816	2.378868
162.155462	2469.715362	9.989363	-0.040895	2.380394
162.267264	2472.824003	9.994368	-0.040924	2.381859
162.415056	2476.031389	9.999373	-0.040963	2.383370
162.695036	2479.274424	10.004378	-0.041033	2.384906
162.609606	2482.435921	10.009383	-0.041015	2.386381
162.965029	2485.646429	10.014387	-0.041104	2.387903
163.215300	2488.855090	10.019392	-0.041167	2.389418
163.318927	2492.045930	10.024397	-0.041194	2.390914
163.522860	2495.233395	10.029402	-0.041246	2.392414
163.781961	2498.443862	10.034407	-0.041312	2.393927
163.945012	2501.649556	10.039411	-0.041354	2.395431
164.125938	2504.697947	10.044416	-0.041400	2.396862
164.058667	2507.949181	10.049421	-0.041386	2.398373
164.381444	2511.236174	10.054426	-0.041467	2.399921
164.581550	2514.404202	10.059431	-0.041518	2.401406
164.759598	2517.588384	10.064435	-0.041563	2.402896
164.958583	2520.846633	10.069440	-0.041614	2.404421
165.054915	2524.026465	10.074445	-0.041640	2.405903
165.363069	2527.196039	10.079450	-0.041717	2.407391
165.478929	2530.419903	10.084455	-0.041748	2.408892

165.733113	2533.525378	10.089459	-0.041812	2.410346
165.898534	2536.512855	10.094464	-0.041854	2.411739
166.096979	2539.516945	10.099469	-0.041905	2.413140
166.335514	2542.507455	10.104474	-0.041965	2.414537
166.448645	2545.350616	10.109479	-0.041994	2.415858
166.563827	2548.126508	10.114483	-0.042024	2.417147
166.747809	2551.006063	10.119488	-0.042071	2.418487
166.731230	2553.809590	10.124493	-0.042069	2.419780
166.998457	2556.520729	10.129498	-0.042136	2.421046
167.079503	2559.164624	10.134503	-0.042158	2.422269
167.160928	2561.894196	10.139507	-0.042179	2.423531
167.457877	2564.559282	10.144512	-0.042254	2.424776
167.528107	2567.063470	10.149517	-0.042272	2.425932
167.733065	2569.560275	10.154522	-0.042324	2.427093
167.957778	2572.081037	10.159527	-0.042381	2.428264
168.147023	2574.484755	10.164531	-0.042429	2.429380
168.262536	2576.923040	10.169536	-0.042458	2.430507
168.425902	2579.080271	10.174541	-0.042500	2.431506
168.681965	2581.424434	10.179546	-0.042564	2.432597
168.855791	2583.626892	10.184551	-0.042608	2.433617
168.997514	2585.798115	10.189555	-0.042644	2.434621
169.050131	2587.945639	10.194560	-0.042658	2.435608
169.401230	2589.845312	10.199565	-0.042745	2.436498
169.540264	2591.897162	10.204570	-0.042780	2.437446
169.583585	2593.910957	10.209575	-0.042792	2.438371
169.674829	2595.884938	10.214579	-0.042816	2.439279
169.767700	2597.855379	10.219584	-0.042840	2.440186
169.736277	2599.653865	10.224589	-0.042833	2.441007
169.925488	2601.535901	10.229594	-0.042881	2.441878
169.942144	2603.450398	10.234599	-0.042886	2.442754
170.030140	2605.342969	10.239603	-0.042909	2.443624
170.190790	2607.190550	10.244608	-0.042949	2.444477
170.178580	2608.983393	10.249613	-0.042947	2.445294
170.350037	2610.677747	10.254618	-0.042990	2.446077
170.391581	2612.392080	10.259623	-0.043001	2.446862
170.489686	2614.182639	10.264627	-0.043026	2.447684
170.655620	2615.870816	10.269632	-0.043068	2.448463
170.769085	2617.548743	10.274637	-0.043097	2.449234
170.886686	2619.143130	10.279642	-0.043127	2.449967
171.031730	2620.716547	10.284647	-0.043163	2.450692
171.228103	2622.176993	10.289651	-0.043212	2.451368
171.402562	2623.658670	10.294656	-0.043255	2.452052
171.466596	2625.084421	10.299661	-0.043272	2.452705
171.706963	2626.517178	10.304666	-0.043331	2.453370
171.812145	2627.860543	10.309671	-0.043358	2.453987
171.877291	2629.170962	10.314675	-0.043375	2.454586
171.947842	2630.531870	10.319680	-0.043393	2.455209
171.791718	2631.730411	10.324685	-0.043355	2.455745
171.867162	2632.987653	10.329690	-0.043375	2.456321
172.163923	2634.202875	10.334695	-0.043448	2.456889
172.152490	2635.486596	10.339699	-0.043446	2.457472
172.125395	2636.787276	10.344704	-0.043440	2.458061
172.129902	2637.982375	10.349709	-0.043442	2.458604
172.195879	2639.257726	10.354714	-0.043459	2.459186
172.180022	2640.459595	10.359719	-0.043455	2.459731
172.320267	2641.729066	10.364723	-0.043491	2.460315
172.363500	2642.761319	10.369728	-0.043502	2.460785
172.352010	2643.858479	10.374733	-0.043500	2.461282
172.509753	2645.052677	10.379738	-0.043539	2.461833
172.618065	2646.153210	10.384743	-0.043566	2.462337
172.671907	2647.217091	10.389747	-0.043580	2.462823
172.869453	2648.352552	10.394752	-0.043629	2.463348
172.951984	2649.237752	10.399757	-0.043649	2.463753
173.134490	2650.337218	10.404762	-0.043694	2.464261
173.289067	2651.187970	10.409767	-0.043733	2.464655
173.271019	2652.053949	10.414771	-0.043729	2.465046
173.472599	2653.006260	10.419776	-0.043779	2.465488
173.410729	2653.679146	10.424781	-0.043764	2.465789
173.702142	2654.456208	10.429786	-0.043835	2.466157
173.545408	2655.262682	10.434791	-0.043798	2.466513
173.631894	2656.040966	10.439795	-0.043819	2.466870
173.739468	2656.824445	10.444800	-0.043846	2.467231
173.815325	2657.587669	10.449805	-0.043865	2.467580
173.878870	2658.380082	10.454810	-0.043881	2.467942
173.873555	2659.065186	10.459815	-0.043880	2.468251
173.796015	2659.816281	10.464819	-0.043861	2.468587
173.900574	2660.561675	10.469824	-0.043887	2.468929
173.741466	2661.323025	10.474829	-0.043849	2.469265
173.664985	2662.094320	10.479834	-0.043830	2.469610
173.774506	2662.877435	10.484839	-0.043858	2.469969
173.881319	2663.617122	10.489843	-0.043884	2.470309
173.940609	2664.268941	10.494848	-0.043899	2.470607
173.826338	2664.894146	10.499853	-0.043871	2.470883
174.014868	2665.620254	10.504858	-0.043918	2.471221
174.089864	2666.312276	10.509863	-0.043936	2.471538
174.338787	2666.904558	10.514867	-0.043998	2.471819
174.436068	2667.423333	10.519872	-0.044022	2.472058
174.497546	2667.902509	10.524877	-0.044037	2.472278
174.724367	2668.515949	10.529882	-0.044093	2.472567
174.684139	2668.985529	10.534887	-0.044083	2.472777
174.746803	2669.345056	10.539891	-0.044098	2.472942
174.886185	2669.900242	10.544896	-0.044133	2.473201
175.021357	2670.244306	10.549901	-0.044166	2.473363
175.053442	2670.583689	10.554906	-0.044174	2.473518
174.969378	2671.061077	10.559911	-0.044153	2.473729
174.985545	2671.254333	10.564915	-0.044157	2.473817
174.884662	2671.961776	10.569920	-0.044133	2.474131
174.912776	2672.176482	10.574925	-0.044140	2.474229
175.022732	2672.661765	10.579930	-0.044167	2.474454
174.948814	2672.989660	10.584935	-0.044149	2.474598
175.005882	2673.351169	10.589939	-0.044163	2.474764
175.041127	2673.864121	10.594944	-0.044172	2.474997
175.070445	2674.056265	10.599949	-0.044179	2.475085
175.087678	2674.656579	10.604954	-0.044184	2.475357
175.121472	2674.805988	10.609959	-0.044192	2.475426
175.098363	2675.165712	10.614963	-0.044186	2.475587
175.011043	2675.295920	10.619968	-0.044165	2.475641
175.074546	2675.899537	10.624973	-0.044181	2.475916
175.182359	2675.967144	10.629978	-0.044207	2.475953
175.182873	2676.604630	10.634983	-0.044207	2.476240
175.187806	2676.623848	10.639987	-0.044209	2.476249
175.279687	2677.248846	10.644992	-0.044231	2.476535
175.222798	2677.353668	10.649997	-0.044217	2.476580
175.240397	2677.779390	10.655002	-0.044222	2.476772
175.379873	2677.985638	10.660007	-0.044256	2.476873
175.404991	2678.125089	10.665011	-0.044262	2.476937
175.504751	2678.704648	10.670016	-0.044287	2.477203
175.414596	2678.697038	10.675021	-0.044264	2.477195
175.578629	2678.927441	10.680026	-0.044305	2.477308
175.590892	2679.378871	10.685031	-0.044308	2.477512
175.791109	2679.338580	10.690035	-0.044357	2.477504
175.835572	2679.364904	10.695040	-0.044367	2.477518
175.857489	2679.385932	10.700045	-0.044373	2.477529
175.763128	2680.123093	10.705050	-0.044350	2.477856
175.814397	2680.098718	10.710055	-0.044362	2.477848
175.809264	2680.087956	10.715059	-0.044361	2.477843
175.766305	2680.115287	10.720064	-0.044350	2.477853
175.714326	2680.410169	10.725069	-0.044338	2.477983
175.794373	2680.768442	10.730074	-0.044357	2.478148
175.722372	2680.769411	10.735079	-0.044340	2.478145
175.696255	2680.755242	10.740083	-0.044333	2.478137
175.819640	2680.950363	10.745088	-0.044363	2.478231
175.760274	2681.451697	10.750093	-0.044349	2.478454
175.756816	2681.469155	10.755098	-0.044348	2.478462
175.807324	2681.455612	10.760103	-0.044360	2.478458
175.862783	2681.439056	10.765107	-0.044374	2.478454
175.992029	2681.454661	10.770112	-0.044405	2.478468
175.913013	2682.108814	10.775117	-0.044386	2.478758
176.082968	2682.128271	10.780122	-0.044427	2.478776
176.183222	2682.114037	10.785127	-0.044452	2.478775
176.178768	2682.096256	10.790131	-0.044451	2.478766
176.133805	2682.130071	10.795136	-0.044439	2.478779
176.140373	2682.094692	10.800141	-0.044441	2.478764
176.235375	2682.111586	10.805146	-0.044464	2.478776
176.323115	2682.092594	10.810151	-0.044485	2.478772
176.363067	2682.087581	10.815155	-0.044495	2.478772
176.316982	2682.115635	10.820160	-0.044484	2.478782
176.271120	2682.084039	10.825165	-0.044472	2.478766
176.414918	2682.080248	10.830170	-0.044507	2.478772
176.368598	2682.096544	10.835175	-0.044496	2.478776
176.246756	2682.096478	10.840179	-0.044466	2.478770
176.404746	2682.097246	10.845184	-0.044504	2.478779
176.305417	2682.079607	10.850189	-0.044480	2.478765
176.278988	2682.100828	10.855194	-0.044473	2.478773
176.298156	2682.099316	10.860199	-0.044478	2.478774
176.177498	2682.110895	10.865203	-0.044448	2.478773
176.140851	2682.137486	10.870208	-0.044439	2.478782
176.225526	2682.091124	10.875213	-0.044460	2.478766
176.214938	2682.112549	10.880218	-0.044457	2.478775
176.236738	2682.105525	10.885223	-0.044462	2.478773
176.211869	2682.101602	10.890227	-0.044456	2.478770
176.280065	2682.105724	10.895232	-0.044472	2.478775
176.294851	2682.083585	10.900237	-0.044476	2.478766
176.368588	2682.090864	10.905242	-0.044494	2.478773
176.348161	2682.087107	10.910247	-0.044489	2.478771
176.367268	2682.089416	10.915251	-0.044493	2.478773
176.543442	2682.084911	10.920256	-0.044536	2.478780
176.381223	2682.073680	10.925261	-0.044496	2.478766
176.362302	2682.094358	10.930266	-0.044492	2.478775
176.471852	2682.075903	10.935271	-0.044518	2.478772
176.355590	2682.072749	10.940275	-0.044490	2.478764
176.413527	2682.062140	10.945280	-0.044504	2.478763
176.375748	2681.384505	10.950285	-0.044494	2.478455
176.377988	2681.406141	10.955290	-0.044494	2.478465
176.388941	2681.397283	10.960295	-0.044497	2.478462
176.362987	2681.399382	10.965299	-0.044490	2.478461
176.567405	2681.397072	10.970304	-0.044540	2.478471
176.469985	2681.375053	10.975309	-0.044516	2.478456
176.570658	2681.388497	10.980314	-0.044541	2.478467
176.515548	2681.392663	10.985319	-0.044527	2.478466
176.504699	2681.377028	10.990323	-0.044524	2.478459
176.580072	2681.384803	10.995328	-0.044543	2.478466
176.446438	2681.375392	11.000333	-0.044510	2.478455
176.714392	2681.095897	11.005338	-0.044575	2.478343
176.643355	2680.671492	11.010343	-0.044557	2.478148
176.497234	2680.664953	11.015347	-0.044521	2.478137
176.514006	2680.701500	11.020352	-0.044525	2.478155
176.428556	2680.675644	11.025357	-0.044504	2.478139
176.503879	2680.679955	11.030362	-0.044523	2.478145
176.568169	2680.681761	11.035367	-0.044538	2.478149
176.501372	2680.667905	11.040371	-0.044522	2.478139
176.679288	2680.675313	11.045376	-0.044565	2.478152
176.513637	2680.112793	11.050381	-0.044524	2.477889
176.628714	2680.012938	11.055386	-0.044552	2.477851
176.654633	2679.999882	11.060391	-0.044558	2.477846
176.569671	2679.991647	11.065395	-0.044537	2.477838
176.607936	2680.024603	11.070400	-0.044546	2.477855
176.581065	2679.991466	11.075405	-0.044540	2.477838
176.650240	2680.002394	11.080410	-0.044557	2.477847
176.718638	2679.420533	11.085415	-0.044573	2.477588
176.609819	2679.246736	11.090419	-0.044546	2.477504
176.798748	2679.256982	11.095424	-0.044592	2.477519
176.793374	2679.232737	11.100429	-0.044590	2.477508
176.902697	2679.217075	11.105434	-0.044617	2.477506
176.970610	2678.520325	11.110439	-0.044633	2.477196
176.872510	2678.519198	11.115443	-0.044609	2.477190
176.872153	2678.548059	11.120448	-0.044609	2.477203
176.784489	2678.432065	11.125453	-0.044587	2.477146
176.765993	2677.845073	11.130458	-0.044582	2.476881
176.858099	2677.838376	11.135463	-0.044604	2.476883
176.673956	2677.841910	11.140467	-0.044559	2.476874
176.656145	2677.858635	11.145472	-0.044555	2.476881
176.619252	2677.839171	11.150477	-0.044546	2.476870
176.620899	2677.252978	11.155482	-0.044545	2.476606
176.770899	2677.186077	11.160487	-0.044582	2.476584
176.676991	2677.178572	11.165491	-0.044559	2.476575
176.614734	2677.216843	11.170496	-0.044543	2.476589
176.503881	2677.200610	11.175501	-0.044516	2.476576
176.627688	2677.195348	11.180506	-0.044546	2.476580
176.621144	2677.010202	11.185511	-0.044544	2.476496
176.694869	2676.457106	11.190515	-0.044562	2.476251
176.771408	2676.469219	11.195520	-0.044581	2.476261
176.787537	2676.444862	11.200525	-0.044584	2.476250
176.889364	2676.446012	11.205530	-0.044609	2.476256
176.854674	2675.956031	11.210535	-0.044600	2.476034
176.852848	2675.748204	11.215539	-0.044599	2.475940
176.885544	2675.766552	11.220544	-0.044607	2.475950
177.000553	2675.717658	11.225549	-0.044635	2.475934
176.881682	2675.051456	11.230554	-0.044606	2.475627
176.741140	2675.076501	11.235559	-0.044571	2.475631
176.667194	2675.069757	11.240563	-0.044553	2.475624
176.839428	2675.067741	11.245568	-0.044595	2.475632
176.794611	2674.813463	11.250573	-0.044584	2.475515
176.712381	2674.620411	11.255578	-0.044563	2.475424
176.719953	2674.620963	11.260583	-0.044565	2.475424
176.739403	2674.601411	11.265587	-0.044570	2.475416
176.852751	2674.608800	11.270592	-0.044597	2.475426
176.927333	2674.028830	11.275597	-0.044615	2.475168
177.001124	2673.838756	11.280602	-0.044633	2.475086
177.020224	2673.836555	11.285607	-0.044637	2.475086
176.982754	2673.458588	11.290611	-0.044628	2.474914
176.954730	2673.148402	11.295616	-0.044620	2.474772
176.868812	2673.139627	11.300621	-0.044599	2.474764
176.805410	2673.159676	11.305626	-0.044584	2.474769
176.786430	2672.780951	11.310631	-0.044579	2.474598
176.794692	2672.433279	11.315635	-0.044580	2.474441
176.804834	2672.449789	11.320640	-0.044583	2.474449
176.816798	2672.436668	11.325645	-0.044585	2.474444
176.726116	2672.266513	11.330650	-0.044563	2.474362
176.800416	2671.783702	11.335655	-0.044581	2.474148
176.646426	2671.792013	11.340659	-0.044543	2.474144
176.718492	2671.804283	11.345664	-0.044560	2.474153
176.667933	2671.788205	11.350669	-0.044548	2.474143
176.829295	2671.700258	11.355674	-0.044587	2.474112
176.898280	2671.046867	11.360679	-0.044603	2.473821
176.914774	2671.027675	11.365683	-0.044607	2.473813
176.953645	2671.044228	11.370688	-0.044617	2.473823
176.932653	2670.705326	11.375693	-0.044611	2.473669
177.090621	2670.321325	11.380698	-0.044649	2.473504
176.977365	2670.341758	11.385703	-0.044621	2.473507
177.037459	2670.027859	11.390707	-0.044636	2.473368
177.065505	2669.639614	11.395712	-0.044642	2.473195
177.020842	2669.621464	11.400717	-0.044631	2.473184
176.995085	2669.348929	11.405722	-0.044625	2.473060
176.896246	2668.983068	11.410727	-0.044600	2.472889
176.841032	2668.975166	11.415731	-0.044586	2.472883
176.782766	2669.007399	11.420736	-0.044572	2.472894
176.691336	2668.937054	11.425741	-0.044550	2.472857
176.654717	2668.272329	11.430746	-0.044540	2.472555
176.602264	2668.283122	11.435751	-0.044527	2.472557
176.514119	2668.270837	11.440755	-0.044505	2.472547
176.595950	2668.289188	11.445760	-0.044525	2.472560
176.606155	2668.263144	11.450765	-0.044528	2.472548
176.605390	2668.281281	11.455770	-0.044527	2.472557
176.577187	2668.287808	11.460775	-0.044520	2.472558
176.690231	2667.801078	11.465779	-0.044547	2.472344
176.754183	2667.575375	11.470784	-0.044563	2.472246
176.654264	2667.567951	11.475789	-0.044538	2.472237
176.797741	2667.568254	11.480794	-0.044573	2.472245
176.787125	2667.575458	11.485799	-0.044570	2.472248
176.715759	2667.065065	11.490803	-0.044552	2.472013
176.823356	2666.873265	11.495808	-0.044578	2.471932
176.851558	2666.844050	11.500813	-0.044585	2.471921
176.831693	2666.853045	11.505818	-0.044580	2.471924
176.894713	2666.604325	11.510823	-0.044595	2.471815
176.902900	2666.179276	11.515827	-0.044597	2.471623
176.832123	2666.223012	11.520832	-0.044579	2.471639
176.852947	2666.197788	11.525837	-0.044584	2.471629
176.818045	2665.856699	11.530842	-0.044575	2.471473
176.907999	2665.470028	11.535847	-0.044597	2.471303
176.767461	2665.466065	11.540851	-0.044563	2.471294
176.753300	2665.490970	11.545856	-0.044559	2.471304
176.742520	2665.416973	11.550861	-0.044556	2.471270
176.631794	2664.812983	11.555866	-0.044529	2.470991
176.618487	2664.825689	11.560871	-0.044525	2.470996
176.589940	2664.799084	11.565875	-0.044518	2.470983
176.652112	2664.822166	11.570880	-0.044533	2.470996
176.587486	2664.803307	11.575885	-0.044517	2.470984
176.751320	2664.792183	11.580890	-0.044557	2.470988
176.705429	2664.288706	11.585895	-0.044545	2.470758
176.537424	2664.103854	11.590899	-0.044504	2.470666
176.679184	2664.124720	11.595904	-0.044539	2.470683
176.682283	2664.098157	11.600909	-0.044539	2.470671
176.883164	2664.083314	11.605914	-0.044588	2.470675
176.865147	2663.882011	11.610919	-0.044583	2.470583
176.732607	2663.564085	11.615923	-0.044551	2.470432
176.887797	2663.594060	11.620928	-0.044589	2.470454
177.008827	2663.548288	11.625933	-0.044618	2.470440
176.953065	2663.026751	11.630938	-0.044604	2.470201
176.939310	2662.829125	11.635943	-0.044600	2.470111
176.901181	2662.829926	11.640947	-0.044591	2.470109
176.810972	2662.847632	11.645952	-0.044569	2.470112
176.820168	2662.122940	11.650957	-0.044570	2.469785
176.711822	2662.144186	11.655962	-0.044544	2.469789
176.696080	2662.163394	11.660967	-0.044540	2.469797
176.695053	2662.134223	11.665971	-0.044539	2.469784
176.802038	2662.139518	11.670976	-0.044565	2.469792
176.684401	2661.433468	11.675981	-0.044536	2.469466
176.656952	2661.434382	11.680986	-0.044529	2.469465
176.738619	2661.447521	11.685991	-0.044549	2.469475
176.700044	2661.422822	11.690995	-0.044539	2.469462
176.834739	2661.428959	11.696000	-0.044572	2.469472
176.696026	2660.899206	11.701005	-0.044538	2.469225
176.722461	2660.770429	11.706010	-0.044544	2.469168
176.681835	2660.799157	11.711015	-0.044534	2.469179
176.607624	2660.780775	11.716019	-0.044516	2.469167
176.684781	2660.793066	11.721024	-0.044534	2.469177
176.675069	2660.777711	11.726029	-0.044532	2.469169
176.659711	2660.086259	11.731034	-0.044527	2.468856
176.686815	2660.064108	11.736039	-0.044534	2.468847
176.716313	2660.035456	11.741043	-0.044541	2.468836
176.798408	2660.052679	11.746048	-0.044561	2.468848
176.900863	2659.933169	11.751053	-0.044586	2.468799
176.851394	2659.348755	11.756058	-0.044573	2.468532
177.013271	2659.330926	11.761063	-0.044612	2.468533
177.077860	2659.291539	11.766067	-0.044628	2.468519
177.098251	2658.727177	11.771072	-0.044633	2.468264
176.871953	2658.643731	11.776077	-0.044577	2.468215
176.870005	2658.636089	11.781082	-0.044576	2.468211
176.941501	2658.356334	11.786087	-0.044594	2.468088
176.654591	2657.982603	11.791091	-0.044523	2.467904
176.671459	2658.013447	11.796096	-0.044527	2.467919
176.424301	2658.021552	11.801101	-0.044467	2.467909
176.523574	2658.018766	11.806106	-0.044491	2.467913
176.530957	2658.029341	11.811111	-0.044492	2.467918
176.455005	2658.012223	11.816115	-0.044474	2.467906
176.496281	2658.036018	11.821120	-0.044484	2.467919
176.551319	2657.857996	11.826125	-0.044497	2.467842
176.454635	2657.286002	11.831130	-0.044473	2.467578
176.514654	2657.294101	11.836135	-0.044487	2.467584
176.637219	2657.256099	11.841139	-0.044517	2.467574
176.724340	2657.274773	11.846144	-0.044538	2.467587
176.802057	2657.238662	11.851149	-0.044557	2.467575
176.929225	2657.072429	11.856154	-0.044588	2.467506
177.064471	2656.530498	11.861159	-0.044620	2.467269
177.069185	2656.504813	11.866163	-0.044621	2.467257
177.131470	2656.295951	11.871168	-0.044636	2.467166
176.832148	2655.823815	11.876173	-0.044563	2.466936
176.919188	2655.822133	11.881178	-0.044584	2.466940
176.842696	2655.839938	11.886183	-0.044565	2.466944
176.918230	2655.427362	11.891187	-0.044583	2.466761
176.780731	2655.208545	11.896192	-0.044549	2.466655
176.754801	2655.188588	11.901197	-0.044543	2.466644
176.595237	2655.198013	11.906202	-0.044504	2.466640
176.657612	2655.219965	11.911207	-0.044519	2.466653
176.604386	2655.056656	11.916211	-0.044505	2.466577
176.604014	2654.491767	11.921216	-0.044505	2.466321
176.646129	2654.470601	11.926221	-0.044515	2.466314
176.655507	2654.460925	11.931226	-0.044517	2.466310
176.652971	2654.490955	11.936231	-0.044516	2.466323
176.698818	2654.456582	11.941235	-0.044527	2.466310
176.832917	2654.179567	11.946240	-0.044560	2.466192
176.796164	2653.774636	11.951245	-0.044550	2.466006
176.733219	2653.781861	11.956250	-0.044535	2.466006
176.773954	2653.795692	11.961255	-0.044545	2.466015
176.748438	2653.763967	11.966259	-0.044538	2.465999
176.591269	2653.463778	11.971264	-0.044500	2.465855
176.575884	2653.105323	11.976269	-0.044495	2.465691
176.659895	2653.081232	11.981274	-0.044516	2.465685
176.604482	2653.121008	11.986279	-0.044502	2.465700
176.495254	2653.108927	11.991283	-0.044475	2.465689
176.501688	2653.136845	11.996288	-0.044477	2.465702
176.454613	2653.131144	12.001293	-0.044465	2.465696
176.551972	2653.103048	12.006298	-0.044489	2.465689
176.504851	2653.147697	12.011303	-0.044477	2.465707
176.603322	2652.715691	12.016307	-0.044501	2.465516
176.596145	2652.624896	12.021312	-0.044499	2.465475
176.637922	2652.609979	12.026317	-0.044509	2.465470
176.760354	2652.603718	12.031322	-0.044539	2.465474
176.877676	2652.590480	12.036327	-0.044567	2.465474
176.972962	2652.182677	12.041331	-0.044590	2.465295
176.909763	2651.850689	12.046336	-0.044574	2.465141
176.826061	2651.841777	12.051341	-0.044554	2.465132
176.915797	2651.832862	12.056346	-0.044575	2.465133
176.849099	2651.282417	12.061351	-0.044559	2.464880
176.710183	2651.139110	12.066355	-0.044524	2.464808
176.701322	2651.167809	12.071360	-0.044522	2.464820
176.498351	2651.191745	12.076365	-0.044472	2.464820
176.420466	2651.194208	12.081370	-0.044453	2.464817
176.283813	2651.227812	12.086375	-0.044420	2.464825
176.358953	2651.185132	12.091379	-0.044438	2.464810
176.560773	2651.187316	12.096384	-0.044487	2.464822
176.463991	2651.189621	12.101389	-0.044463	2.464817
176.589813	2650.633862	12.106394	-0.044494	2.464572
176.556200	2650.474912	12.111399	-0.044485	2.464499
176.524206	2650.466732	12.116403	-0.044477	2.464493
176.745152	2650.465938	12.121408	-0.044531	2.464505
176.817163	2650.441900	12.126413	-0.044548	2.464498
176.671387	2650.454190	12.131418	-0.044513	2.464495
176.714177	2650.131383	12.136423	-0.044523	2.464351
176.741847	2649.783518	12.141427	-0.044529	2.464195
176.912936	2649.783497	12.146432	-0.044571	2.464204
176.857993	2649.771510	12.151437	-0.044557	2.464196
176.824974	2649.593560	12.156442	-0.044549	2.464114
176.821304	2649.071320	12.161447	-0.044548	2.463877
176.640546	2649.070909	12.166451	-0.044503	2.463867
176.808296	2649.079550	12.171456	-0.044544	2.463880
176.754674	2649.066375	12.176461	-0.044531	2.463871
176.701504	2648.684124	12.181466	-0.044518	2.463695
176.822364	2648.386894	12.186471	-0.044547	2.463567
176.673632	2648.378876	12.191475	-0.044510	2.463555
176.791386	2648.374875	12.196480	-0.044539	2.463559
176.868928	2648.357758	12.201485	-0.044558	2.463556
176.492003	2647.802348	12.206490	-0.044465	2.463284
176.597552	2647.717813	12.211495	-0.044491	2.463251
176.624384	2647.679193	12.216499	-0.044497	2.463235
176.789782	2647.679833	12.221504	-0.044537	2.463244
176.589339	2647.696253	12.226509	-0.044488	2.463241
176.628311	2647.681330	12.231514	-0.044498	2.463236
176.640738	2647.666821	12.236519	-0.044500	2.463230
176.592494	2647.024718	12.241523	-0.044488	2.462937
176.572259	2647.051310	12.246528	-0.044483	2.462948
176.654590	2647.028110	12.251533	-0.044503	2.462941
176.671856	2647.010958	12.256538	-0.044507	2.462935
176.747551	2647.031949	12.261543	-0.044525	2.462948
176.683577	2647.008310	12.266547	-0.044510	2.462934
176.801874	2646.376355	12.271552	-0.044538	2.462654
176.933849	2646.253549	12.276557	-0.044570	2.462605
176.980153	2646.247394	12.281562	-0.044581	2.462605
176.986155	2646.100720	12.286567	-0.044582	2.462539
176.909392	2645.537269	12.291571	-0.044563	2.462279
176.927716	2645.575435	12.296576	-0.044568	2.462298
176.757685	2645.573085	12.301581	-0.044526	2.462287
176.860149	2645.195909	12.306586	-0.044550	2.462122
176.600848	2644.919825	12.311591	-0.044487	2.461983
176.571532	2644.893439	12.316595	-0.044479	2.461969
176.484621	2644.920760	12.321600	-0.044458	2.461977
176.592322	2644.896250	12.326605	-0.044484	2.461971
176.433868	2644.898033	12.331610	-0.044445	2.461963
176.465365	2644.923945	12.336615	-0.044453	2.461977
176.360145	2644.906628	12.341619	-0.044427	2.461963
176.537018	2644.918957	12.346624	-0.044470	2.461978
176.402562	2644.924758	12.351629	-0.044437	2.461974
176.431761	2644.328133	12.356634	-0.044444	2.461705
176.508874	2644.262523	12.361639	-0.044463	2.461679
176.513536	2644.244130	12.366643	-0.044464	2.461671
176.548790	2644.258572	12.371648	-0.044472	2.461680
176.615568	2644.238952	12.376653	-0.044488	2.461674
176.587264	2644.238613	12.381658	-0.044481	2.461673
176.535680	2644.269974	12.386663	-0.044468	2.461684
176.532453	2644.234966	12.391667	-0.044467	2.461668
176.522838	2644.262000	12.396672	-0.044465	2.461680
176.466208	2643.723548	12.401677	-0.044451	2.461432
176.546835	2643.520180	12.406682	-0.044470	2.461344
176.559645	2643.545907	12.411687	-0.044473	2.461357
176.669206	2643.496046	12.416691	-0.044500	2.461340
176.638181	2643.532520	12.421696	-0.044492	2.461355
176.614724	2643.530570	12.426701	-0.044486	2.461353
176.700410	2643.503527	12.431706	-0.044507	2.461345
176.759755	2642.938549	12.436711	-0.044521	2.461092
176.713762	2642.800591	12.441715	-0.044509	2.461027
176.781415	2642.826986	12.446720	-0.044526	2.461042
176.722403	2642.827222	12.451725	-0.044511	2.461039
176.659440	2642.820015	12.456730	-0.044496	2.461033
176.616891	2642.451751	12.461735	-0.044485	2.460863
176.533839	2642.132406	12.466739	-0.044464	2.460714
176.569908	2642.148118	12.471744	-0.044473	2.460723
176.524919	2642.149433	12.476749	-0.044462	2.460721
176.487601	2642.149142	12.481754	-0.044453	2.460719
176.538461	2642.158956	12.486759	-0.044465	2.460726
176.461523	2642.141035	12.491763	-0.044446	2.460714
176.539357	2642.154162	12.496768	-0.044465	2.460724
176.570741	2642.150131	12.501773	-0.044472	2.460724
176.495711	2641.876989	12.506778	-0.044454	2.460596
176.605563	2641.675349	12.511783	-0.044480	2.460510
176.668432	2641.633486	12.516787	-0.044496	2.460495
176.636637	2641.660064	12.521792	-0.044488	2.460505
176.696273	2641.655407	12.526797	-0.044502	2.460506
176.732464	2641.632563	12.531802	-0.044511	2.460498
176.865760	2641.322491	12.536807	-0.044543	2.460364
176.656632	2640.901656	12.541811	-0.044491	2.460162
176.727152	2640.923908	12.546816	-0.044509	2.460176
176.699365	2640.917663	12.551821	-0.044502	2.460171
176.685604	2640.907676	12.556826	-0.044498	2.460166
176.720235	2640.789031	12.561831	-0.044506	2.460114
176.545940	2640.219252	12.566835	-0.044463	2.459846
176.483854	2640.240160	12.571840	-0.044448	2.459852
176.582163	2640.221929	12.576845	-0.044472	2.459849
176.518396	2640.223430	12.581850	-0.044456	2.459846
176.469774	2640.248576	12.586855	-0.044444	2.459855
176.573657	2640.204910	12.591859	-0.044469	2.459841
176.592087	2640.227196	12.596864	-0.044474	2.459852
176.493621	2640.224935	12.601869	-0.044450	2.459846
176.606089	2640.023034	12.606874	-0.044477	2.459760
176.627581	2639.519695	12.611879	-0.044481	2.459533
176.657873	2639.482428	12.616883	-0.044489	2.459517
176.696254	2639.516425	12.621888	-0.044498	2.459535
176.791598	2639.494765	12.626893	-0.044521	2.459530
176.724589	2639.485305	12.631898	-0.044505	2.459522
176.691350	2639.052876	12.636903	-0.044496	2.459324
176.604822	2638.847997	12.641907	-0.044475	2.459226
176.663325	2638.855506	12.646912	-0.044489	2.459233
176.762908	2638.838497	12.651917	-0.044513	2.459231
176.683374	2638.831227	12.656922	-0.044493	2.459223
176.783254	2638.732673	12.661927	-0.044518	2.459184
176.814638	2638.095183	12.666931	-0.044525	2.458896
176.839968	2638.113193	12.671936	-0.044531	2.458905
176.812630	2638.110684	12.676941	-0.044524	2.458903
176.788691	2638.106049	12.681946	-0.044518	2.458899
176.828443	2637.578002	12.686951	-0.044527	2.458662
176.701728	2637.420285	12.691955	-0.044496	2.458583
176.792131	2637.422595	12.696960	-0.044518	2.458589
176.788362	2637.423455	12.701965	-0.044517	2.458589
176.647898	2637.428300	12.706970	-0.044482	2.458584
176.496441	2636.793947	12.711975	-0.044445	2.458288
176.472710	2636.752161	12.716979	-0.044439	2.458267
176.586628	2636.762653	12.721984	-0.044467	2.458278
176.490296	2636.761531	12.726989	-0.044443	2.458272
176.408060	2636.763191	12.731994	-0.044423	2.458269
176.409569	2636.789204	12.736999	-0.044423	2.458281
176.455040	2636.753572	12.742003	-0.044434	2.458267
176.514879	2636.772257	12.747008	-0.044448	2.458279
176.600865	2636.758934	12.752013	-0.044469	2.458277
176.564768	2636.743725	12.757018	-0.044460	2.458268
176.616316	2636.423408	12.762023	-0.044473	2.458126
176.483315	2636.095988	12.767027	-0.044440	2.457970
176.576605	2636.101039	12.772032	-0.044462	2.457977
176.661475	2636.090254	12.777037	-0.044483	2.457977
176.712806	2636.072142	12.782042	-0.044495	2.457971
176.807790	2636.084896	12.787047	-0.044518	2.457982
176.876304	2635.635403	12.792051	-0.044535	2.457782
176.690161	2635.350484	12.797056	-0.044489	2.457642
176.704604	2635.357068	12.802061	-0.044492	2.457646
176.745648	2635.326441	12.807066	-0.044502	2.457634
176.716136	2635.364410	12.812071	-0.044495	2.457650
176.628118	2634.981495	12.817075	-0.044473	2.457471
176.602894	2634.652603	12.822080	-0.044466	2.457320
176.516997	2634.677734	12.827085	-0.044445	2.457327
176.452815	2634.670710	12.832090	-0.044429	2.457320
176.490645	2634.695111	12.837095	-0.044439	2.457333
176.424509	2634.676981	12.842099	-0.044422	2.457322
176.387091	2634.690807	12.847104	-0.044413	2.457326
176.470458	2634.689134	12.852109	-0.044433	2.457329
176.485522	2634.663683	12.857114	-0.044437	2.457319
176.652441	2634.680182	12.862119	-0.044477	2.457335
176.642600	2634.254966	12.867123	-0.044475	2.457142
176.550515	2633.976736	12.872128	-0.044452	2.457010
176.727956	2633.955200	12.877133	-0.044495	2.457010
176.588744	2633.962322	12.882138	-0.044461	2.457006
176.717910	2633.967874	12.887143	-0.044492	2.457015
176.541265	2633.964018	12.892147	-0.044449	2.457004
176.550502	2633.972254	12.897152	-0.044451	2.457008
176.675343	2633.603457	12.902157	-0.044481	2.456847
176.469475	2633.314847	12.907162	-0.044431	2.456705
176.625649	2633.325746	12.912167	-0.044469	2.456718
176.483257	2633.314013	12.917171	-0.044434	2.456705
176.572802	2633.316061	12.922176	-0.044455	2.456711
176.575505	2633.322674	12.927181	-0.044456	2.456714
176.568128	2633.294077	12.932186	-0.044454	2.456701
176.527153	2633.329286	12.937191	-0.044444	2.456714
176.620919	2633.029183	12.942195	-0.044466	2.456583
176.686029	2632.586529	12.947200	-0.044482	2.456385
176.757093	2632.568803	12.952205	-0.044499	2.456381
176.642913	2632.570528	12.957210	-0.044471	2.456376
176.880525	2632.578188	12.962215	-0.044529	2.456392
176.696419	2632.389741	12.967219	-0.044484	2.456296
176.571098	2631.916721	12.972224	-0.044453	2.456075
176.669255	2631.906052	12.977229	-0.044477	2.456075
176.511124	2631.910301	12.982234	-0.044438	2.456068
176.584140	2631.921880	12.987239	-0.044455	2.456078
176.421706	2631.922867	12.992243	-0.044416	2.456069
176.518948	2631.924673	12.997248	-0.044439	2.456075
176.346241	2631.946813	13.002253	-0.044397	2.456076
176.370056	2631.922728	13.007258	-0.044403	2.456066
176.440896	2631.947963	13.012263	-0.044420	2.456081
176.560568	2631.905863	13.017267	-0.044449	2.456069
176.504482	2631.255277	13.022272	-0.044435	2.455770
176.740991	2631.223212	13.027277	-0.044492	2.455768
176.565869	2631.213705	13.032282	-0.044449	2.455754
176.642145	2631.226950	13.037287	-0.044468	2.455765
176.558896	2631.209864	13.042291	-0.044447	2.455752
176.676862	2631.211929	13.047296	-0.044476	2.455760
176.768412	2631.073263	13.052301	-0.044498	2.455702
176.692254	2630.741789	13.057306	-0.044479	2.455547
176.697477	2630.767671	13.062311	-0.044480	2.455559
176.668156	2630.746527	13.067315	-0.044473	2.455547
176.679413	2630.763786	13.072320	-0.044476	2.455556
176.702550	2630.766916	13.077325	-0.044481	2.455559
176.522240	2630.126554	13.082330	-0.044437	2.455258
176.635224	2630.042682	13.087335	-0.044464	2.455226
176.599662	2630.022290	13.092339	-0.044455	2.455214
176.725646	2630.034030	13.097344	-0.044486	2.455227
176.633054	2630.040735	13.102349	-0.044463	2.455224
176.693536	2630.006079	13.107354	-0.044478	2.455212
176.563363	2629.890937	13.112359	-0.044446	2.455153
176.542723	2629.320459	13.117363	-0.044440	2.454892
176.545190	2629.339454	13.122368	-0.044441	2.454901
176.558780	2629.340636	13.127373	-0.044444	2.454902
176.520450	2629.324356	13.132378	-0.044434	2.454892
176.576852	2629.347526	13.137383	-0.044448	2.454906
176.429238	2629.339547	13.142387	-0.044412	2.454894
176.497808	2629.338598	13.147392	-0.044428	2.454898
176.583872	2629.343447	13.152397	-0.044449	2.454904
176.535126	2629.177018	13.157402	-0.044437	2.454826
176.424498	2628.659634	13.162407	-0.044410	2.454585
176.410519	2628.645929	13.167411	-0.044406	2.454578
176.472393	2628.637543	13.172416	-0.044421	2.454577
176.506680	2628.654778	13.177421	-0.044429	2.454587
176.604854	2628.614232	13.182426	-0.044453	2.454574
176.434800	2628.667994	13.187431	-0.044411	2.454589
176.585334	2628.616705	13.192435	-0.044448	2.454574
176.646046	2628.633516	13.197440	-0.044463	2.454585
176.806597	2628.556654	13.202445	-0.044502	2.454559
176.690202	2627.959014	13.207450	-0.044473	2.454280
176.773088	2627.971789	13.212455	-0.044493	2.454291
176.852026	2627.941447	13.217459	-0.044512	2.454281
176.839522	2627.952623	13.222464	-0.044509	2.454286
176.815403	2627.473366	13.227469	-0.044502	2.454066
176.730712	2627.230319	13.232474	-0.044481	2.453951
176.796016	2627.244169	13.237479	-0.044497	2.453961
176.704930	2627.223591	13.242483	-0.044475	2.453946
176.650249	2627.235023	13.247488	-0.044461	2.453949
176.676477	2626.860631	13.252493	-0.044467	2.453780
176.487689	2626.558737	13.257498	-0.044421	2.453632
176.619450	2626.564607	13.262503	-0.044453	2.453642
176.515968	2626.553758	13.267507	-0.044428	2.453631
176.385445	2626.583214	13.272512	-0.044396	2.453638
176.352690	2626.603338	13.277517	-0.044387	2.453645
176.373448	2626.570030	13.282522	-0.044392	2.453631
176.367069	2626.596253	13.287527	-0.044391	2.453642
176.297861	2626.580948	13.292531	-0.044374	2.453632
176.473553	2626.577428	13.297536	-0.044416	2.453640
176.489463	2626.594113	13.302541	-0.044420	2.453648
176.478115	2626.564658	13.307546	-0.044417	2.453634
176.403676	2626.597334	13.312551	-0.044399	2.453645
176.468753	2626.493169	13.317555	-0.044415	2.453601
176.534345	2625.866732	13.322560	-0.044430	2.453319
176.581738	2625.877577	13.327565	-0.044442	2.453327
176.600003	2625.856923	13.332570	-0.044446	2.453319
176.706368	2625.866180	13.337575	-0.044472	2.453328
176.666960	2625.846616	13.342579	-0.044462	2.453317
176.698139	2625.847742	13.347584	-0.044469	2.453320
176.784102	2625.443288	13.352589	-0.044490	2.453140
176.687073	2625.186386	13.357594	-0.044466	2.453018
176.724220	2625.205319	13.362599	-0.044475	2.453029
176.649018	2625.201720	13.367603	-0.044456	2.453023
176.603301	2625.216537	13.372608	-0.044445	2.453027
176.560659	2625.231327	13.377613	-0.044435	2.453031
176.472233	2624.724026	13.382618	-0.044413	2.452796
176.478541	2624.520272	13.387623	-0.044414	2.452703
176.368123	2624.501696	13.392627	-0.044387	2.452689
176.408609	2624.501702	13.397632	-0.044396	2.452691
176.390785	2624.526546	13.402637	-0.044392	2.452701
176.275062	2624.505864	13.407642	-0.044364	2.452686
176.393847	2624.528711	13.412647	-0.044392	2.452702
176.342236	2624.513707	13.417651	-0.044380	2.452693
176.420865	2624.493698	13.422656	-0.044399	2.452688
176.475711	2624.509131	13.427661	-0.044412	2.452698
176.375526	2624.497559	13.432666	-0.044387	2.452687
176.482990	2624.516620	13.437671	-0.044414	2.452702
176.474029	2624.486891	13.442675	-0.044411	2.452688
176.672818	2624.463773	13.447680	-0.044460	2.452688
176.834470	2624.189581	13.452685	-0.044499	2.452572
176.777909	2623.750914	13.457690	-0.044485	2.452369
176.733815	2623.787827	13.462695	-0.044474	2.452383
176.735810	2623.756443	13.467699	-0.044474	2.452369
176.832442	2623.755193	13.472704	-0.044497	2.452374
176.777141	2623.216276	13.477709	-0.044483	2.452126
176.663471	2623.059219	13.482714	-0.044455	2.452048
176.628918	2623.093612	13.487719	-0.044447	2.452062
176.588736	2623.072442	13.492723	-0.044437	2.452050
176.477729	2623.095100	13.497728	-0.044410	2.452054
176.509704	2623.104356	13.502733	-0.044417	2.452060
176.351294	2623.084014	13.507738	-0.044378	2.452042
176.506052	2623.091209	13.512743	-0.044416	2.452054
176.287292	2623.106920	13.517747	-0.044363	2.452049
176.379362	2622.737596	13.522752	-0.044385	2.451886
176.439886	2622.465001	13.527757	-0.044399	2.451765
176.478626	2622.426811	13.532762	-0.044408	2.451750
176.558777	2622.453249	13.537767	-0.044428	2.451766
176.633609	2622.427181	13.542771	-0.044446	2.451758
176.641156	2622.412282	13.547776	-0.044448	2.451752
176.671086	2622.427610	13.552781	-0.044455	2.451760
176.759956	2622.397456	13.557786	-0.044477	2.451751
176.714388	2621.861968	13.562791	-0.044465	2.451505
176.697359	2621.698491	13.567795	-0.044460	2.451430
176.664241	2621.699107	13.572800	-0.044452	2.451428
176.622542	2621.702126	13.577805	-0.044442	2.451427
176.427322	2621.714335	13.582810	-0.044394	2.451422
176.513826	2621.732461	13.587815	-0.044415	2.451435
176.433474	2621.724697	13.592819	-0.044395	2.451427
176.454392	2621.725678	13.597824	-0.044400	2.451429
176.370986	2621.380610	13.602829	-0.044380	2.451267
176.218641	2621.062705	13.607834	-0.044342	2.451114
176.474734	2621.062159	13.612839	-0.044404	2.451127
176.447304	2621.036042	13.617843	-0.044398	2.451114
176.373282	2621.059400	13.622848	-0.044379	2.451121
176.539209	2621.046038	13.627853	-0.044420	2.451124
176.515999	2621.024556	13.632858	-0.044414	2.451112
176.443165	2621.067995	13.637863	-0.044396	2.451128
176.474749	2621.043355	13.642867	-0.044404	2.451119
176.374480	2621.046558	13.647872	-0.044379	2.451115
176.311631	2621.079200	13.652877	-0.044363	2.451126
176.198532	2621.076746	13.657882	-0.044336	2.451119
176.471088	2621.068738	13.662887	-0.044402	2.451130
176.345975	2621.057444	13.667891	-0.044371	2.451118
176.313387	2621.061426	13.672896	-0.044363	2.451118
176.250739	2621.089930	13.677901	-0.044348	2.451127
176.341771	2621.057804	13.682906	-0.044370	2.451118
176.359425	2621.086255	13.687911	-0.044374	2.451132
176.415067	2621.054611	13.692915	-0.044388	2.451120
176.605424	2621.023231	13.697920	-0.044434	2.451116
176.689751	2620.545968	13.702925	-0.044454	2.450904
176.721698	2620.313238	13.707930	-0.044462	2.450799
176.763110	2620.341915	13.712935	-0.044472	2.450815
176.840851	2620.321327	13.717939	-0.044491	2.450810
176.751838	2620.322837	13.722944	-0.044469	2.450805
176.864237	2619.835058	13.727949	-0.044496	2.450589
176.829921	2619.794354	13.732954	-0.044487	2.450569
176.761711	2619.834148	13.737959	-0.044470	2.450583
176.543060	2619.836507	13.742963	-0.044417	2.450572
176.621791	2619.825738	13.747968	-0.044436	2.450572
176.508021	2619.555383	13.752973	-0.044408	2.450442
176.289015	2619.126024	13.757978	-0.044354	2.450235
176.485999	2619.116113	13.762983	-0.044402	2.450241
176.455167	2619.109948	13.767987	-0.044394	2.450236
176.557161	2619.087814	13.772992	-0.044419	2.450232
176.470370	2619.121615	13.777997	-0.044398	2.450242
176.557919	2619.078945	13.783002	-0.044419	2.450228
176.688516	2619.100316	13.788007	-0.044451	2.450245
176.600375	2619.086993	13.793011	-0.044429	2.450234
176.638891	2618.867926	13.798016	-0.044438	2.450136
176.666172	2618.392222	13.803021	-0.044444	2.449921
176.570708	2618.377386	13.808026	-0.044421	2.449909
176.539362	2618.410686	13.813031	-0.044413	2.449922
176.402461	2618.409055	13.818035	-0.044379	2.449914
176.405970	2618.413153	13.823040	-0.044380	2.449916
176.454837	2618.418306	13.828045	-0.044392	2.449921
176.331063	2618.409958	13.833050	-0.044362	2.449910
176.326783	2618.435549	13.838055	-0.044360	2.449922
176.374247	2618.421684	13.843059	-0.044372	2.449918
176.442442	2618.402243	13.848064	-0.044388	2.449913
176.499888	2618.416300	13.853069	-0.044402	2.449922
176.461070	2618.392939	13.858074	-0.044393	2.449909
176.526208	2618.171043	13.863079	-0.044408	2.449812
176.647278	2617.677614	13.868083	-0.044437	2.449594
176.658344	2617.674636	13.873088	-0.044440	2.449593
176.635656	2617.700040	13.878093	-0.044434	2.449603
176.666205	2617.667313	13.883098	-0.044442	2.449590
176.721549	2617.679906	13.888103	-0.044455	2.449599
176.671989	2617.501974	13.893107	-0.044443	2.449515
176.631756	2617.036908	13.898112	-0.044432	2.449301
176.563779	2617.051316	13.903117	-0.044416	2.449303
176.673795	2617.010061	13.908122	-0.044442	2.449291
176.650765	2617.039956	13.913127	-0.044437	2.449303
176.473399	2617.043545	13.918131	-0.044393	2.449295
176.485730	2617.034592	13.923136	-0.044396	2.449291
176.537937	2617.051670	13.928141	-0.044409	2.449302
176.481979	2616.948859	13.933146	-0.044395	2.449252
176.444853	2616.348875	13.938151	-0.044385	2.448977
176.369032	2616.352240	13.943155	-0.044366	2.448974
176.444156	2616.328884	13.948160	-0.044385	2.448967
176.351952	2616.349632	13.953165	-0.044362	2.448972
176.340651	2616.324686	13.958170	-0.044359	2.448960
176.500877	2616.325681	13.963175	-0.044398	2.448969
176.382488	2616.339648	13.968179	-0.044369	2.448969
176.433730	2616.317795	13.973184	-0.044381	2.448962
176.445159	2616.351418	13.978189	-0.044384	2.448978
176.453317	2616.322076	13.983194	-0.044386	2.448965
176.566232	2616.334244	13.988199	-0.044413	2.448976
176.617484	2616.315471	13.993203	-0.044426	2.448970
176.712321	2616.083230	13.998208	-0.044449	2.448870
176.699875	2615.626930	14.003213	-0.044445	2.448661
176.567883	2615.619250	14.008218	-0.044413	2.448650
176.633811	2615.644599	14.013223	-0.044429	2.448665
176.653092	2615.621456	14.018227	-0.044433	2.448656
176.517812	2615.635745	14.023232	-0.044400	2.448655
176.640502	2615.640567	14.028237	-0.044430	2.448664
176.597735	2615.268080	14.033242	-0.044419	2.448492
176.417160	2614.963566	14.038247	-0.044375	2.448343
176.374509	2614.960547	14.043251	-0.044364	2.448339
176.422123	2614.950089	14.048256	-0.044376	2.448337
176.484767	2614.972403	14.053261	-0.044391	2.448351
176.284969	2614.969466	14.058266	-0.044342	2.448338
176.337160	2614.984821	14.063271	-0.044354	2.448348
176.210323	2614.982689	14.068275	-0.044323	2.448340
176.244691	2614.975537	14.073280	-0.044332	2.448339
176.275934	2614.992729	14.078285	-0.044339	2.448348
176.270866	2614.956084	14.083290	-0.044338	2.448331
176.392249	2614.974068	14.088295	-0.044367	2.448346
176.361874	2614.975735	14.093299	-0.044360	2.448345
176.338527	2614.959779	14.098304	-0.044354	2.448337
176.501782	2614.959371	14.103309	-0.044394	2.448345
176.363841	2614.944538	14.108314	-0.044360	2.448331
176.626143	2614.933922	14.113319	-0.044424	2.448340
176.609391	2614.936688	14.118323	-0.044419	2.448341
176.580081	2614.925558	14.123328	-0.044412	2.448334
176.581930	2614.414232	14.128333	-0.044412	2.448101
176.498074	2614.279232	14.133338	-0.044391	2.448035
176.550841	2614.309578	14.138343	-0.044404	2.448052
176.443376	2614.312309	14.143347	-0.044378	2.448047
176.500064	2614.288433	14.148352	-0.044392	2.448039
176.465414	2614.321770	14.153357	-0.044383	2.448052
176.549686	2614.279853	14.158362	-0.044403	2.448038
176.537260	2614.298532	14.163367	-0.044400	2.448046
176.476127	2614.303902	14.168371	-0.044385	2.448045
176.306782	2614.309630	14.173376	-0.044344	2.448038
176.468077	2614.320408	14.178381	-0.044383	2.448052
176.434486	2613.960951	14.183386	-0.044374	2.447886
176.532624	2613.571284	14.188391	-0.044398	2.447714
176.471061	2613.573627	14.193395	-0.044383	2.447711
176.553153	2613.553882	14.198400	-0.044403	2.447707
176.383259	2613.600417	14.203405	-0.044361	2.447719
176.278824	2613.580879	14.208410	-0.044335	2.447704
176.325638	2613.595162	14.213415	-0.044347	2.447713
176.247736	2613.592968	14.218419	-0.044328	2.447708
176.249572	2613.588705	14.223424	-0.044328	2.447706
176.217514	2613.612826	14.228429	-0.044320	2.447715
176.167046	2613.589529	14.233434	-0.044307	2.447702
176.170609	2613.612785	14.238439	-0.044308	2.447712
176.275554	2613.602270	14.243443	-0.044334	2.447713
176.307347	2613.574205	14.248448	-0.044341	2.447702
176.383934	2613.597227	14.253453	-0.044360	2.447717
176.379583	2613.564613	14.258458	-0.044359	2.447702
176.531824	2613.561754	14.263463	-0.044396	2.447709
176.557901	2613.546015	14.268467	-0.044402	2.447703
176.550611	2613.542509	14.273472	-0.044400	2.447701
176.573055	2613.574445	14.278477	-0.044405	2.447717
176.575360	2613.535895	14.283482	-0.044406	2.447699
176.489017	2613.122601	14.288487	-0.044384	2.447506
176.463625	2612.875868	14.293491	-0.044378	2.447392
176.509507	2612.853638	14.298496	-0.044389	2.447384
176.540851	2612.880391	14.303501	-0.044396	2.447398
176.307017	2612.889788	14.308506	-0.044339	2.447390
176.385941	2612.898490	14.313511	-0.044358	2.447398
176.279853	2612.904827	14.318515	-0.044332	2.447395
176.187918	2612.898507	14.323520	-0.044310	2.447387
176.325537	2612.908356	14.328525	-0.044343	2.447399
176.186777	2612.893985	14.333530	-0.044309	2.447385
176.191538	2612.917093	14.338535	-0.044310	2.447396
176.459669	2612.886242	14.343539	-0.044375	2.447396
176.373250	2612.870702	14.348544	-0.044354	2.447384
176.411616	2612.899689	14.353549	-0.044363	2.447400
176.441560	2612.858843	14.358554	-0.044371	2.447383
176.444482	2612.879093	14.363559	-0.044371	2.447392
176.479107	2612.879781	14.368563	-0.044380	2.447394
176.475252	2612.869016	14.373568	-0.044378	2.447389
176.389662	2612.905057	14.378573	-0.044357	2.447401
176.352716	2612.883560	14.383578	-0.044348	2.447389
176.465678	2612.883030	14.388583	-0.044376	2.447395
176.518852	2612.184343	14.393587	-0.044388	2.447079
176.525481	2612.155549	14.398592	-0.044390	2.447066
176.450403	2612.195113	14.403597	-0.044371	2.447080
176.448176	2612.170123	14.408602	-0.044370	2.447069
176.472588	2612.181280	14.413607	-0.044376	2.447075
176.552323	2612.182352	14.418611	-0.044396	2.447080
176.480229	2612.163723	14.423616	-0.044378	2.447067
176.521537	2612.183453	14.428621	-0.044388	2.447079
176.461565	2612.170551	14.433626	-0.044373	2.447069
176.507600	2612.184921	14.438631	-0.044384	2.447078
176.445608	2612.186977	14.443635	-0.044369	2.447076
176.458688	2611.771744	14.448640	-0.044372	2.446887
176.459121	2611.548997	14.453645	-0.044371	2.446786
176.365252	2611.531627	14.458650	-0.044348	2.446772
176.289286	2611.560688	14.463655	-0.044330	2.446781
176.284072	2611.560698	14.468659	-0.044328	2.446781
176.267592	2611.552141	14.473664	-0.044324	2.446776
176.243789	2611.583474	14.478669	-0.044318	2.446789
176.287766	2611.546763	14.483674	-0.044329	2.446775
176.341572	2611.556088	14.488679	-0.044342	2.446782
176.258882	2611.559612	14.493683	-0.044321	2.446779
176.375786	2611.538754	14.498688	-0.044350	2.446776
176.376304	2611.568868	14.503693	-0.044350	2.446790
176.337921	2611.547210	14.508698	-0.044340	2.446778
176.546081	2611.531784	14.513703	-0.044391	2.446782
176.592098	2611.521174	14.518707	-0.044402	2.446780
176.531128	2611.515239	14.523712	-0.044387	2.446774
176.638062	2611.524666	14.528717	-0.044413	2.446784
176.630949	2611.497873	14.533722	-0.044411	2.446771
176.674015	2611.004147	14.538727	-0.044421	2.446548
176.740662	2610.791928	14.543731	-0.044437	2.446455
176.612080	2610.779087	14.548736	-0.044406	2.446442
176.661449	2610.803655	14.553741	-0.044418	2.446456
176.461924	2610.792860	14.558746	-0.044369	2.446440
176.549253	2610.805328	14.563751	-0.044390	2.446451
176.439607	2610.816549	14.568755	-0.044363	2.446450
176.385577	2610.802939	14.573760	-0.044350	2.446440
176.384418	2610.812381	14.578765	-0.044349	2.446445
176.303673	2610.265907	14.583770	-0.044329	2.446191
176.214420	2610.387906	14.588775	-0.044307	2.446242
176.184489	2610.852402	14.593779	-0.044300	2.446452
176.321267	2610.821963	14.598784	-0.044333	2.446445
176.227324	2610.853873	14.603789	-0.044310	2.446455
176.313923	2610.815110	14.608794	-0.044331	2.446442
176.374006	2610.825044	14.613799	-0.044346	2.446450
176.397417	2610.575621	14.618803	-0.044351	2.446337
176.284569	2610.135321	14.623808	-0.044323	2.446130
176.444106	2610.150031	14.628813	-0.044362	2.446145
176.338618	2610.142281	14.633818	-0.044336	2.446136
176.509465	2610.136472	14.638823	-0.044378	2.446143
176.317278	2610.173377	14.643827	-0.044331	2.446149
176.332357	2610.146312	14.648832	-0.044334	2.446137
176.430577	2610.158831	14.653837	-0.044358	2.446149
176.409804	2610.136770	14.658842	-0.044353	2.446137
176.453440	2610.145261	14.663847	-0.044363	2.446144
176.378541	2610.157772	14.668851	-0.044345	2.446145
176.346092	2610.151485	14.673856	-0.044337	2.446140
176.476807	2610.166931	14.678861	-0.044369	2.446155
176.637468	2610.110694	14.683866	-0.044408	2.446138
176.679516	2610.119377	14.688871	-0.044418	2.446144
176.502714	2610.011438	14.693875	-0.044375	2.446085
176.629025	2609.417861	14.698880	-0.044405	2.445821
176.635512	2609.444851	14.703885	-0.044406	2.445834
176.549229	2609.437870	14.708890	-0.044385	2.445826
176.374935	2609.469885	14.713895	-0.044342	2.445831
176.427665	2609.458124	14.718899	-0.044355	2.445828
176.395936	2609.454830	14.723904	-0.044347	2.445825
176.417451	2609.480350	14.728909	-0.044352	2.445838
176.309354	2609.460265	14.733914	-0.044326	2.445823
176.435153	2609.456458	14.738919	-0.044357	2.445828
176.408206	2609.466954	14.743923	-0.044350	2.445831
176.422875	2609.450544	14.748928	-0.044353	2.445824
176.476603	2609.473209	14.753933	-0.044366	2.445838
176.429220	2609.305230	14.758938	-0.044354	2.445758
176.520503	2608.955695	14.763943	-0.044376	2.445604
176.468713	2608.975341	14.768947	-0.044364	2.445610
176.562890	2608.932591	14.773952	-0.044386	2.445595
176.598460	2608.968727	14.778957	-0.044395	2.445614
176.610659	2608.933122	14.783962	-0.044398	2.445598
176.625959	2608.943656	14.788967	-0.044401	2.445604
176.579551	2608.959233	14.793971	-0.044390	2.445608
176.459637	2608.948442	14.798976	-0.044361	2.445597
176.544503	2608.347321	14.803981	-0.044381	2.445327
176.583396	2608.204885	14.808986	-0.044390	2.445264
176.494293	2608.233816	14.813991	-0.044368	2.445272
176.555533	2608.226841	14.818995	-0.044383	2.445273
176.520065	2608.212033	14.824000	-0.044374	2.445264
176.459959	2608.245333	14.829005	-0.044359	2.445276
176.462234	2608.220503	14.834010	-0.044360	2.445265
176.433867	2608.228434	14.839015	-0.044353	2.445267
176.305253	2608.250501	14.844019	-0.044321	2.445270
176.308474	2608.226241	14.849024	-0.044322	2.445259
176.425517	2608.247078	14.854029	-0.044350	2.445275
176.458627	2608.219215	14.859034	-0.044358	2.445264
176.396588	2608.234282	14.864039	-0.044343	2.445267
176.381594	2607.716741	14.869043	-0.044339	2.445030
176.334872	2607.524125	14.874048	-0.044327	2.444939
176.354595	2607.561818	14.879053	-0.044332	2.444958
176.321368	2607.531014	14.884058	-0.044323	2.444942
176.473067	2607.522364	14.889063	-0.044360	2.444946
176.628133	2607.516044	14.894067	-0.044398	2.444952
176.498642	2607.509838	14.899072	-0.044366	2.444942
176.628510	2607.521259	14.904077	-0.044398	2.444954
176.612486	2607.500348	14.909082	-0.044394	2.444944
176.566774	2607.516866	14.914087	-0.044383	2.444949
176.695733	2607.466509	14.919091	-0.044414	2.444933
176.680587	2606.784609	14.924096	-0.044410	2.444620
176.761409	2606.803305	14.929101	-0.044429	2.444633
176.680443	2606.787151	14.934106	-0.044409	2.444622
176.425391	2606.832330	14.939111	-0.044347	2.444628
176.575210	2606.821168	14.944115	-0.044383	2.444631
176.443611	2606.812488	14.949120	-0.044351	2.444620
176.416677	2606.845886	14.954125	-0.044344	2.444634
176.368085	2606.833008	14.959130	-0.044332	2.444625
176.356769	2606.837515	14.964135	-0.044330	2.444627
176.392030	2606.715043	14.969139	-0.044338	2.444573
176.308542	2606.167626	14.974144	-0.044317	2.444318
176.279944	2606.210451	14.979149	-0.044310	2.444336
176.232568	2606.187859	14.984154	-0.044298	2.444323
176.277828	2606.194088	14.989159	-0.044309	2.444328
176.411242	2606.194472	14.994163	-0.044342	2.444336
176.448747	2606.158908	14.999168	-0.044351	2.444322
176.473629	2606.183662	15.004173	-0.044357	2.444334
176.449636	2606.170213	15.009178	-0.044351	2.444327
176.488644	2606.163865	15.014183	-0.044360	2.444326
176.499789	2606.181730	15.019187	-0.044363	2.444335
176.577616	2606.138568	15.024192	-0.044381	2.444319
176.429726	2606.201591	15.029197	-0.044345	2.444340
176.490806	2606.171046	15.034202	-0.044360	2.444329
176.459589	2606.170091	15.039207	-0.044352	2.444327
176.426995	2606.196991	15.044211	-0.044344	2.444337
176.314295	2606.177149	15.049216	-0.044316	2.444322
176.298188	2606.215391	15.054221	-0.044312	2.444339
176.386009	2606.175126	15.059226	-0.044334	2.444325
176.518416	2605.734687	15.064231	-0.044366	2.444131
176.550263	2605.467729	15.069235	-0.044373	2.444011
176.564410	2605.441821	15.074240	-0.044376	2.444000
176.503608	2605.481007	15.079245	-0.044361	2.444014
176.383718	2605.465457	15.084250	-0.044332	2.444001
176.464893	2605.458808	15.089255	-0.044352	2.444002

176.619286	2605.460758	15.094259	-0.044389	2.444012
176.563784	2605.225197	15.099264	-0.044375	2.443901
176.553938	2604.773964	15.104269	-0.044372	2.443694
176.443367	2604.767206	15.109274	-0.044345	2.443685
176.444650	2604.216943	15.114279	-0.044345	2.443434
176.423045	2604.103096	15.119283	-0.044340	2.443380
176.354770	2603.493648	15.124288	-0.044322	2.443098
176.297049	2603.272799	15.129293	-0.044308	2.442994
176.308150	2602.710578	15.134298	-0.044310	2.442738
176.236190	2602.118820	15.139303	-0.044292	2.442463
176.254145	2601.620103	15.144307	-0.044296	2.442236
176.236039	2601.008651	15.149312	-0.044291	2.441956
176.161887	2600.405404	15.154317	-0.044272	2.441676
176.210335	2599.673731	15.159322	-0.044283	2.441344
176.321336	2598.879638	15.164327	-0.044310	2.440987
176.162069	2598.270198	15.169331	-0.044270	2.440700
176.164189	2597.342040	15.174336	-0.044270	2.440275
176.228934	2596.429675	15.179341	-0.044285	2.439861
176.066637	2595.564016	15.184346	-0.044245	2.439456
176.106415	2594.458852	15.189351	-0.044254	2.438953
176.095056	2593.534696	15.194355	-0.044250	2.438529
176.027513	2592.342697	15.199360	-0.044233	2.437979
175.947032	2591.302178	15.204365	-0.044212	2.437499
175.831600	2590.159093	15.209370	-0.044183	2.436969
175.877958	2588.932961	15.214375	-0.044193	2.436409
175.870897	2587.828032	15.219379	-0.044191	2.435903
175.668564	2586.692503	15.224384	-0.044140	2.435371
175.755261	2585.404740	15.229389	-0.044160	2.434786
175.709500	2584.061173	15.234394	-0.044148	2.434167
175.721543	2582.647303	15.239399	-0.044150	2.433519
175.662516	2581.220997	15.244403	-0.044134	2.432861
175.540073	2579.734756	15.249408	-0.044103	2.432173
175.646617	2578.260593	15.254413	-0.044128	2.431502
175.698553	2576.704735	15.259418	-0.044139	2.430790
175.598675	2575.124273	15.264423	-0.044114	2.430059
175.491308	2573.523468	15.269427	-0.044086	2.429317
175.412406	2571.783521	15.274432	-0.044066	2.428513
175.311435	2570.132400	15.279437	-0.044040	2.427749
175.209796	2568.384490	15.284442	-0.044013	2.426939
175.166631	2566.672467	15.289447	-0.044002	2.426149
175.141498	2565.062597	15.294451	-0.043994	2.425407
174.942940	2563.179377	15.299456	-0.043944	2.424529
174.928770	2561.400473	15.304461	-0.043939	2.423709
174.728179	2559.557155	15.309466	-0.043889	2.422848
174.770185	2557.628702	15.314471	-0.043898	2.421962
174.736129	2555.777608	15.319475	-0.043888	2.421107
174.668786	2553.907208	15.324480	-0.043870	2.420240
174.660131	2551.912924	15.329485	-0.043866	2.419320
174.703170	2549.821096	15.334490	-0.043875	2.418357
174.546597	2547.718335	15.339495	-0.043835	2.417377
174.539821	2545.626847	15.344499	-0.043832	2.416411
174.342871	2543.616223	15.349504	-0.043782	2.415470
174.430340	2541.418633	15.354509	-0.043802	2.414460
174.276769	2539.210311	15.359514	-0.043763	2.413430
174.125648	2537.000299	15.364519	-0.043724	2.412399
174.054581	2534.765253	15.369523	-0.043705	2.411360
173.986383	2532.577008	15.374528	-0.043687	2.410343
173.790051	2530.342769	15.379533	-0.043637	2.409297
173.677978	2528.010282	15.384538	-0.043608	2.408209
173.586837	2525.716353	15.389543	-0.043584	2.407140
173.702851	2523.399999	15.394547	-0.043610	2.406073
173.507423	2521.077915	15.399552	-0.043561	2.404984
173.521820	2518.611420	15.404557	-0.043563	2.403839
173.328396	2516.186820	15.409562	-0.043513	2.402702
173.240441	2513.723876	15.414567	-0.043490	2.401552
173.211226	2511.370014	15.419571	-0.043481	2.400456
173.044398	2508.834596	15.424576	-0.043438	2.399267
173.154550	2506.278001	15.429581	-0.043463	2.398084
172.858013	2503.702851	15.434586	-0.043389	2.396868
172.789268	2501.279791	15.439591	-0.043370	2.395735
172.726539	2498.692746	15.444595	-0.043353	2.394525
172.629269	2496.044032	15.449600	-0.043327	2.393284
172.569519	2493.404107	15.454605	-0.043311	2.392049
172.478319	2490.823949	15.459610	-0.043286	2.390839
172.469666	2488.089199	15.464615	-0.043282	2.389562
172.234120	2485.370379	15.469619	-0.043223	2.388277
172.235725	2482.588581	15.474624	-0.043221	2.386977
172.156810	2479.941063	15.479629	-0.043200	2.385734
172.114554	2477.130683	15.484634	-0.043187	2.384416
172.013166	2474.273910	15.489639	-0.043160	2.383072
171.945876	2471.424851	15.494643	-0.043142	2.381733
171.805355	2468.650773	15.499648	-0.043105	2.380424
171.598667	2465.795022	15.504653	-0.043053	2.379072
171.417977	2462.907114	15.509658	-0.043006	2.377706
171.447896	2460.017546	15.514663	-0.043011	2.376350
171.273991	2457.237436	15.519667	-0.042967	2.375034
171.110731	2454.235876	15.524672	-0.042925	2.373613
170.917417	2451.339419	15.529677	-0.042875	2.372239
170.817255	2448.459216	15.534682	-0.042849	2.370877
170.648801	2445.534250	15.539687	-0.042805	2.369489
170.491318	2442.609664	15.544691	-0.042765	2.368101
170.377902	2439.628358	15.549696	-0.042735	2.366689
170.315386	2436.792286	15.554701	-0.042717	2.365347
170.131408	2433.761229	15.559706	-0.042670	2.363904
170.187735	2430.694599	15.564711	-0.042681	2.362459
170.121807	2427.747874	15.569715	-0.042663	2.361062
170.038834	2424.630200	15.574720	-0.042640	2.359582
169.915563	2421.543318	15.579725	-0.042608	2.358114
169.853376	2418.438830	15.584730	-0.042591	2.356640
169.720486	2415.377818	15.589735	-0.042556	2.355181
169.754423	2412.162758	15.594739	-0.042562	2.353659
169.596429	2408.894429	15.599744	-0.042521	2.352098
169.535085	2405.788633	15.604749	-0.042503	2.350620
169.394320	2402.530636	15.609754	-0.042466	2.349063
169.371405	2399.192307	15.614759	-0.042458	2.347475
169.223795	2396.033413	15.619763	-0.042420	2.345963
168.811435	2392.774460	15.624768	-0.042317	2.344387
168.919456	2389.479305	15.629773	-0.042341	2.342823
168.801104	2386.241576	15.634778	-0.042309	2.341272
168.563826	2382.963564	15.639783	-0.042249	2.339694
168.408754	2379.647957	15.644787	-0.042208	2.338102
168.219927	2376.357567	15.649792	-0.042160	2.336519
168.108518	2373.128481	15.654797	-0.042130	2.334968
167.892455	2369.790944	15.659802	-0.042075	2.333359
167.829552	2366.468835	15.664807	-0.042057	2.331765
167.774540	2363.179283	15.669811	-0.042041	2.330185
167.559829	2359.785413	15.674816	-0.041986	2.328545
167.487638	2356.464588	15.679821	-0.041966	2.326948
167.436793	2353.104972	15.684826	-0.041951	2.325332
167.443602	2349.620127	15.689831	-0.041950	2.323659
167.322423	2346.210674	15.694835	-0.041918	2.322012
167.158170	2342.766703	15.699840	-0.041875	2.320346
167.025182	2339.302441	15.704845	-0.041840	2.318670
166.727502	2335.881958	15.709850	-0.041765	2.317003
166.766792	2332.463116	15.714855	-0.041772	2.315358
166.690590	2328.962571	15.719859	-0.041751	2.313664
166.540321	2325.402072	15.724864	-0.041711	2.311936
166.257835	2322.002452	15.729869	-0.041640	2.310276
166.139307	2318.443184	15.734874	-0.041608	2.308547
166.050718	2314.952412	15.739879	-0.041584	2.306853
165.966190	2311.483043	15.744883	-0.041561	2.305167
165.768736	2307.893975	15.749888	-0.041510	2.303416
165.808053	2304.362663	15.754893	-0.041517	2.301706
165.545558	2300.837021	15.759898	-0.041450	2.299978
165.380411	2297.208968	15.764903	-0.041407	2.298206
165.269137	2293.740507	15.769907	-0.041377	2.296513
165.029127	2290.192535	15.774912	-0.041316	2.294772
164.861844	2286.592048	15.779917	-0.041272	2.293008
164.922954	2283.056947	15.784922	-0.041285	2.291290
164.703458	2279.412789	15.789927	-0.041228	2.289500
164.550459	2275.778245	15.794931	-0.041188	2.287716
164.298919	2272.282129	15.799936	-0.041124	2.285993
164.181952	2268.666766	15.804941	-0.041093	2.284219
163.967022	2265.052036	15.809946	-0.041038	2.282437
163.945026	2261.524034	15.814951	-0.041030	2.280709
163.829261	2257.883221	15.819955	-0.040999	2.278918
163.700562	2254.223762	15.824960	-0.040964	2.277116
163.601711	2250.650164	15.829965	-0.040938	2.275357
163.452086	2246.950308	15.834970	-0.040898	2.273530
163.275249	2243.332617	15.839975	-0.040852	2.271741
163.363013	2239.628854	15.844979	-0.040871	2.269926
163.158578	2235.848143	15.849984	-0.040818	2.268052
163.140161	2232.211534	15.854989	-0.040811	2.266259
162.985431	2228.402656	15.859994	-0.040770	2.264371
162.808728	2224.608122	15.864999	-0.040724	2.262488
162.594939	2220.982534	15.870003	-0.040670	2.260684
162.316235	2217.194180	15.875008	-0.040599	2.258793
162.159824	2213.514091	15.880013	-0.040558	2.256963
161.986894	2209.822828	15.885018	-0.040513	2.255124
161.833378	2206.042933	15.890023	-0.040472	2.253242
161.661762	2202.411513	15.895027	-0.040428	2.251430
161.527116	2198.647999	15.900032	-0.040392	2.249553
161.418353	2194.891779	15.905037	-0.040363	2.247680
161.322246	2191.208620	15.910042	-0.040336	2.245843
161.082800	2187.407955	15.915047	-0.040275	2.243937
161.094805	2183.669960	15.920051	-0.040275	2.242076
160.888441	2179.903662	15.925056	-0.040222	2.240186
160.840563	2176.068216	15.930061	-0.040207	2.238270
160.608851	2172.395589	15.935066	-0.040148	2.236421
160.540603	2168.544691	15.940071	-0.040129	2.234492
160.476896	2164.732108	15.945075	-0.040110	2.232582
160.409514	2160.871857	15.950080	-0.040091	2.230645
160.241358	2156.997607	15.955085	-0.040047	2.228694
159.994351	2153.215471	15.960090	-0.039984	2.226781
159.913018	2149.329292	15.965095	-0.039961	2.224825
159.781614	2145.470041	15.970099	-0.039926	2.222878
159.418595	2141.716661	15.975104	-0.039834	2.220967
159.360204	2137.850708	15.980109	-0.039817	2.219018
159.288341	2134.017559	15.985114	-0.039797	2.217083
159.132399	2130.182672	15.990119	-0.039756	2.215140
158.979139	2126.283409	15.995123	-0.039716	2.213163
158.792530	2122.465726	16.000128	-0.039667	2.211222
158.672809	2118.553828	16.005133	-0.039635	2.209238
158.653434	2114.693348	16.010138	-0.039627	2.207284
158.429218	2110.776709	16.015143	-0.039570	2.205286
158.413133	2106.831586	16.020147	-0.039563	2.203285
158.132802	2102.984839	16.025152	-0.039492	2.201315
158.061678	2099.013740	16.030157	-0.039471	2.199295
157.796796	2095.192317	16.035162	-0.039404	2.197335
157.699350	2091.279296	16.040167	-0.039377	2.195338
157.495488	2087.359165	16.045171	-0.039324	2.193329
157.197212	2083.545247	16.050176	-0.039249	2.191365
157.098101	2079.617531	16.055181	-0.039221	2.189355
157.023351	2075.750671	16.060186	-0.039200	2.187376
156.634990	2071.902829	16.065191	-0.039103	2.185383
156.540910	2068.030455	16.070195	-0.039077	2.183397
156.325142	2064.250477	16.075200	-0.039021	2.181447
156.258509	2060.338475	16.080205	-0.039002	2.179438
156.123360	2056.486623	16.085210	-0.038966	2.177454
155.927710	2052.595825	16.090215	-0.038915	2.175443
155.850338	2048.693126	16.095219	-0.038894	2.173433
155.722979	2044.816079	16.100224	-0.038860	2.171431
155.622471	2040.871064	16.105229	-0.038832	2.169393
155.559647	2036.946736	16.110234	-0.038814	2.167367
155.450589	2032.989473	16.115239	-0.038784	2.165319
155.288102	2029.012192	16.120243	-0.038742	2.163255
155.156227	2025.098286	16.125248	-0.038706	2.161223
155.059064	2021.066862	16.130253	-0.038680	2.159132
154.874765	2017.155071	16.135258	-0.038632	2.157094
154.646068	2013.189916	16.140263	-0.038573	2.155023
154.646061	2009.215174	16.145267	-0.038570	2.152962
154.361591	2005.225784	16.150272	-0.038498	2.150871
154.260081	2001.209703	16.155277	-0.038470	2.148776
154.200098	1997.317828	16.160282	-0.038452	2.146748
153.881732	1993.267898	16.165287	-0.038371	2.144617
153.933456	1989.310387	16.170291	-0.038381	2.142558
153.665519	1985.316908	16.175296	-0.038313	2.140455
153.634830	1981.282294	16.180301	-0.038302	2.138347
153.335706	1977.361474	16.185306	-0.038226	2.136276
153.217422	1973.305221	16.190311	-0.038194	2.134145
153.232600	1969.330140	16.195315	-0.038195	2.132064
152.978900	1965.246640	16.200320	-0.038130	2.129905
152.924927	1961.237381	16.205325	-0.038114	2.127797
152.711161	1957.214584	16.210330	-0.038059	2.125668
152.464356	1953.149469	16.215335	-0.037995	2.123513
152.311146	1949.229650	16.220339	-0.037955	2.121438
152.054000	1945.163887	16.225344	-0.037889	2.119277
152.070769	1941.228840	16.230349	-0.037890	2.117203
151.884319	1937.180973	16.235354	-0.037842	2.115052
151.704299	1933.156765	16.240359	-0.037795	2.112912
151.494700	1929.184203	16.245363	-0.037741	2.110795
151.390732	1925.110133	16.250368	-0.037712	2.108630
151.263888	1921.169182	16.255373	-0.037678	2.106532
151.079331	1917.098293	16.260378	-0.037630	2.104358
151.007722	1913.108612	16.265383	-0.037610	2.102234
150.891888	1909.050869	16.270387	-0.037578	2.100067
150.622596	1905.032462	16.275392	-0.037510	2.097908
150.564189	1901.003197	16.280397	-0.037492	2.095757
150.372141	1896.930255	16.285402	-0.037442	2.093570
150.112870	1892.909126	16.290407	-0.037376	2.091404
150.085230	1888.828281	16.295411	-0.037366	2.089221
149.884031	1884.833424	16.300416	-0.037314	2.087068
149.604263	1880.781937	16.305421	-0.037243	2.084877
149.511821	1876.788584	16.310426	-0.037217	2.082729
149.203812	1872.771530	16.315431	-0.037139	2.080549
149.017573	1868.829795	16.320435	-0.037091	2.078417
148.842496	1864.870281	16.325440	-0.037045	2.076274
148.661928	1860.849050	16.330445	-0.036998	2.074095
148.540351	1856.950803	16.335450	-0.036965	2.071985
148.264181	1852.918377	16.340455	-0.036895	2.069788
148.194324	1849.020105	16.345459	-0.036875	2.067677
147.999220	1845.009802	16.350464	-0.036824	2.065494
147.815248	1841.074292	16.355469	-0.036776	2.063350
147.809642	1837.126961	16.360474	-0.036772	2.061211
147.564778	1833.084172	16.365479	-0.036709	2.058999
147.500637	1829.200999	16.370483	-0.036691	2.056886
147.376066	1825.126676	16.375488	-0.036657	2.054662
147.467222	1821.113924	16.380493	-0.036676	2.052486
147.318191	1817.006078	16.385498	-0.036637	2.050237
146.933932	1813.000088	16.390503	-0.036540	2.048022
146.954713	1808.948385	16.395507	-0.036542	2.045812
146.759675	1804.887832	16.400512	-0.036492	2.043578
146.658526	1800.857355	16.405517	-0.036464	2.041365
146.422014	1796.788110	16.410522	-0.036403	2.039118
146.189957	1792.835205	16.415527	-0.036343	2.036932
146.018005	1788.796378	16.420531	-0.036298	2.034702
145.957009	1784.789184	16.425536	-0.036281	2.032495
145.746180	1780.710730	16.430541	-0.036226	2.030235
145.506677	1776.754090	16.435546	-0.036165	2.028037
145.301012	1772.726182	16.440551	-0.036111	2.025800
145.301366	1768.743917	16.445555	-0.036108	2.023603
145.065170	1764.724589	16.450560	-0.036048	2.021363
144.896150	1760.676367	16.455565	-0.036003	2.019110
144.696095	1756.727679	16.460570	-0.035952	2.016908
144.574769	1752.646135	16.465575	-0.035919	2.014635
144.564494	1748.680725	16.470579	-0.035914	2.012434
144.302648	1744.569529	16.475584	-0.035846	2.010129
144.288521	1740.561986	16.480589	-0.035840	2.007898
144.018332	1736.512176	16.485594	-0.035771	2.005621
143.825396	1732.501137	16.490599	-0.035721	2.003370
143.709760	1728.461033	16.495603	-0.035690	2.001105
143.465143	1724.460591	16.500608	-0.035627	1.998850
143.263570	1720.519266	16.505613	-0.035575	1.996629
143.054702	1716.507973	16.510618	-0.035521	1.994366
142.993947	1712.527763	16.515623	-0.035503	1.992129
142.933083	1708.461167	16.520627	-0.035485	1.989842
142.625037	1704.529100	16.525632	-0.035407	1.987607
142.561552	1700.464444	16.530637	-0.035388	1.985315
142.426472	1696.499237	16.535642	-0.035352	1.983071
142.172311	1692.468094	16.540647	-0.035287	1.980777
142.022591	1688.528886	16.545651	-0.035248	1.978540
141.826693	1684.516793	16.550656	-0.035197	1.976257
141.785865	1680.511925	16.555661	-0.035184	1.973987
141.559694	1676.532684	16.560666	-0.035126	1.971714
141.394995	1672.481648	16.565671	-0.035083	1.969403
141.242449	1668.560034	16.570675	-0.035042	1.967164
141.052057	1664.504998	16.575680	-0.034993	1.964843
140.784131	1660.614336	16.580685	-0.034925	1.962606
140.738501	1656.582206	16.585690	-0.034910	1.960305
140.605281	1652.660525	16.590695	-0.034875	1.958056
140.219872	1648.703496	16.595699	-0.034778	1.955764
140.109660	1644.769075	16.600704	-0.034748	1.953505
139.819027	1640.860054	16.605709	-0.034674	1.951243
139.892854	1636.898503	16.610714	-0.034689	1.948978
139.524844	1632.973002	16.615719	-0.034596	1.946695
139.478141	1629.052484	16.620723	-0.034582	1.944439
139.405495	1625.103777	16.625728	-0.034561	1.942161
139.440022	1621.052168	16.630733	-0.034567	1.939831
139.184224	1617.127489	16.635738	-0.034501	1.937547
138.900942	1613.103528	16.640743	-0.034429	1.935200
138.886986	1609.174702	16.645747	-0.034423	1.932928
138.624368	1605.130490	16.650752	-0.034356	1.930566
138.550583	1601.209576	16.655757	-0.034335	1.928288
138.279250	1597.213166	16.660762	-0.034265	1.925947
138.059399	1593.295684	16.665767	-0.034209	1.923653
137.887654	1589.350788	16.670771	-0.034164	1.921345
137.688737	1585.436760	16.675776	-0.034112	1.919049
137.387143	1581.572372	16.680781	-0.034036	1.916770
137.260581	1577.654558	16.685786	-0.034002	1.914473
137.059321	1573.773836	16.690791	-0.033950	1.912189
137.107690	1569.837029	16.695795	-0.033959	1.909891
136.895299	1565.932520	16.700800	-0.033904	1.907585
136.701209	1561.978433	16.705805	-0.033854	1.905250
136.670896	1558.110060	16.710810	-0.033843	1.902977
136.386689	1554.146907	16.715815	-0.033771	1.900622
136.381251	1550.272569	16.720819	-0.033767	1.898342
136.226046	1546.293676	16.725824	-0.033726	1.895984
136.113701	1542.347686	16.730829	-0.033696	1.893646
135.901464	1538.396657	16.735834	-0.033641	1.891293
135.745292	1534.441339	16.740839	-0.033600	1.888940
135.523937	1530.546749	16.745843	-0.033543	1.886614
135.383381	1526.604256	16.750848	-0.033505	1.884264
135.179077	1522.699028	16.755853	-0.033453	1.881928
134.984233	1518.815670	16.760858	-0.033402	1.879602
134.819316	1514.929495	16.765863	-0.033359	1.877275
134.770419	1510.994402	16.770867	-0.033344	1.874926
134.438766	1507.120172	16.775872	-0.033260	1.872585
134.254662	1503.216925	16.780877	-0.033212	1.870236
134.158566	1499.392346	16.785882	-0.033186	1.867940
133.956039	1495.435574	16.790887	-0.033134	1.865552
133.970278	1491.608752	16.795891	-0.033134	1.863259
133.767254	1487.647836	16.800896	-0.033082	1.860863
133.708789	1483.748872	16.805901	-0.033064	1.858514
133.584506	1479.792108	16.810906	-0.033031	1.856121
133.298071	1475.901860	16.815911	-0.032958	1.853750
133.161898	1471.962369	16.820915	-0.032922	1.851360
132.992558	1468.083205	16.825920	-0.032878	1.849001
132.785721	1464.166860	16.830925	-0.032824	1.846613
132.677870	1460.289377	16.835930	-0.032795	1.844254
132.384839	1456.377495	16.840935	-0.032721	1.841854
132.188776	1452.566868	16.845939	-0.032670	1.839521
131.924476	1448.737807	16.850944	-0.032603	1.837168
131.643500	1444.930681	16.855949	-0.032531	1.834823
131.607338	1441.113525	16.860954	-0.032519	1.832493
131.432821	1437.253864	16.865959	-0.032474	1.830120
131.340007	1433.460921	16.870963	-0.032448	1.827793
131.284375	1429.559273	16.875968	-0.032432	1.825400
131.227099	1425.714948	16.880973	-0.032415	1.823039
130.929701	1421.832483	16.885978	-0.032339	1.820628
130.856226	1418.028481	16.890983	-0.032319	1.818284
130.808302	1414.109064	16.895987	-0.032304	1.815868
130.605274	1410.256183	16.900992	-0.032252	1.813475
130.494261	1406.311991	16.905997	-0.032222	1.811031
130.164383	1402.538515	16.911002	-0.032138	1.808668
129.955359	1398.639577	16.916007	-0.032084	1.806237
129.850119	1394.845933	16.921011	-0.032056	1.803877
129.682666	1390.959580	16.926016	-0.032012	1.801450
129.602590	1387.160117	16.931021	-0.031989	1.799083
129.270023	1383.325552	16.936026	-0.031905	1.796666
129.060651	1379.536680	16.941031	-0.031851	1.794287
128.872620	1375.734326	16.946035	-0.031803	1.791898
128.663134	1371.970458	16.951040	-0.031749	1.789527
128.511593	1368.160179	16.956045	-0.031709	1.787130
128.377461	1364.405178	16.961050	-0.031673	1.784767
128.320415	1360.581412	16.966055	-0.031656	1.782364
128.263871	1356.773929	16.971059	-0.031640	1.779969
128.085726	1352.949969	16.976064	-0.031593	1.777547
128.084339	1349.079501	16.981069	-0.031590	1.775111
127.901122	1345.238458	16.986074	-0.031543	1.772672
127.756389	1341.359408	16.991079	-0.031504	1.770209
127.699453	1337.507791	16.996083	-0.031488	1.767769
127.526056	1333.626613	17.001088	-0.031442	1.765296
127.194680	1329.812022	17.006093	-0.031358	1.762845
127.177673	1325.967813	17.011098	-0.031351	1.760403
126.952004	1322.142721	17.016103	-0.031293	1.757950
126.758439	1318.317507	17.021107	-0.031243	1.755496
126.457036	1314.521862	17.026112	-0.031167	1.753046
126.328964	1310.701313	17.031117	-0.031133	1.750595
126.192769	1306.941394	17.036122	-0.031097	1.748178
125.847666	1303.130605	17.041127	-0.031010	1.745704
125.839815	1299.389243	17.046131	-0.031005	1.743305
125.520379	1295.615665	17.051136	-0.030924	1.740850
125.424132	1291.891258	17.056141	-0.030898	1.738447
125.240467	1288.118543	17.061146	-0.030850	1.736000
125.093578	1284.353128	17.066151	-0.030811	1.733558
125.026363	1280.559146	17.071155	-0.030792	1.731102
124.818327	1276.825559	17.076160	-0.030738	1.728667
124.507412	1273.046463	17.081165	-0.030660	1.726189
124.420139	1269.363640	17.086170	-0.030636	1.723793
124.187343	1265.579646	17.091175	-0.030576	1.721312
124.092770	1261.925054	17.096179	-0.030550	1.718927
123.907222	1258.137454	17.101184	-0.030502	1.716442
123.818044	1254.436932	17.106189	-0.030477	1.714020
123.548655	1250.679209	17.111194	-0.030409	1.711539
123.300371	1247.013626	17.116199	-0.030345	1.709116
123.263631	1243.254919	17.121203	-0.030334	1.706651
123.001346	1239.625808	17.126208	-0.030267	1.704244
122.989572	1235.839436	17.131213	-0.030261	1.701757
122.814348	1232.185638	17.136218	-0.030216	1.699336
122.569142	1228.436308	17.141223	-0.030153	1.696841
122.563623	1224.723882	17.146227	-0.030149	1.694392
122.360045	1220.957486	17.151232	-0.030096	1.691883
122.139457	1217.294071	17.156237	-0.030040	1.689436
121.993828	1213.562061	17.161242	-0.030001	1.686949
121.862364	1209.881777	17.166247	-0.029966	1.684493
121.669236	1206.157448	17.171251	-0.029916	1.681998
121.404817	1202.554789	17.176256	-0.029849	1.679573
121.215855	1198.829390	17.181261	-0.029800	1.677070
121.136036	1195.202579	17.186266	-0.029778	1.674642
120.953316	1191.462072	17.191271	-0.029731	1.672122
120.820283	1187.848135	17.196275	-0.029695	1.669689
120.590745	1184.138307	17.201280	-0.029637	1.667177
120.424119	1180.534828	17.206285	-0.029593	1.664740
120.336605	1176.842206	17.211290	-0.029569	1.662248
120.065115	1173.244522	17.216295	-0.029500	1.659797
119.919883	1169.582056	17.221299	-0.029462	1.657311
119.790483	1165.957919	17.226304	-0.029427	1.654850
119.595642	1162.279973	17.231309	-0.029377	1.652341
119.552810	1158.663137	17.236314	-0.029364	1.649886
119.350690	1154.951821	17.241319	-0.029312	1.647346
119.193765	1151.380165	17.246323	-0.029271	1.644902
119.006385	1147.704217	17.251328	-0.029222	1.642380
118.651258	1144.176009	17.256333	-0.029133	1.639937
118.502612	1140.558526	17.261338	-0.029094	1.637451
118.339681	1136.985673	17.266343	-0.029051	1.634991
118.244683	1133.360693	17.271347	-0.029025	1.632499
118.005581	1129.816475	17.276352	-0.028964	1.630042
117.737587	1126.217912	17.281357	-0.028896	1.627541
117.607452	1122.719944	17.286362	-0.028862	1.625121
117.373395	1119.132822	17.291367	-0.028802	1.622624
117.175503	1115.622738	17.296371	-0.028751	1.620180
116.912967	1112.073086	17.301376	-0.028684	1.617698
116.834812	1108.550841	17.306381	-0.028662	1.615252
116.679972	1105.006928	17.311386	-0.028622	1.612779
116.479266	1101.489309	17.316391	-0.028570	1.610315
116.484388	1097.928763	17.321395	-0.028569	1.607840
116.302227	1094.415457	17.326400	-0.028522	1.605374
116.061796	1090.854576	17.331405	-0.028460	1.602863
115.991297	1087.387561	17.336410	-0.028441	1.600434
115.679441	1083.846715	17.341415	-0.028362	1.597922
115.573560	1080.356685	17.346419	-0.028333	1.595465
115.172910	1076.884218	17.351424	-0.028233	1.592982
115.169589	1073.408838	17.356429	-0.028229	1.590540
114.800981	1069.971617	17.361434	-0.028137	1.588078
114.443791	1066.586688	17.366439	-0.028047	1.585650
114.238083	1063.189796	17.371443	-0.027994	1.583228
114.076496	1059.814501	17.376448	-0.027952	1.580823
113.788854	1056.443684	17.381453	-0.027879	1.578402
113.458581	1053.150766	17.386458	-0.027796	1.576028
113.305531	1049.781543	17.391463	-0.027756	1.573617
113.365285	1046.421522	17.396467	-0.027768	1.571234
113.105067	1043.070819	17.401472	-0.027702	1.568816
113.135587	1039.671022	17.406477	-0.027707	1.566393
113.010366	1036.309751	17.411482	-0.027674	1.563976
112.741866	1032.937439	17.416487	-0.027606	1.561531
112.698276	1029.581874	17.421491	-0.027593	1.559120
112.463691	1026.204633	17.426496	-0.027533	1.556667
112.303672	1022.842748	17.431501	-0.027491	1.554230
112.258930	1019.464623	17.436506	-0.027478	1.551791
111.945035	1016.124356	17.441511	-0.027399	1.549344
111.813001	1012.771702	17.446515	-0.027364	1.546905
111.682327	1009.438820	17.451520	-0.027329	1.544478
111.415845	1006.076022	17.456525	-0.027262	1.542008
111.185493	1002.805507	17.461530	-0.027203	1.539605
110.938585	999.464241	17.466535	-0.027140	1.537146
110.714104	996.203279	17.471539	-0.027083	1.534743
110.440643	992.913594	17.476544	-0.027014	1.532310
110.239074	989.676354	17.481549	-0.026962	1.529920
110.079801	986.418630	17.486554	-0.026921	1.527517
109.664107	983.266328	17.491559	-0.026817	1.525155
109.628350	979.990991	17.496563	-0.026806	1.522747
109.316409	976.882390	17.501568	-0.026727	1.520423
109.006671	973.678747	17.506573	-0.026649	1.518025
108.757981	970.586789	17.511578	-0.026586	1.515714
108.576601	967.399861	17.516583	-0.026539	1.513337
108.338784	964.328076	17.521587	-0.026479	1.511035
107.985016	961.229637	17.526592	-0.026390	1.508695
107.739585	958.191697	17.531597	-0.026328	1.506410
107.739980	955.090411	17.536602	-0.026325	1.504105
107.408889	952.051623	17.541607	-0.026242	1.501801
107.531323	948.943474	17.546611	-0.026270	1.499500
107.269389	945.861012	17.551616	-0.026204	1.497165
107.067712	942.774760	17.556621	-0.026152	1.494831
107.052649	939.668355	17.561626	-0.026146	1.492503
106.941950	936.562375	17.566631	-0.026117	1.490159
106.848590	933.422901	17.571635	-0.026091	1.487788
106.546194	930.392843	17.576640	-0.026015	1.485469
106.410138	927.239135	17.581645	-0.025980	1.483074
106.223453	924.243151	17.586650	-0.025932	1.480789
105.926393	921.131950	17.591655	-0.025857	1.478398
105.716003	918.141379	17.596659	-0.025803	1.476106
105.347893	915.107441	17.601664	-0.025711	1.473757
105.046611	912.154618	17.606669	-0.025635	1.471475
104.906760	909.190988	17.611674	-0.025599	1.469201
104.656986	906.218337	17.616679	-0.025535	1.466903
104.384104	903.303418	17.621683	-0.025467	1.464643
104.202857	900.359580	17.626688	-0.025420	1.462369
103.935259	897.464623	17.631693	-0.025352	1.460117
103.856975	894.516601	17.636698	-0.025331	1.457846
103.820567	891.572978	17.641703	-0.025320	1.455580
103.670169	888.590517	17.646707	-0.025281	1.453266
103.537104	885.675704	17.651712	-0.025246	1.451003
103.218997	882.731364	17.656717	-0.025166	1.448688
103.083857	879.836723	17.661722	-0.025131	1.446433
103.008199	876.861147	17.666727	-0.025110	1.444119
102.839323	873.968446	17.671731	-0.025067	1.441854
102.668570	871.044532	17.676736	-0.025023	1.439560
102.397278	868.132111	17.681741	-0.024955	1.437259
102.225799	865.252243	17.686746	-0.024911	1.434992
102.016311	862.318943	17.691751	-0.024857	1.432675
101.864660	859.482745	17.696755	-0.024818	1.430438
101.520337	856.597382	17.701760	-0.024732	1.428132
101.283165	853.798715	17.706765	-0.024672	1.425906
101.166921	850.928773	17.711770	-0.024641	1.423636
100.749605	848.180931	17.716775	-0.024537	1.421418
100.626447	845.361136	17.721779	-0.024505	1.419180
100.359325	842.587558	17.726784	-0.024437	1.416955
100.124305	839.804447	17.731789	-0.024378	1.414724
100.093968	837.011536	17.736794	-0.024368	1.412508
99.707833	834.275732	17.741799	-0.024272	1.410287
99.595543	831.505152	17.746803	-0.024242	1.408071
99.408655	828.799276	17.751808	-0.024195	1.405893
99.200744	826.017288	17.756813	-0.024142	1.403649
99.096529	823.329691	17.761818	-0.024114	1.401490
98.975382	820.529152	17.766823	-0.024083	1.399235
98.710351	817.836714	17.771827	-0.024016	1.397044
98.496855	815.111315	17.776832	-0.023962	1.394829
98.304698	812.379074	17.781837	-0.023912	1.392609
98.141382	809.704863	17.786842	-0.023871	1.390435
97.857068	806.980087	17.791847	-0.023799	1.388201
97.728209	804.348179	17.796851	-0.023766	1.386059
97.608739	801.611440	17.801856	-0.023734	1.383831
97.413584	798.940236	17.806861	-0.023685	1.381642
97.279392	796.235282	17.811866	-0.023650	1.379430
97.067572	793.546623	17.816871	-0.023596	1.377217
96.999758	790.835323	17.821875	-0.023577	1.375003
96.760960	788.160342	17.826880	-0.023517	1.372790
96.440776	785.522428	17.831885	-0.023437	1.370593
96.347268	782.834679	17.836890	-0.023412	1.368383
95.983800	780.260082	17.841895	-0.023321	1.366224
95.839607	777.600844	17.846899	-0.023284	1.364023
95.765190	775.008109	17.851904	-0.023264	1.361883
95.417474	772.382378	17.856909	-0.023177	1.359674
95.280889	769.800288	17.861914	-0.023141	1.357527
95.014937	767.201544	17.866919	-0.023074	1.355345
94.915855	764.601092	17.871923	-0.023048	1.353182
94.821681	762.020755	17.876928	-0.023023	1.351032
94.573284	759.385627	17.881933	-0.022961	1.348811
94.352411	756.884066	17.886938	-0.022905	1.346702
94.134959	754.272090	17.891943	-0.022850	1.344498
94.046012	751.729327	17.896947	-0.022826	1.342367
93.839270	749.170714	17.901952	-0.022773	1.340201
93.623481	746.592522	17.906957	-0.022719	1.338015
93.567324	744.045542	17.911962	-0.022703	1.335874
93.356736	741.429749	17.916967	-0.022650	1.333650
93.163279	738.926928	17.921971	-0.022601	1.331519
92.858746	736.375764	17.926976	-0.022524	1.329328
92.638697	733.884592	17.931981	-0.022468	1.327197
92.526866	731.346518	17.936986	-0.022439	1.325038
92.189712	728.871801	17.941991	-0.022355	1.322896
92.188208	726.371938	17.946995	-0.022353	1.320779
91.920652	723.851237	17.952000	-0.022285	1.318601
91.705772	721.395165	17.957005	-0.022231	1.316482
91.640486	718.867420	17.962010	-0.022213	1.314322
91.314173	716.434011	17.967015	-0.022132	1.312199
91.261600	713.918008	17.972019	-0.022117	1.310043
91.076686	711.455752	17.977024	-0.022070	1.307910
90.907160	708.976222	17.982029	-0.022026	1.305760
90.767657	706.498297	17.987034	-0.021990	1.303613
90.503539	704.108757	17.992039	-0.021924	1.301520
90.347187	701.616792	17.997043	-0.021884	1.299351
90.001812	699.217923	18.002048	-0.021798	1.297230
89.837783	696.746516	18.007053	-0.021756	1.295071
89.793485	694.320159	18.012058	-0.021743	1.292965
89.587434	691.871260	18.017063	-0.021691	1.290812
89.439180	689.419677	18.022067	-0.021653	1.288661
89.344648	687.004043	18.027072	-0.021628	1.286547
89.210403	684.499747	18.032077	-0.021593	1.284345
89.085088	682.119185	18.037082	-0.021561	1.282249
88.895454	679.635473	18.042087	-0.021513	1.280050
88.862713	677.182768	18.047091	-0.021503	1.277898
88.687081	674.715941	18.052096	-0.021458	1.275708
88.331049	672.288045	18.057101	-0.021369	1.273521
88.151744	669.900259	18.062106	-0.021323	1.271392
87.831652	667.474712	18.067111	-0.021243	1.269205
87.770497	665.112728	18.072115	-0.021227	1.267110
87.471559	662.714721	18.077120	-0.021152	1.264943
87.147479	660.394518	18.082125	-0.021071	1.262837
87.044024	658.033542	18.087130	-0.021044	1.260726
86.770566	655.675174	18.092135	-0.020975	1.258587
86.626553	653.343195	18.097139	-0.020938	1.256488
86.518568	650.959199	18.102144	-0.020910	1.254345
86.275274	648.650460	18.107149	-0.020849	1.252244
86.121209	646.304244	18.112154	-0.020809	1.250120
85.937082	643.973070	18.117159	-0.020762	1.248001
85.870896	641.615958	18.122163	-0.020744	1.245875
85.798132	639.255480	18.127168	-0.020725	1.243740
85.676246	636.919671	18.132173	-0.020693	1.241616
85.563322	634.532999	18.137178	-0.020664	1.239444
85.310463	632.217795	18.142183	-0.020600	1.237310
85.158077	629.834829	18.147187	-0.020561	1.235128
84.905633	627.545549	18.152192	-0.020498	1.233010
84.686486	625.207959	18.157197	-0.020443	1.230850
84.514113	622.908038	18.162202	-0.020399	1.228728
84.286272	620.618368	18.167207	-0.020341	1.226603
84.081087	618.290482	18.172211	-0.020289	1.224443
83.804364	616.067062	18.177216	-0.020220	1.222363
83.638637	613.742083	18.182221	-0.020178	1.220205
83.641070	611.461510	18.187226	-0.020177	1.218111
83.366190	609.159840	18.192231	-0.020108	1.215948
83.347191	606.853166	18.197235	-0.020101	1.213819
83.121339	604.590195	18.202240	-0.020044	1.211692
82.873398	602.274531	18.207245	-0.019982	1.209510
82.958513	600.011019	18.212250	-0.020001	1.207427
82.621690	597.699195	18.217255	-0.019917	1.205225
82.493562	595.459247	18.222259	-0.019884	1.203121
82.412917	593.162112	18.227264	-0.019862	1.200968
82.058552	590.902839	18.232269	-0.019774	1.198800
81.975633	588.644576	18.237274	-0.019752	1.196675
81.693029	586.369676	18.242279	-0.019681	1.194498
81.580962	584.165818	18.247283	-0.019652	1.192411
81.506242	581.862007	18.252288	-0.019632	1.190233
81.263091	579.627932	18.257293	-0.019571	1.188088
81.062152	577.395385	18.262298	-0.019520	1.185948
80.914317	575.150492	18.267303	-0.019482	1.183802
80.836940	572.913969	18.272307	-0.019462	1.181671
80.518961	570.679012	18.277312	-0.019382	1.179497
80.310435	568.475841	18.282317	-0.019330	1.177368
80.197534	566.232771	18.287322	-0.019300	1.175214
79.920498	564.058536	18.292327	-0.019231	1.173093
79.671368	561.862195	18.297331	-0.019169	1.170952
79.516078	559.680145	18.302336	-0.019129	1.168836
79.213189	557.524206	18.307341	-0.019053	1.166717
79.012778	555.355734	18.312346	-0.019003	1.164599
78.718534	553.285823	18.317351	-0.018929	1.162556
78.702766	551.080037	18.322355	-0.018924	1.160426
78.455340	548.970682	18.327360	-0.018862	1.158346
78.377161	546.785384	18.332365	-0.018841	1.156218
78.216150	544.653512	18.337370	-0.018800	1.154123
78.050728	542.516258	18.342375	-0.018758	1.152018
77.815791	540.342951	18.347379	-0.018699	1.149863
77.659724	538.279424	18.352384	-0.018659	1.147824
77.537911	536.093895	18.357389	-0.018627	1.145668
77.323538	534.015260	18.362394	-0.018573	1.143596
77.225809	531.855512	18.367399	-0.018548	1.141462
76.989714	529.728516	18.372403	-0.018489	1.139332
76.881411	527.607378	18.377408	-0.018460	1.137226
76.591092	525.472990	18.382413	-0.018388	1.135070
76.465759	523.408632	18.387418	-0.018356	1.133009
76.373984	521.248762	18.392423	-0.018332	1.130856
76.197776	519.150896	18.397427	-0.018287	1.128745
75.914445	517.063329	18.402432	-0.018216	1.126620
75.775844	514.948970	18.407437	-0.018181	1.124492
75.614931	512.903973	18.412442	-0.018140	1.122424
75.382772	510.789845	18.417447	-0.018081	1.120271
75.280082	508.729732	18.422451	-0.018055	1.118191
75.048405	506.632030	18.427456	-0.017996	1.116045
74.896094	504.560625	18.432461	-0.017958	1.113937
75.103495	502.414555	18.437466	-0.018007	1.111815
74.815908	500.305250	18.442471	-0.017935	1.109636
74.543167	498.257497	18.447475	-0.017867	1.107517
74.435915	496.133861	18.452480	-0.017839	1.105348
74.216618	494.105935	18.457485	-0.017784	1.103251
74.108093	492.004719	18.462490	-0.017755	1.101095
73.764331	489.956673	18.467495	-0.017670	1.098946
73.646752	487.881023	18.472499	-0.017639	1.096807
73.461042	485.827373	18.477504	-0.017593	1.094674
73.245488	483.789490	18.482509	-0.017538	1.092546
73.058379	481.731038	18.487514	-0.017491	1.090399
72.824663	479.745970	18.492519	-0.017432	1.088314
72.734931	477.677170	18.497523	-0.017409	1.086166
72.534033	475.668131	18.502528	-0.017358	1.084055
72.232340	473.672740	18.507533	-0.017283	1.081934
72.213788	471.636800	18.512538	-0.017277	1.079821
72.023321	469.629701	18.517543	-0.017229	1.077701
71.904113	467.575248	18.522547	-0.017198	1.075541
71.773758	465.595458	18.527552	-0.017165	1.073453
71.451460	463.569245	18.532557	-0.017084	1.071275
71.268014	461.600751	18.537562	-0.017038	1.069179
71.073312	459.611858	18.542567	-0.016989	1.067057
70.915938	457.608089	18.547571	-0.016949	1.064921
70.552346	455.700875	18.552576	-0.016858	1.062843
70.371778	453.707366	18.557581	-0.016813	1.060705
70.145034	451.800034	18.562586	-0.016756	1.058645
69.811785	449.868828	18.567591	-0.016673	1.056535
69.667195	447.957333	18.572595	-0.016636	1.054478
69.566386	446.026427	18.577600	-0.016610	1.052406
69.293254	444.103365	18.582605	-0.016542	1.050303
69.372048	442.187827	18.587610	-0.016560	1.048274
69.253217	440.201324	18.592615	-0.016529	1.046126
69.245222	438.260237	18.597619	-0.016526	1.044044
69.084314	436.306435	18.602624	-0.016485	1.041914
68.937912	434.331652	18.607629	-0.016447	1.039759
68.749181	432.405749	18.612634	-0.016400	1.037645
68.652803	430.411624	18.617639	-0.016375	1.035471
68.572609	428.485719	18.622643	-0.016354	1.033370
68.299091	426.523494	18.627648	-0.016285	1.031186
68.029918	424.618896	18.632653	-0.016218	1.029061
67.938750	422.671308	18.637658	-0.016194	1.026920
67.647913	420.765629	18.642663	-0.016122	1.024781
67.429357	418.888676	18.647667	-0.016067	1.022683
67.219254	416.972804	18.652672	-0.016014	1.020540
67.176670	415.067250	18.657677	-0.016002	1.018437
66.943118	413.155080	18.662682	-0.015944	1.016285
66.818475	411.261913	18.667687	-0.015912	1.014170
66.650044	409.344647	18.672691	-0.015869	1.012016
66.549866	407.440633	18.677696	-0.015843	1.009886
66.254381	405.574877	18.682701	-0.015769	1.007753
66.127731	403.670224	18.687706	-0.015737	1.005608
65.862068	401.852961	18.692711	-0.015671	1.003527
65.469656	400.004591	18.697715	-0.015573	1.001380
65.341894	398.180368	18.702720	-0.015541	0.999311
65.131864	396.325430	18.707725	-0.015488	0.997186
65.063210	394.488986	18.712730	-0.015470	0.995106
64.784063	392.682649	18.717735	-0.015400	0.993012
64.762329	390.785587	18.722739	-0.015393	0.990865
64.589541	389.000625	18.727744	-0.015350	0.988809
64.466759	387.121663	18.732749	-0.015318	0.986652
64.328961	385.298827	18.737754	-0.015283	0.984551
64.107481	383.457583	18.742759	-0.015228	0.982407
63.915803	381.625263	18.747763	-0.015179	0.980274
63.819482	379.792448	18.752768	-0.015154	0.978157
63.486951	377.964426	18.757773	-0.015072	0.975990
63.454230	376.167312	18.762778	-0.015062	0.973918
63.162101	374.351023	18.767783	-0.014989	0.971764
62.986800	372.565144	18.772787	-0.014945	0.969666
62.744363	370.790339	18.777792	-0.014885	0.967561
62.648741	368.967732	18.782797	-0.014860	0.965427
62.456253	367.227170	18.787802	-0.014811	0.963364
62.187704	365.432891	18.792807	-0.014744	0.961217
62.158391	363.656872	18.797811	-0.014736	0.959138
61.925761	361.870399	18.802816	-0.014678	0.956998
61.735095	360.102328	18.807821	-0.014630	0.954885
61.596187	358.345507	18.812826	-0.014594	0.952791
61.455913	356.556907	18.817831	-0.014559	0.950654
61.179494	354.841253	18.822835	-0.014490	0.948569
61.046562	353.057724	18.827840	-0.014456	0.946431
61.024288	351.305468	18.832845	-0.014449	0.944350
60.744149	349.564299	18.837850	-0.014379	0.942220
60.508934	347.829522	18.842855	-0.014320	0.940102
60.339177	346.090637	18.847859	-0.014278	0.937990
60.343170	344.306446	18.852864	-0.014277	0.935857
60.030204	342.601227	18.857869	-0.014199	0.933743
59.930698	340.833582	18.862874	-0.014174	0.931597
59.676781	339.148434	18.867879	-0.014110	0.929511
59.554353	337.395652	18.872883	-0.014079	0.927368
59.488475	335.666987	18.877888	-0.014062	0.925263
59.117076	333.983905	18.882893	-0.013969	0.923138
58.944401	332.273715	18.887898	-0.013926	0.921021
58.786045	330.586123	18.892903	-0.013886	0.918929
58.678421	328.847063	18.897907	-0.013858	0.916782
58.479854	327.187347	18.902912	-0.013808	0.914705
58.279732	325.473622	18.907917	-0.013758	0.912558
58.108937	323.799144	18.912922	-0.013715	0.910460
57.806877	322.149026	18.917927	-0.013640	0.908357
57.629054	320.458263	18.922931	-0.013595	0.906228
57.414101	318.843879	18.927936	-0.013541	0.904180
57.197499	317.150939	18.932941	-0.013487	0.902029
57.075810	315.514853	18.937946	-0.013456	0.899966
56.789051	313.875188	18.942951	-0.013385	0.897855
56.613585	312.236606	18.947955	-0.013341	0.895767
56.460248	310.616776	18.952960	-0.013302	0.893702
56.277807	308.963613	18.957965	-0.013256	0.891584
56.131253	307.374912	18.962970	-0.013219	0.889550
55.993790	305.717063	18.967975	-0.013184	0.887427
55.787289	304.117628	18.972979	-0.013132	0.885356
55.694946	302.504950	18.977984	-0.013109	0.883290
55.592543	300.839666	18.982989	-0.013082	0.881151
55.449544	299.234338	18.987994	-0.013046	0.879073
55.135781	297.621604	18.992999	-0.012968	0.876939
55.103940	296.007288	18.998003	-0.012959	0.874866
54.866503	294.401841	19.003008	-0.012900	0.872750
54.670610	292.794190	19.008013	-0.012851	0.870636
54.575841	291.196240	19.013018	-0.012826	0.868554
54.449274	289.560526	19.018023	-0.012794	0.866410
54.206463	288.015659	19.023027	-0.012733	0.864350
54.161164	286.376768	19.028032	-0.012721	0.862212
53.914499	284.790656	19.033037	-0.012659	0.860087
53.811872	283.177809	19.038042	-0.012633	0.857958
53.690050	281.567681	19.043047	-0.012602	0.855822
53.466759	279.993981	19.048051	-0.012546	0.853704
53.351333	278.378924	19.053056	-0.012517	0.851552
53.173628	276.817059	19.058061	-0.012472	0.849450
52.924640	275.230672	19.063066	-0.012410	0.847293
52.657767	273.701807	19.068071	-0.012344	0.845202
52.337848	272.167598	19.073075	-0.012264	0.843085
52.056460	270.668056	19.078080	-0.012194	0.841018
51.797426	269.157912	19.083085	-0.012130	0.838938
51.694639	267.608684	19.088090	-0.012103	0.836840
51.500262	266.135774	19.093095	-0.012055	0.834816
51.280244	264.615695	19.098099	-0.012000	0.832717
51.248746	263.091665	19.103104	-0.011991	0.830655
51.149536	261.561065	19.108109	-0.011965	0.828562
51.059822	260.023842	19.113114	-0.011942	0.826457
50.762785	258.551068	19.118119	-0.011869	0.824381
50.581926	257.020204	19.123123	-0.011823	0.822251
50.518546	255.519946	19.128128	-0.011806	0.820187
50.324805	253.989546	19.133133	-0.011758	0.818043
50.257176	252.473252	19.138138	-0.011740	0.815945
50.082791	250.958619	19.143143	-0.011696	0.813816
49.747067	249.473562	19.148147	-0.011613	0.811681
49.592751	248.021006	19.153152	-0.011574	0.809632
49.394737	246.512423	19.158157	-0.011525	0.807489
49.348739	245.041407	19.163162	-0.011512	0.805433
49.191851	243.532825	19.168167	-0.011473	0.803289
48.879689	242.083959	19.173171	-0.011395	0.801182
48.730174	240.629834	19.178176	-0.011358	0.799106
48.615107	239.118268	19.183181	-0.011328	0.796952
48.462843	237.685314	19.188186	-0.011290	0.794894
48.236213	236.212213	19.193191	-0.011233	0.792753
48.025939	234.777837	19.198195	-0.011181	0.790666
47.875786	233.328670	19.203200	-0.011143	0.788568
47.703432	231.873630	19.208205	-0.011100	0.786451
47.726147	230.412174	19.213210	-0.011104	0.784371
47.451531	228.950700	19.218215	-0.011036	0.782205
47.314643	227.518706	19.223219	-0.011001	0.780113
47.230147	226.042550	19.228224	-0.010979	0.777966
46.932415	224.625450	19.233229	-0.010906	0.775840
46.746921	223.193587	19.238234	-0.010859	0.773718
46.534198	221.768188	19.243239	-0.010806	0.771591
46.339359	220.361771	19.248243	-0.010757	0.769492
46.066957	218.962170	19.253248	-0.010690	0.767374
45.758126	217.620884	19.258253	-0.010613	0.765327
45.538455	216.233529	19.263258	-0.010558	0.763231
45.483443	214.836525	19.268263	-0.010544	0.761161
45.319380	213.446579	19.273267	-0.010502	0.759065
45.244862	212.038431	19.278272	-0.010483	0.756962
45.070988	210.670841	19.283277	-0.010440	0.754884
44.874447	209.280814	19.288282	-0.010390	0.752762
44.841329	207.893320	19.293287	-0.010381	0.750683
44.756101	206.476023	19.298291	-0.010359	0.748540
44.749192	205.056037	19.303296	-0.010356	0.746408
44.630803	203.634842	19.308301	-0.010326	0.744237
44.474270	202.223938	19.313306	-0.010287	0.742063
44.358854	200.819889	19.318311	-0.010258	0.739906
44.210574	199.390305	19.323315	-0.010220	0.737694
43.882318	198.054593	19.328320	-0.010139	0.735566
43.570946	196.678419	19.333325	-0.010062	0.733375
43.291246	195.356470	19.338330	-0.009992	0.731270
43.235444	193.977032	19.343335	-0.009978	0.729136
42.979419	192.629208	19.348339	-0.009914	0.726985
42.661025	191.350469	19.353344	-0.009835	0.724917
42.421214	190.007690	19.358349	-0.009775	0.722766
42.421675	188.673041	19.363354	-0.009775	0.720693
42.349647	187.303874	19.368359	-0.009756	0.718539
42.184658	185.968968	19.373363	-0.009714	0.716404
42.126913	184.616573	19.378368	-0.009699	0.714267
41.982446	183.259331	19.383373	-0.009663	0.712090
42.100149	181.878700	19.388378	-0.009690	0.709949
41.805199	180.528347	19.393383	-0.009617	0.707724
41.682761	179.203753	19.398387	-0.009586	0.705585
41.564305	177.837285	19.403392	-0.009556	0.703375
41.458801	176.480911	19.408397	-0.009529	0.701177
41.390907	175.105848	19.413402	-0.009512	0.698954
41.151311	173.772639	19.418407	-0.009452	0.696739
41.002152	172.428997	19.423411	-0.009415	0.694527
40.716596	171.110905	19.428416	-0.009344	0.692308
40.500342	169.806024	19.433421	-0.009290	0.690124
40.309827	168.484203	19.438426	-0.009242	0.687914
40.180261	167.195668	19.443431	-0.009210	0.685770
39.851853	165.899934	19.448435	-0.009128	0.683546
39.724632	164.615300	19.453440	-0.009096	0.681395
39.561169	163.303440	19.458445	-0.009055	0.679181
39.409382	162.016632	19.463450	-0.009017	0.677006
39.293112	160.727042	19.468455	-0.008988	0.674830
39.112350	159.426018	19.473459	-0.008942	0.672607
39.041499	158.150914	19.478464	-0.008924	0.670455
39.008919	156.803476	19.483469	-0.008915	0.668188
38.681587	155.565827	19.488474	-0.008834	0.666002
38.438117	154.290271	19.493479	-0.008773	0.663772
38.368547	152.999166	19.498483	-0.008755	0.661565
38.327904	151.694719	19.503488	-0.008744	0.659337
37.972537	150.449747	19.508493	-0.008657	0.657101
37.907789	149.175846	19.513498	-0.008640	0.654902
37.628079	147.922834	19.518503	-0.008570	0.652661
37.431896	146.689686	19.523507	-0.008521	0.650474
37.259410	145.428852	19.528512	-0.008478	0.648240
36.984391	144.233758	19.533517	-0.008410	0.646078
36.948509	142.964815	19.538522	-0.008400	0.643860
36.806878	141.726011	19.543527	-0.008365	0.641651
36.647806	140.479964	19.548531	-0.008325	0.639416
36.492561	139.256765	19.553536	-0.008286	0.637215
36.432894	138.002615	19.558541	-0.008270	0.634984
36.202214	136.776347	19.563546	-0.008213	0.632736
36.225481	135.521317	19.568551	-0.008217	0.630516
35.907113	134.300235	19.573555	-0.008139	0.628232
35.930325	133.077851	19.578560	-0.008143	0.626054
35.688352	131.842119	19.583565	-0.008083	0.623753
35.381836	130.662292	19.588570	-0.008007	0.621522
35.204069	129.447094	19.593575	-0.007963	0.619264
34.930060	128.269378	19.598579	-0.007895	0.617032
34.698694	127.104047	19.603584	-0.007838	0.614829
34.452265	125.927262	19.608589	-0.007776	0.612592
34.310935	124.767913	19.613594	-0.007741	0.610416
34.245933	123.557679	19.618599	-0.007724	0.608166
34.129680	122.400522	19.623603	-0.007695	0.605987
33.957438	121.219167	19.628608	-0.007652	0.603735
33.859431	120.042270	19.633613	-0.007627	0.601510
33.802768	118.838734	19.638618	-0.007612	0.599242
33.691265	117.657474	19.643623	-0.007584	0.596987
33.573194	116.468881	19.648627	-0.007554	0.594707
33.543933	115.273962	19.653632	-0.007546	0.592439
33.284196	114.114470	19.658637	-0.007481	0.590145
33.242639	112.917027	19.663642	-0.007470	0.587850
33.023874	111.768825	19.668647	-0.007416	0.585574
32.722271	110.609806	19.673651	-0.007341	0.583239
32.629642	109.465866	19.678656	-0.007318	0.581000
32.519090	108.275038	19.683661	-0.007290	0.578656
32.398409	107.130291	19.688666	-0.007259	0.576388
32.262201	105.962991	19.693671	-0.007225	0.574061
32.151095	104.803836	19.698675	-0.007197	0.571750
31.927951	103.668095	19.703680	-0.007141	0.569433
31.872669	102.503877	19.708685	-0.007127	0.567114
31.643061	101.381072	19.713690	-0.007070	0.564802
31.523501	100.232747	19.718695	-0.007040	0.562471
31.215854	99.126941	19.723699	-0.006964	0.560142
31.110821	97.995083	19.728704	-0.006937	0.557831
30.870239	96.892542	19.733709	-0.006877	0.555516
30.723669	95.770635	19.738714	-0.006841	0.553189
30.501457	94.692267	19.743719	-0.006785	0.550911
30.227667	93.597311	19.748723	-0.006718	0.548569
30.125628	92.521804	19.753728	-0.006692	0.546325
29.790308	91.451058	19.758733	-0.006609	0.543989
29.752792	90.361569	19.763738	-0.006599	0.541723
29.505811	89.289904	19.768743	-0.006538	0.539400
29.382728	88.217789	19.773747	-0.006507	0.537117
29.178682	87.152453	19.778752	-0.006456	0.534805
28.824124	86.136816	19.783757	-0.006368	0.532526
28.768551	85.072845	19.788762	-0.006354	0.530257
28.626375	84.016603	19.793767	-0.006318	0.527960
28.443777	82.984841	19.798771	-0.006273	0.525688
28.378130	81.917692	19.803776	-0.006256	0.523379
28.311229	80.859516	19.808781	-0.006239	0.521079
28.176555	79.797567	19.813786	-0.006205	0.518731
28.104499	78.755453	19.818791	-0.006186	0.516443
27.808231	77.721680	19.823795	-0.006113	0.514067
27.836737	76.672895	19.828800	-0.006119	0.511786
27.646202	75.620530	19.833805	-0.006072	0.509393
27.467967	74.608811	19.838810	-0.006027	0.507084
27.165858	73.603761	19.843815	-0.005953	0.504726
26.962510	72.597166	19.848819	-0.005902	0.502396
26.762167	71.592909	19.853824	-0.005852	0.500061
26.511900	70.606027	19.858829	-0.005790	0.497733
26.415484	69.599083	19.863834	-0.005766	0.495417
26.332799	68.589013	19.868839	-0.005745	0.493088
26.191119	67.588059	19.873843	-0.005710	0.490743
26.222342	66.556948	19.878848	-0.005716	0.488394
25.991609	65.579310	19.883853	-0.005659	0.486040
25.894055	64.568228	19.888858	-0.005634	0.483657
25.910035	63.551525	19.893863	-0.005637	0.481301
25.701252	62.549009	19.898867	-0.005586	0.478864
25.658852	61.555910	19.903872	-0.005574	0.476513
25.593067	60.526019	19.908877	-0.005557	0.474052
25.471551	59.544820	19.913882	-0.005527	0.471668
25.273029	58.549228	19.918887	-0.005478	0.469202
25.022722	57.603760	19.923891	-0.005416	0.466819
24.957670	56.599367	19.928896	-0.005399	0.464369
24.785647	55.632088	19.933901	-0.005356	0.461945
24.544224	54.671611	19.938906	-0.005296	0.459492
24.241297	53.752377	19.943911	-0.005221	0.457098
24.106781	52.783542	19.948915	-0.005188	0.454650
23.840596	51.880657	19.953920	-0.005122	0.452288
23.561578	50.957742	19.958925	-0.005053	0.449858
23.356434	50.056431	19.963930	-0.005002	0.447504
23.083973	49.159249	19.968935	-0.004935	0.445116
22.894467	48.263968	19.973939	-0.004888	0.442760
22.816455	47.340343	19.978944	-0.004868	0.440375
22.719033	46.427360	19.983949	-0.004843	0.437995
22.353571	45.570352	19.988954	-0.004753	0.435611
22.119118	44.704382	19.993959	-0.004695	0.433257
22.155516	43.784585	19.998963	-0.004703	0.430887
21.942194	42.914436	20.003968	-0.004650	0.428507
21.632225	42.070578	20.008973	-0.004574	0.426133
21.510709	41.194900	20.013978	-0.004544	0.423758
21.342757	40.335486	20.018983	-0.004502	0.421390
21.150682	39.474916	20.023987	-0.004454	0.418992
20.956021	38.643046	20.028992	-0.004406	0.416657
20.750783	37.789706	20.033997	-0.004355	0.414244
20.534881	36.980102	20.039002	-0.004301	0.411931
20.345879	36.140943	20.044007	-0.004255	0.409538
20.170598	35.332762	20.049011	-0.004211	0.407224
20.083537	34.491553	20.054016	-0.004189	0.404852
19.829620	33.692634	20.059021	-0.004126	0.402494
19.839815	32.837938	20.064026	-0.004128	0.400110
19.882800	31.988252	20.069031	-0.004138	0.397745
19.610360	31.180920	20.074035	-0.004071	0.395310
19.627577	30.344554	20.079040	-0.004074	0.392938
19.566920	29.499211	20.084045	-0.004058	0.390483
19.509985	28.675582	20.089050	-0.004044	0.388078
