Sun Feb 26 13:21:31 2017

Number of Points = 3615
Depth (nm)	Load (µN)	Time (s)	Depth (V)	Load (V)
0.531677	-0.028122	0.000000	-0.000040	0.279541

0.511537	-0.025409	0.005005	-0.000034	0.279535
0.557470	-0.034804	0.010010	-0.000045	0.279533
0.719005	-0.064209	0.015014	-0.000085	0.279541
0.707321	-0.078974	0.020019	-0.000082	0.279472
0.488561	-0.096347	0.025024	-0.000028	0.279229
0.419721	-0.082610	0.030029	-0.000011	0.279229
0.619096	-0.134669	0.035034	-0.000059	0.279177
0.425829	-0.138714	0.040038	-0.000012	0.279007
0.243891	-0.104819	0.045043	0.000033	0.278999
0.247374	-0.154154	0.050048	0.000032	0.278803
0.136959	-0.165033	0.055053	0.000059	0.278671
0.065032	-0.160713	0.060058	0.000077	0.278631
-0.061905	-0.202950	0.065062	0.000108	0.278359
-0.016736	-0.215711	0.070067	0.000097	0.278343
0.016364	-0.281150	0.075072	0.000090	0.278105
-0.038226	-0.286987	0.080077	0.000103	0.278037
0.041205	-0.370998	0.085082	0.000084	0.277760
0.300784	-0.455964	0.090086	0.000021	0.277622
0.261819	-0.512706	0.095091	0.000031	0.277361
0.275409	-0.580979	0.100096	0.000028	0.277095
0.342200	-0.666097	0.105101	0.000012	0.276802
0.288835	-0.726204	0.110106	0.000025	0.276515
0.294744	-0.799101	0.115110	0.000024	0.276223
0.172271	-0.856430	0.120115	0.000054	0.275892
0.052852	-0.903984	0.125120	0.000083	0.275602
-0.076010	-0.951909	0.130125	0.000115	0.275303
-0.230767	-0.997315	0.135130	0.000153	0.274993
-0.320444	-1.047169	0.140134	0.000175	0.274717
-0.378733	-1.109713	0.145139	0.000190	0.274413
-0.351339	-1.177290	0.150144	0.000183	0.274158
-0.326996	-1.252185	0.155149	0.000178	0.273870
-0.440394	-1.315325	0.160154	0.000205	0.273519
-0.351586	-1.414016	0.165158	0.000184	0.273185
-0.443914	-1.482447	0.170163	0.000207	0.272829
-0.419451	-1.576277	0.175168	0.000201	0.272461
-0.318643	-1.696888	0.180173	0.000177	0.272045
-0.309871	-1.793278	0.185178	0.000175	0.271654
-0.417930	-1.865129	0.190182	0.000202	0.271268
-0.606604	-1.944300	0.195187	0.000248	0.270786
-0.822441	-1.990933	0.200192	0.000301	0.270416
-0.956428	-2.053192	0.205197	0.000334	0.270047
-1.386729	-2.058086	0.210202	0.000439	0.269675
-1.547912	-2.103247	0.215206	0.000479	0.269354
-1.735771	-2.130795	0.220211	0.000525	0.269084
-1.851005	-2.184390	0.225216	0.000553	0.268766
-2.323364	-2.170066	0.230221	0.000669	0.268437
-2.365255	-2.224648	0.235226	0.000680	0.268173
-2.405076	-2.276916	0.240230	0.000690	0.267921
-2.901000	-2.244293	0.245235	0.000811	0.267649
-3.005154	-2.270909	0.250240	0.000837	0.267450
-3.235785	-2.296209	0.255245	0.000893	0.267153
-3.920980	-2.191922	0.260250	0.001061	0.267025
-5.127668	-1.998060	0.265254	0.001356	0.266842
-5.314646	-1.963475	0.270259	0.001401	0.266832
-5.349157	-1.897882	0.275264	0.001410	0.267079
-5.592857	-1.831464	0.280269	0.001470	0.267156
-5.591376	-1.833167	0.285274	0.001470	0.267150
-6.111429	-1.728647	0.290278	0.001597	0.267159
-6.668586	-1.622156	0.295283	0.001733	0.267145
-6.337004	-1.623976	0.300288	0.001652	0.267411
-5.680587	-1.739755	0.305293	0.001492	0.267465
-5.239490	-1.855193	0.310298	0.001385	0.267344
-5.931913	-1.762372	0.315302	0.001554	0.267162
-5.498845	-1.850799	0.320307	0.001448	0.267147
-4.782628	-1.988724	0.325312	0.001274	0.267158
-4.519584	-2.111975	0.330317	0.001210	0.266857
-3.972476	-2.274031	0.335322	0.001076	0.266626
-3.845066	-2.380121	0.340326	0.001046	0.266284
-4.156509	-2.407012	0.345331	0.001122	0.265912
-4.672476	-2.383628	0.350336	0.001248	0.265582
-5.404096	-2.298465	0.355341	0.001427	0.265333
-5.754399	-2.244574	0.360346	0.001513	0.265269
-5.843453	-2.299818	0.365350	0.001535	0.264960
-6.424475	-2.191233	0.370355	0.001677	0.264936
-6.749095	-2.132148	0.375360	0.001756	0.264915
-7.323481	-2.083748	0.380365	0.001897	0.264641
-7.875505	-1.929513	0.385370	0.002032	0.264835
-8.232510	-1.832193	0.390374	0.002119	0.264949
-8.638501	-1.754616	0.395379	0.002219	0.264939
-8.520928	-1.716438	0.400384	0.002190	0.265198
-8.430656	-1.715231	0.405389	0.002168	0.265277
-8.804866	-1.643871	0.410394	0.002260	0.265267
-8.962828	-1.556218	0.415398	0.002298	0.265506
-8.276851	-1.677887	0.420403	0.002131	0.265561
-7.431720	-1.841497	0.425408	0.001925	0.265571
-7.362597	-1.909821	0.430413	0.001908	0.265338
-7.244979	-1.950827	0.435418	0.001880	0.265262
-6.361642	-2.178412	0.440422	0.001664	0.265033
-6.342220	-2.254255	0.445427	0.001660	0.264727
-6.696392	-2.255991	0.450432	0.001747	0.264423
-6.977224	-2.250068	0.455437	0.001815	0.264213
-6.743195	-2.358555	0.460442	0.001759	0.263947
-7.102703	-2.347705	0.465446	0.001847	0.263692
-7.902405	-2.254485	0.470451	0.002042	0.263419
-8.162131	-2.226235	0.475456	0.002106	0.263321
-8.848069	-2.142025	0.480461	0.002274	0.263104
-9.143092	-2.085805	0.485466	0.002346	0.263096
-9.498195	-2.012926	0.490470	0.002433	0.263109
-9.896336	-1.937058	0.495475	0.002530	0.263098
-9.981052	-1.917818	0.500480	0.002551	0.263108
-9.982108	-1.917842	0.505485	0.002552	0.263106
-10.211764	-1.874731	0.510490	0.002608	0.263097
-10.334972	-1.840573	0.515494	0.002638	0.263139
-10.338060	-1.774632	0.520499	0.002639	0.263417
-10.293707	-1.780843	0.525504	0.002628	0.263427
-10.204566	-1.798274	0.530509	0.002607	0.263426
-10.169121	-1.808947	0.535514	0.002598	0.263410
-10.135263	-1.885421	0.540518	0.002590	0.263111
-10.029286	-1.908991	0.545523	0.002565	0.263099
-9.865657	-1.939214	0.550528	0.002525	0.263106
-9.496839	-2.052242	0.555533	0.002435	0.262933
-9.409816	-2.099922	0.560538	0.002414	0.262801
-9.356817	-2.184720	0.565542	0.002401	0.262483
-9.784296	-2.145255	0.570547	0.002506	0.262291
-10.407736	-2.053420	0.575552	0.002658	0.262159
-10.174231	-2.121432	0.580557	0.002602	0.262064
-10.382486	-2.132659	0.585562	0.002653	0.261840
-10.703546	-2.066504	0.590566	0.002731	0.261852
-11.561561	-1.968365	0.595571	0.002941	0.261549
-11.638712	-1.952794	0.600576	0.002960	0.261550
-11.968899	-1.888007	0.605581	0.003041	0.261549
-11.954234	-1.892451	0.610586	0.003038	0.261541
-11.693164	-1.940029	0.615590	0.002974	0.261557
-11.683398	-1.945386	0.620595	0.002972	0.261541
-11.347728	-2.010195	0.625600	0.002890	0.261545
-11.411910	-2.020882	0.630605	0.002906	0.261445
-11.839574	-1.992584	0.635610	0.003011	0.261204
-11.592636	-2.037907	0.640614	0.002951	0.261217
-11.600505	-2.072261	0.645619	0.002953	0.261062
-11.789616	-2.072548	0.650624	0.002999	0.260900
-11.700123	-2.109851	0.655629	0.002978	0.260815
-12.519142	-2.004313	0.660634	0.003178	0.260575
-12.979423	-1.911300	0.665638	0.003290	0.260586
-13.486554	-1.812492	0.670643	0.003414	0.260581
-13.523893	-1.804376	0.675648	0.003424	0.260584
-13.879230	-1.698029	0.680653	0.003511	0.260740
-13.244358	-1.785585	0.685658	0.003356	0.260900
-13.088098	-1.844435	0.690662	0.003318	0.260778
-13.262372	-1.856544	0.695667	0.003361	0.260578
-12.918484	-1.923065	0.700672	0.003277	0.260582
-13.026276	-1.900864	0.705677	0.003304	0.260585
-12.888473	-1.997936	0.710682	0.003270	0.260283
-12.313308	-2.122351	0.715686	0.003130	0.260233
-12.528814	-2.145285	0.720691	0.003183	0.259950
-12.372397	-2.234374	0.725696	0.003145	0.259698
-12.821587	-2.188631	0.730701	0.003255	0.259513
-13.403946	-2.116162	0.735706	0.003397	0.259330
-13.359128	-2.156173	0.740710	0.003387	0.259195
-14.185073	-2.015247	0.745715	0.003588	0.259101
-14.116388	-2.026150	0.750720	0.003572	0.259112
-14.149213	-2.046677	0.755725	0.003580	0.258994
-14.604432	-2.009959	0.760730	0.003691	0.258764
-15.022835	-1.924927	0.765734	0.003794	0.258776
-15.525215	-1.828587	0.770739	0.003917	0.258764
-15.280070	-1.875111	0.775744	0.003857	0.258771
-15.609100	-1.809958	0.780749	0.003938	0.258772
-15.851811	-1.699852	0.785754	0.003997	0.259042
-15.453482	-1.761343	0.790758	0.003900	0.259114
-15.381799	-1.778284	0.795763	0.003883	0.259101
-15.335550	-1.860626	0.800768	0.003872	0.258783
-15.290386	-1.871748	0.805773	0.003861	0.258772
-15.072719	-1.917537	0.810778	0.003808	0.258759
-14.621440	-2.043081	0.815782	0.003698	0.258598
-14.719541	-2.058749	0.820787	0.003722	0.258446
-14.519667	-2.169490	0.825792	0.003674	0.258134
-14.735630	-2.163846	0.830797	0.003727	0.257973
-15.227708	-2.100120	0.835802	0.003847	0.257829
-15.448280	-2.126985	0.840806	0.003901	0.257522
-15.847612	-2.053404	0.845811	0.003999	0.257500
-16.233451	-1.990317	0.850816	0.004093	0.257444
-16.478574	-1.998288	0.855821	0.004153	0.257198
-16.169532	-2.061531	0.860826	0.004078	0.257186
-16.362219	-2.020524	0.865830	0.004125	0.257199
-16.633156	-2.007665	0.870835	0.004192	0.257022
-16.867927	-1.994268	0.875840	0.004249	0.256878
-17.155066	-1.937228	0.880845	0.004320	0.256880
-17.338529	-1.903188	0.885850	0.004365	0.256870
-17.254176	-1.916689	0.890854	0.004344	0.256883
-17.414359	-1.887119	0.895859	0.004384	0.256874
-17.290570	-1.911666	0.900864	0.004354	0.256872
-17.449409	-1.886453	0.905869	0.004393	0.256845
-17.909271	-1.859642	0.910874	0.004505	0.256566
-18.028284	-1.832215	0.915878	0.004534	0.256583
-18.094411	-1.821234	0.920883	0.004551	0.256574
-17.588688	-1.919720	0.925888	0.004427	0.256577
-17.889364	-1.860131	0.930893	0.004501	0.256579
-18.186981	-1.803710	0.935898	0.004574	0.256569
-17.915571	-1.854642	0.940902	0.004508	0.256579
-18.127070	-1.890333	0.945907	0.004560	0.256239
-18.111405	-1.892792	0.950912	0.004556	0.256241
-17.837139	-1.945308	0.955917	0.004489	0.256247
-17.204815	-2.137059	0.960922	0.004335	0.255950
-17.143657	-2.194356	0.965926	0.004321	0.255751
-17.961547	-2.072804	0.970931	0.004520	0.255578
-17.663907	-2.192145	0.975936	0.004448	0.255310
-17.601535	-2.244557	0.980941	0.004433	0.255132
-18.501633	-2.103325	0.985946	0.004653	0.254974
-18.616269	-2.139304	0.990950	0.004681	0.254716
-19.242645	-2.025175	0.995955	0.004834	0.254675
-20.255165	-1.825387	1.000960	0.005082	0.254678

-20.714965	-1.667836	1.010957	0.005195	0.254972
-20.612907	-1.612831	1.020954	0.005170	0.255301
-19.373764	-1.820191	1.030950	0.004868	0.255459
-18.849228	-1.955202	1.040947	0.004740	0.255317
-18.430564	-2.071807	1.050944	0.004638	0.255165
-18.425801	-2.118101	1.060941	0.004638	0.254964
-18.780795	-2.112556	1.070938	0.004725	0.254679
-19.247389	-2.020260	1.080934	0.004839	0.254680
-19.640967	-1.941681	1.090931	0.004936	0.254684
-19.710310	-1.868938	1.100928	0.004953	0.254943
-19.751860	-1.843195	1.110925	0.004964	0.255019
-19.531615	-1.818835	1.120922	0.004910	0.255316
-19.418811	-1.841020	1.130918	0.004883	0.255314
-19.326261	-1.801897	1.140915	0.004861	0.255565
-18.464416	-1.960977	1.150912	0.004651	0.255609
-18.114567	-2.096156	1.160909	0.004566	0.255315
-17.741029	-2.211396	1.170906	0.004475	0.255130
-18.037959	-2.191495	1.180902	0.004548	0.254959
-18.871072	-2.077359	1.190899	0.004752	0.254739
-19.654508	-1.867470	1.200896	0.004943	0.254983
-20.136452	-1.682499	1.210893	0.005061	0.255379
-19.993200	-1.618127	1.220890	0.005027	0.255784
-19.008260	-1.730283	1.230886	0.004787	0.256140
-18.309396	-1.843738	1.240883	0.004616	0.256244
-17.942280	-1.969342	1.250880	0.004527	0.256008
-17.364220	-2.101097	1.260877	0.004387	0.255927
-16.956785	-2.260480	1.270874	0.004287	0.255577
-17.714597	-2.171584	1.280870	0.004473	0.255312
-18.326171	-2.050597	1.290867	0.004623	0.255314
-18.622015	-1.991901	1.300864	0.004695	0.255315
-18.901317	-1.870475	1.310861	0.004764	0.255605
-18.990402	-1.800270	1.320858	0.004786	0.255835
-18.585438	-1.833760	1.330854	0.004688	0.256036
-18.496611	-1.803327	1.340851	0.004666	0.256245
-18.542009	-1.752555	1.350848	0.004678	0.256427
-17.610316	-1.901156	1.360845	0.004451	0.256577
-17.460849	-1.981114	1.370842	0.004415	0.256354
-17.628032	-1.974060	1.380838	0.004456	0.256239
-17.224384	-2.052142	1.390835	0.004358	0.256243
-16.722323	-2.182717	1.400832	0.004236	0.256102
-17.621606	-2.045280	1.410829	0.004456	0.255928
-17.906019	-1.971762	1.420826	0.004525	0.256004
-18.077904	-1.884052	1.430822	0.004568	0.256239
-18.295067	-1.804595	1.440819	0.004621	0.256398
-17.884242	-1.843683	1.450816	0.004521	0.256579
-17.538810	-1.893375	1.460813	0.004437	0.256658
-17.346272	-1.881085	1.470810	0.004391	0.256875
-16.869783	-1.989752	1.480806	0.004275	0.256808
-17.132324	-1.990019	1.490803	0.004339	0.256580
-17.189918	-1.978588	1.500800	0.004354	0.256579
-17.167942	-1.942961	1.510797	0.004349	0.256752
-17.108185	-1.926852	1.520794	0.004335	0.256873
-17.144199	-1.918872	1.530790	0.004344	0.256875
-16.700771	-2.004627	1.540787	0.004236	0.256880
-16.399731	-2.108498	1.550784	0.004163	0.256683
-16.236045	-2.165182	1.560781	0.004123	0.256574
-16.810270	-2.052219	1.570778	0.004264	0.256573
-17.297535	-1.956591	1.580774	0.004383	0.256571
-18.190278	-1.717540	1.590771	0.004602	0.256848
-17.913654	-1.673474	1.600768	0.004534	0.257276
-17.415881	-1.709241	1.610765	0.004413	0.257546
-16.555786	-1.812800	1.620762	0.004204	0.257830
-15.703431	-2.034031	1.630758	0.003996	0.257594
-15.594307	-2.093615	1.640755	0.003970	0.257427
-15.966813	-2.074336	1.650752	0.004061	0.257190
-16.237180	-2.020476	1.660749	0.004128	0.257191
-15.946994	-2.078145	1.670746	0.004057	0.257187
-16.272034	-2.013801	1.680742	0.004137	0.257188
-16.770696	-1.914854	1.690739	0.004259	0.257190
-16.575988	-1.921706	1.700736	0.004212	0.257326
-16.265486	-1.941510	1.710733	0.004137	0.257504
-16.606212	-1.875414	1.720730	0.004220	0.257499
-16.729732	-1.787637	1.730726	0.004251	0.257774
-17.095921	-1.666300	1.740723	0.004340	0.257988
-16.427317	-1.733568	1.750720	0.004178	0.258266
-15.235607	-1.953044	1.760717	0.003887	0.258328
-14.421819	-2.185058	1.770714	0.003689	0.258013
-14.413824	-2.268482	1.780710	0.003687	0.257656
-14.746567	-2.280384	1.790707	0.003769	0.257317
-16.301716	-1.990835	1.800704	0.004149	0.257245
-17.043759	-1.756600	1.810701	0.004331	0.257629
-16.792201	-1.724301	1.820698	0.004270	0.257984
-16.150520	-1.769190	1.830694	0.004113	0.258336
-15.046319	-1.975317	1.840691	0.003844	0.258382
-15.394379	-1.929941	1.850688	0.003929	0.258280
-15.360302	-1.951975	1.860685	0.003922	0.258212
-15.863131	-1.798708	1.870682	0.004045	0.258447
-15.256080	-1.917293	1.880678	0.003897	0.258449
-14.988106	-1.969033	1.890675	0.003832	0.258451
-14.240375	-2.143363	1.900672	0.003650	0.258331
-15.216866	-1.996352	1.910669	0.003889	0.258134
-15.316128	-1.926475	1.920666	0.003913	0.258352
-15.309352	-1.904297	1.930662	0.003912	0.258453
-14.953024	-1.973832	1.940659	0.003825	0.258453
-15.211170	-1.923238	1.950656	0.003889	0.258451
-15.032314	-1.948533	1.960653	0.003846	0.258493
-14.868078	-1.917681	1.970650	0.003806	0.258765
-14.946218	-1.901670	1.980646	0.003825	0.258767
-15.104385	-1.868617	1.990643	0.003864	0.258774
-14.862647	-1.916780	2.000640	0.003806	0.258770
-14.927192	-1.826375	2.010637	0.003822	0.259105
-14.449761	-1.920149	2.020634	0.003706	0.259104
-13.907950	-2.046809	2.030630	0.003574	0.259015
-14.307152	-2.024435	2.040627	0.003672	0.258770
-14.176563	-2.050276	2.050624	0.003640	0.258768
-13.996477	-2.084478	2.060621	0.003597	0.258772
-14.190064	-2.047057	2.070618	0.003644	0.258768
-14.819426	-1.922424	2.080614	0.003798	0.258770
-14.915008	-1.840690	2.090611	0.003822	0.259042
-14.875486	-1.817983	2.100608	0.003813	0.259173
-14.338609	-1.885632	2.110605	0.003682	0.259335
-14.520162	-1.850610	2.120602	0.003727	0.259331
-14.020914	-1.912292	2.130598	0.003605	0.259487
-14.040898	-1.876418	2.140595	0.003611	0.259624
-13.670810	-1.995676	2.150592	0.003521	0.259421
-13.562585	-2.035622	2.160589	0.003495	0.259339
-13.482350	-2.052248	2.170586	0.003476	0.259334
-13.834267	-1.981948	2.180582	0.003562	0.259337
-14.246436	-1.882917	2.190579	0.003663	0.259414
-13.437839	-1.986989	2.200576	0.003466	0.259650
-13.626255	-1.976371	2.210573	0.003512	0.259534
-13.891216	-1.897918	2.220570	0.003577	0.259647
-13.786740	-1.917837	2.230566	0.003552	0.259648
-13.803994	-1.896134	2.240563	0.003557	0.259726
-13.329592	-1.967733	2.250560	0.003442	0.259818
-13.535778	-1.894942	2.260557	0.003492	0.259956
-12.984257	-2.003879	2.270554	0.003358	0.259952
-13.381586	-1.925173	2.280550	0.003455	0.259953
-13.431758	-1.913962	2.290547	0.003468	0.259958
-13.382966	-1.923640	2.300544	0.003457	0.259956
-13.220025	-1.955923	2.310541	0.003417	0.259953
-12.913874	-2.016319	2.320538	0.003343	0.259951
-12.526049	-2.092090	2.330534	0.003249	0.259951
-12.519569	-2.091960	2.340531	0.003247	0.259956
-12.956203	-2.005578	2.350528	0.003354	0.259957
-13.547249	-1.889677	2.360525	0.003499	0.259954
-13.425749	-1.848038	2.370522	0.003470	0.260236
-13.672227	-1.761487	2.380518	0.003530	0.260399
-12.369445	-1.974995	2.390515	0.003213	0.260581
-12.368331	-2.016751	2.400512	0.003213	0.260400
-12.231236	-2.069722	2.410509	0.003180	0.260287
-12.962607	-1.924086	2.420506	0.003359	0.260293
-13.070554	-1.836446	2.430502	0.003386	0.260578
-12.701332	-1.908322	2.440499	0.003296	0.260580
-12.547343	-1.892498	2.450496	0.003259	0.260777
-11.789427	-2.075001	2.460493	0.003074	0.260631
-11.475525	-2.150720	2.470490	0.002998	0.260569
-11.607693	-2.191406	2.480486	0.003030	0.260280
-12.387781	-2.036612	2.490483	0.003221	0.260285
-13.114748	-1.858665	2.500480	0.003399	0.260435
-13.011639	-1.813870	2.510477	0.003374	0.260714
-12.926675	-1.777349	2.520474	0.003354	0.260942
-12.770730	-1.745549	2.530470	0.003316	0.261209
-12.251866	-1.783095	2.540467	0.003190	0.261484
-11.161124	-2.013450	2.550464	0.002924	0.261414
-10.655655	-2.188466	2.560461	0.002801	0.261088
-10.681612	-2.241854	2.570458	0.002808	0.260835
-11.413567	-2.157928	2.580454	0.002987	0.260575
-12.436771	-1.942134	2.590451	0.003237	0.260637
-12.613880	-1.843541	2.600448	0.003281	0.260910
-12.531494	-1.789358	2.610445	0.003261	0.261211
-12.226432	-1.785827	2.620442	0.003187	0.261483
-12.274153	-1.738065	2.630438	0.003199	0.261646
-10.778390	-1.994350	2.640435	0.002834	0.261806
-9.997712	-2.233985	2.650432	0.002644	0.261435
-10.632958	-2.160230	2.660429	0.002800	0.261214
-11.179143	-2.120526	2.670426	0.002934	0.260922
-11.587977	-1.978870	2.680422	0.003034	0.261184
-11.786555	-1.932613	2.690419	0.003083	0.261213
-12.453331	-1.735866	2.700416	0.003246	0.261494
-12.149462	-1.712415	2.710413	0.003172	0.261850
-11.492055	-1.771200	2.720410	0.003012	0.262150
-10.480647	-1.966874	2.730406	0.002765	0.262162
-9.722705	-2.182528	2.740403	0.002581	0.261875
-9.375019	-2.333613	2.750400	0.002496	0.261518
-10.437480	-2.195679	2.760397	0.002756	0.261212
-11.595190	-1.959340	2.770394	0.003039	0.261249
-11.779498	-1.843771	2.780390	0.003085	0.261588
-11.746206	-1.788081	2.790387	0.003077	0.261854
-11.990485	-1.648917	2.800384	0.003137	0.262243
-11.638927	-1.641087	2.810381	0.003051	0.262570
-9.963549	-1.925403	2.820378	0.002643	0.262761
-9.042535	-2.192737	2.830374	0.002418	0.262391
-9.210926	-2.244032	2.840371	0.002460	0.262028
-9.451043	-2.252499	2.850368	0.002519	0.261788
-10.393396	-2.122405	2.860365	0.002749	0.261550
-11.028945	-1.938034	2.870362	0.002905	0.261804
-11.427620	-1.806105	2.880358	0.003003	0.262032
-11.900295	-1.625844	2.890355	0.003118	0.262405
-11.507092	-1.586432	2.900352	0.003023	0.262902
-9.862902	-1.861481	2.910349	0.002622	0.263106
-8.139106	-2.268960	2.920346	0.002201	0.262811
-8.966838	-2.206343	2.930342	0.002404	0.262382
-9.697374	-2.113261	2.940339	0.002583	0.262164
-9.930936	-2.066116	2.950336	0.002640	0.262168
-10.038994	-2.045262	2.960333	0.002667	0.262165
-10.749494	-1.840269	2.970330	0.002841	0.262444
-10.275841	-1.865285	2.980326	0.002725	0.262733
-10.559086	-1.786160	2.990323	0.002795	0.262832
-10.167473	-1.798293	3.000320	0.002700	0.263107
-9.689238	-1.892157	3.010317	0.002583	0.263106
-8.491916	-2.135507	3.020314	0.002291	0.263071
-8.803633	-2.135392	3.030310	0.002368	0.262808
-9.130756	-2.095711	3.040307	0.002448	0.262702
-9.505461	-1.996115	3.050304	0.002540	0.262811
-9.934184	-1.912035	3.060301	0.002645	0.262809
-9.855271	-1.874288	3.070298	0.002626	0.263035
-10.201276	-1.768903	3.080294	0.002711	0.263193
-9.351348	-1.880552	3.090291	0.002504	0.263428
-8.852207	-1.977891	3.100288	0.002383	0.263430
-8.644780	-2.055682	3.110285	0.002332	0.263270
-9.092602	-2.006478	3.120282	0.002442	0.263103
-8.961144	-1.978902	3.130278	0.002411	0.263330
-8.585696	-2.080874	3.140275	0.002319	0.263208
-8.081021	-2.204344	3.150272	0.002196	0.263103
-8.895689	-2.092282	3.160269	0.002396	0.262897
-10.448967	-1.707637	3.170266	0.002776	0.263234
-10.009892	-1.701318	3.180262	0.002669	0.263627
-9.418645	-1.725386	3.190259	0.002525	0.264018
-8.780562	-1.835793	3.200256	0.002369	0.264080
-8.357613	-1.918960	3.210253	0.002266	0.264079
-7.930823	-2.002899	3.220250	0.002163	0.264077
-7.530640	-2.156063	3.230246	0.002065	0.263759
-7.491691	-2.214734	3.240243	0.002056	0.263540
-7.541769	-2.269447	3.250240	0.002069	0.263263
-8.357413	-2.145609	3.260237	0.002269	0.263106
-9.758880	-1.809861	3.270234	0.002611	0.263362
-9.981716	-1.641666	3.280230	0.002666	0.263891
-9.099272	-1.733023	3.290227	0.002451	0.264238
-8.666166	-1.797453	3.300224	0.002345	0.264325
-7.885805	-1.894056	3.310221	0.002155	0.264564
-7.786864	-1.970070	3.320218	0.002131	0.264323
-7.260142	-2.073754	3.330214	0.002003	0.264320
-7.703099	-2.022110	3.340211	0.002112	0.264169
-7.176033	-2.146377	3.350208	0.001984	0.264079
-7.500715	-2.082282	3.360205	0.002063	0.264079
-7.633426	-2.056346	3.370202	0.002096	0.264077
-8.391169	-1.907035	3.380198	0.002282	0.264077
-8.451118	-1.871718	3.390195	0.002297	0.264176
-8.483698	-1.809223	3.400192	0.002305	0.264413
-7.555634	-1.939579	3.410189	0.002079	0.264632
-7.769453	-1.897493	3.420186	0.002131	0.264631
-7.250822	-1.998758	3.430182	0.002005	0.264632
-7.379031	-1.972621	3.440179	0.002037	0.264635
-6.961122	-2.073912	3.450176	0.001935	0.264552
-7.329888	-2.012801	3.460173	0.002026	0.264503
-7.168292	-2.061339	3.470170	0.001987	0.264430
-7.555094	-1.954595	3.480166	0.002081	0.264559
-8.005140	-1.848218	3.490163	0.002192	0.264634
-7.673104	-1.844365	3.500160	0.002111	0.264925
-7.329693	-1.908437	3.510157	0.002028	0.264938
-6.834345	-2.006817	3.520154	0.001907	0.264933
-6.144636	-2.144390	3.530150	0.001739	0.264923
-6.316069	-2.179922	3.540147	0.001781	0.264628
-6.971495	-2.050653	3.550144	0.001942	0.264628
-7.700191	-1.873660	3.560141	0.002120	0.264770
-7.768547	-1.805364	3.570138	0.002137	0.265001
-7.737101	-1.741410	3.580134	0.002130	0.265297
-7.342009	-1.755441	3.590131	0.002034	0.265564
-6.371259	-1.945519	3.600128	0.001797	0.265566
-6.069217	-2.005187	3.610125	0.001724	0.265563
-5.416997	-2.185622	3.620122	0.001565	0.265341
-5.453816	-2.244736	3.630118	0.001574	0.265059
-5.488864	-2.303993	3.640115	0.001583	0.264777
-6.844099	-2.064271	3.650112	0.001915	0.264663
-7.387192	-1.891666	3.660109	0.002048	0.264940
-7.996777	-1.671541	3.670106	0.002197	0.265364
-7.145680	-1.745044	3.680102	0.001990	0.265759
-6.587079	-1.823394	3.690099	0.001853	0.265890
-5.931297	-1.951731	3.700096	0.001694	0.265891
-5.033360	-2.139380	3.710093	0.001475	0.265842
-4.730918	-2.276990	3.720090	0.001402	0.265511
-5.355546	-2.211037	3.730086	0.001555	0.265269
-6.507896	-1.982508	3.740083	0.001836	0.265276
-7.448065	-1.740079	3.750080	0.002066	0.265519
-7.324896	-1.652119	3.760077	0.002037	0.265991
-6.631087	-1.707736	3.770074	0.001867	0.266330
-5.261138	-1.940110	3.780070	0.001533	0.266484
-5.122030	-2.033361	3.790067	0.001500	0.266205
-3.948360	-2.310290	3.800064	0.001214	0.266008
-4.423369	-2.315060	3.810061	0.001330	0.265593
-5.059830	-2.254181	3.820058	0.001486	0.265320
-6.141552	-2.035130	3.830054	0.001751	0.265346
-7.221690	-1.733210	3.840051	0.002015	0.265723
-7.200283	-1.607790	3.850048	0.002010	0.266269
-6.621326	-1.612757	3.860045	0.001869	0.266726
-5.418475	-1.822143	3.870042	0.001575	0.266838
-4.049844	-2.097324	3.880038	0.001242	0.266810
-3.756336	-2.233955	3.890035	0.001170	0.266477
-4.097722	-2.248576	3.900032	0.001254	0.266131
-4.976569	-2.131904	3.910029	0.001469	0.265893
-5.304696	-2.063831	3.920026	0.001550	0.265907
-5.889832	-1.878234	3.930022	0.001693	0.266203
-5.350816	-1.920025	3.940019	0.001562	0.266472
-4.852404	-2.001834	3.950016	0.001441	0.266539
-4.775803	-2.017502	3.960013	0.001422	0.266535
-4.630981	-2.045838	3.970010	0.001387	0.266534
-5.086883	-1.955831	3.980006	0.001499	0.266534
-5.138023	-1.943932	3.990003	0.001512	0.266541
-5.401124	-1.822963	4.000000	0.001577	0.266831
-5.051341	-1.855328	4.009997	0.001491	0.266982
-4.470444	-1.928573	4.019994	0.001350	0.267153
-4.042721	-2.044623	4.029990	0.001246	0.267017
-4.082686	-2.077930	4.039987	0.001256	0.266843
-3.942751	-2.105501	4.049984	0.001222	0.266841
-3.657380	-2.202917	4.059981	0.001153	0.266665
-3.852929	-2.194536	4.069978	0.001201	0.266538
-4.336879	-2.099176	4.079974	0.001320	0.266537
-5.307395	-1.879209	4.089971	0.001557	0.266659
-5.274458	-1.810464	4.099968	0.001550	0.266974
-5.065613	-1.770601	4.109965	0.001499	0.267313
-4.478167	-1.849891	4.119962	0.001356	0.267463
-4.157723	-1.889947	4.129958	0.001278	0.267558
-3.532844	-2.018419	4.139955	0.001126	0.267533
-2.910714	-2.155885	4.149952	0.000974	0.267467
-3.198287	-2.173471	4.159949	0.001045	0.267155
-3.651779	-2.084931	4.169946	0.001156	0.267151
-3.743411	-2.066202	4.179942	0.001179	0.267153
-3.918367	-2.031201	4.189939	0.001222	0.267154
-4.069105	-1.982762	4.199936	0.001259	0.267231
-3.975674	-1.945087	4.209933	0.001237	0.267465
-3.710512	-1.997303	4.219930	0.001173	0.267463
-3.975481	-1.929897	4.229926	0.001238	0.267526
-3.782327	-1.902826	4.239923	0.001191	0.267798
-3.709844	-1.916425	4.249920	0.001174	0.267799
-3.731973	-1.864641	4.259917	0.001179	0.267996
-2.965423	-1.992119	4.269914	0.000993	0.268092
-3.008601	-2.026623	4.279910	0.001004	0.267911
-2.710697	-2.112248	4.289907	0.000931	0.267796
-2.637442	-2.125770	4.299904	0.000914	0.267798
-2.513873	-2.208624	4.309901	0.000884	0.267551
-2.912801	-2.150779	4.319898	0.000982	0.267463
-3.783266	-1.957581	4.329894	0.001195	0.267555
-4.154711	-1.803426	4.339891	0.001286	0.267894
-3.764794	-1.815178	4.349888	0.001191	0.268164
-3.497596	-1.806687	4.359885	0.001126	0.268418
-2.831247	-1.938442	4.369882	0.000964	0.268413
-2.685103	-1.911203	4.379878	0.000929	0.268646
-2.482636	-2.005752	4.389875	0.000880	0.268415
-2.414332	-2.017556	4.399872	0.000863	0.268421
-2.170384	-2.065421	4.409869	0.000804	0.268420
-2.278193	-2.044587	4.419866	0.000831	0.268417
-2.200187	-2.059728	4.429862	0.000812	0.268416
-2.557598	-2.040382	4.439859	0.000900	0.268202
-2.631935	-1.973225	4.449856	0.000919	0.268420
-2.900108	-1.920081	4.459853	0.000985	0.268421
-2.958629	-1.841316	4.469850	0.000999	0.268700
-2.576028	-1.908517	4.479846	0.000906	0.268732
-2.280425	-1.913945	4.489843	0.000834	0.268951
-1.900486	-2.013792	4.499840	0.000742	0.268844
-1.905994	-2.039466	4.509837	0.000744	0.268731
-2.342398	-1.924665	4.519834	0.000851	0.268851
-2.094638	-1.921868	4.529830	0.000791	0.269065
-2.032881	-1.933118	4.539827	0.000776	0.269067
-2.033668	-1.931638	4.549824	0.000777	0.269071
-1.899579	-1.958151	4.559821	0.000744	0.269069
-1.974790	-1.944215	4.569818	0.000763	0.269064
-1.788183	-1.981122	4.579814	0.000718	0.269062
-1.694008	-1.947289	4.589811	0.000695	0.269279
-1.718999	-1.950670	4.599808	0.000702	0.269243
-3.054988	-1.653947	4.609805	0.001028	0.269384
-2.373124	-1.703289	4.619802	0.000862	0.269735
-1.802261	-1.772228	4.629798	0.000723	0.269913
-1.521783	-1.826913	4.639795	0.000655	0.269914
-1.610318	-1.808653	4.649792	0.000677	0.269916
-1.629278	-1.741958	4.659789	0.000682	0.270176
-1.558050	-1.740570	4.669786	0.000665	0.270239
-1.399904	-1.771110	4.679782	0.000627	0.270240
-1.334974	-1.783061	4.689779	0.000612	0.270242
-1.097151	-1.829331	4.699776	0.000554	0.270242
-1.008014	-1.846085	4.709773	0.000532	0.270244
-1.194259	-1.769750	4.719770	0.000578	0.270408
-1.150066	-1.744896	4.729766	0.000568	0.270545
-1.430003	-1.690046	4.739763	0.000637	0.270543
-1.492887	-1.638011	4.749760	0.000652	0.270707
-1.400647	-1.618704	4.759757	0.000630	0.270860
-1.139651	-1.620852	4.769754	0.000567	0.271062
-1.074080	-1.607760	4.779750	0.000551	0.271169
-0.946722	-1.632144	4.789747	0.000521	0.271170
-0.929849	-1.603278	4.799744	0.000517	0.271302
-0.890868	-1.561577	4.809741	0.000508	0.271504
-0.918189	-1.556827	4.819738	0.000515	0.271501
-1.030762	-1.483630	4.829734	0.000543	0.271710
-1.058195	-1.454100	4.839731	0.000550	0.271809
-1.056322	-1.390589	4.849728	0.000550	0.272071
-0.947525	-1.379621	4.859725	0.000524	0.272203
-0.861245	-1.341550	4.869722	0.000503	0.272428
-0.769591	-1.328144	4.879718	0.000481	0.272556
-0.607749	-1.310117	4.889715	0.000442	0.272760
-0.618773	-1.293792	4.899712	0.000445	0.272817
-0.598303	-1.237544	4.909709	0.000440	0.273064
-0.716225	-1.188672	4.919706	0.000469	0.273168
-0.821772	-1.116059	4.929702	0.000496	0.273379
-0.892032	-1.027453	4.939699	0.000513	0.273685
-0.773312	-0.981118	4.949696	0.000484	0.273969
-0.740545	-0.939375	4.959693	0.000477	0.274165
-0.646250	-0.906772	4.969690	0.000454	0.274373
-0.535303	-0.878472	4.979686	0.000427	0.274577
-0.547689	-0.801633	4.989683	0.000431	0.274879
-0.463917	-0.757271	4.999680	0.000411	0.275126
-0.401562	-0.713287	5.009677	0.000396	0.275354
-0.432168	-0.659351	5.019674	0.000404	0.275548
-0.355940	-0.607387	5.029670	0.000386	0.275819
-0.366760	-0.530943	5.039667	0.000389	0.276120
-0.365083	-0.461694	5.049664	0.000388	0.276401
-0.254085	-0.417009	5.059661	0.000362	0.276670
-0.117255	-0.380997	5.069658	0.000329	0.276924
-0.053959	-0.346301	5.079654	0.000314	0.277113
-0.039159	-0.279361	5.089651	0.000310	0.277395
0.109507	-0.240222	5.099648	0.000274	0.277670
0.034030	-0.174058	5.109645	0.000293	0.277876
-0.087134	-0.088478	5.119642	0.000323	0.278124
0.012518	-0.031860	5.129638	0.000299	0.278430
-0.058994	0.061718	5.139635	0.000317	0.278749
0.000000	0.114837	5.149632	0.000303	0.279008

-0.043318	0.158158	5.154637	0.000314	0.279147
0.008963	0.174857	5.159642	0.000301	0.279255
0.009427	0.247135	5.164646	0.000301	0.279545
0.072493	0.291996	5.169651	0.000286	0.279774
0.108181	0.348702	5.174656	0.000277	0.280029
0.288004	0.378828	5.179661	0.000234	0.280291
0.334396	0.438056	5.184666	0.000222	0.280564
0.444826	0.490075	5.189670	0.000196	0.280858
0.449050	0.567836	5.194675	0.000195	0.281171
0.573637	0.628843	5.199680	0.000165	0.281511
0.556365	0.716531	5.204685	0.000169	0.281846
0.455510	0.824110	5.209690	0.000194	0.282195
0.518046	0.913138	5.214694	0.000179	0.282597
0.525958	1.018632	5.219699	0.000177	0.283021
0.397340	1.155245	5.224704	0.000208	0.283462
0.367235	1.286611	5.229709	0.000216	0.283957
0.423351	1.382095	5.234714	0.000202	0.284377
0.469111	1.514901	5.239718	0.000191	0.284936
0.544718	1.629713	5.244723	0.000173	0.285446
0.705296	1.734408	5.249728	0.000134	0.285980
0.740218	1.877146	5.254733	0.000125	0.286566
0.803103	2.007277	5.259738	0.000110	0.287123
0.935293	2.135969	5.264742	0.000078	0.287726
1.097710	2.253116	5.269747	0.000038	0.288306
1.267064	2.370273	5.274752	-0.000003	0.288890
1.237893	2.509280	5.279757	0.000004	0.289407
1.291020	2.659401	5.284762	-0.000009	0.290028
1.352292	2.814934	5.289766	-0.000024	0.290676
1.352039	2.985553	5.294771	-0.000023	0.291333
1.427455	3.147508	5.299776	-0.000042	0.292012
1.392657	3.333870	5.304781	-0.000033	0.292701
1.413099	3.524271	5.309786	-0.000038	0.293445
1.316095	3.729113	5.314790	-0.000014	0.294154
1.303016	3.928513	5.319795	-0.000011	0.294903
1.344420	4.131227	5.324800	-0.000021	0.295704
1.327044	4.361331	5.329805	-0.000017	0.296563
1.416560	4.561473	5.334810	-0.000039	0.297385
1.712494	4.730147	5.339814	-0.000111	0.298239
1.719723	4.948306	5.344819	-0.000113	0.299063
1.915718	5.128884	5.349824	-0.000160	0.299884
2.032930	5.334457	5.354829	-0.000189	0.300737
2.180370	5.540541	5.359834	-0.000225	0.301612
2.384019	5.739446	5.364838	-0.000275	0.302499
2.420473	5.965050	5.369843	-0.000283	0.303361
2.527457	6.175091	5.374848	-0.000310	0.304214
2.551431	6.409141	5.379853	-0.000315	0.305093
2.387273	6.696574	5.384858	-0.000275	0.306030
2.600971	6.920691	5.389862	-0.000327	0.307003
2.366159	7.231440	5.394867	-0.000270	0.307969
2.406729	7.494754	5.399872	-0.000280	0.308955
2.617291	7.722734	5.404877	-0.000331	0.309931
2.579682	8.019548	5.409882	-0.000322	0.310977
2.726702	8.284431	5.414886	-0.000358	0.312035
2.903023	8.539437	5.419891	-0.000401	0.313074
3.010441	8.810535	5.424896	-0.000427	0.314119
3.061304	9.088918	5.429901	-0.000440	0.315147
3.197173	9.370648	5.434906	-0.000473	0.316243
3.535457	9.611812	5.439910	-0.000556	0.317332
3.590482	9.901738	5.444915	-0.000569	0.318393
3.649158	10.181538	5.449920	-0.000583	0.319417
3.519653	10.522999	5.454925	-0.000552	0.320525
3.521273	10.850033	5.459930	-0.000552	0.321669
3.664417	11.163178	5.464934	-0.000587	0.322857
3.688314	11.485832	5.469939	-0.000593	0.323992
3.634883	11.835629	5.474944	-0.000580	0.325165
3.657690	12.191392	5.479949	-0.000586	0.326405
3.753148	12.531578	5.484954	-0.000609	0.327636
3.824898	12.878645	5.489958	-0.000627	0.328870
3.850502	13.233052	5.494963	-0.000633	0.330094
4.145146	13.553858	5.499968	-0.000705	0.331378
4.338167	13.890854	5.504973	-0.000752	0.332644
4.366393	14.253024	5.509978	-0.000759	0.333882
4.381752	14.628131	5.514982	-0.000763	0.335150
4.524234	14.991621	5.519987	-0.000798	0.336458
4.728138	15.347873	5.524992	-0.000848	0.337776
4.598712	15.762063	5.529997	-0.000816	0.339065
4.706628	16.142144	5.535002	-0.000842	0.340390
4.964279	16.506842	5.540006	-0.000905	0.341755
5.023522	16.908178	5.545011	-0.000920	0.343108
5.118605	17.293873	5.550016	-0.000943	0.344427
5.269649	17.687352	5.555021	-0.000980	0.345803
5.437873	18.081135	5.560026	-0.001021	0.347184
5.476458	18.503088	5.565030	-0.001031	0.348569
5.565459	18.902439	5.570035	-0.001053	0.349908
5.679463	19.326822	5.575040	-0.001081	0.351337
5.847352	19.739022	5.580045	-0.001122	0.352755
5.775234	20.183323	5.585050	-0.001104	0.354121
5.875802	20.624581	5.590054	-0.001129	0.355578
5.808589	21.101384	5.595059	-0.001113	0.357038
5.870783	21.561258	5.600064	-0.001128	0.358518
6.057914	21.996530	5.605069	-0.001174	0.359991
6.245454	22.443731	5.610074	-0.001220	0.361496
6.383596	22.905136	5.615078	-0.001254	0.363009
6.197282	23.416358	5.620083	-0.001208	0.364473
6.425045	23.882453	5.625088	-0.001264	0.366042
6.777311	24.318751	5.630093	-0.001350	0.367587
6.827883	24.787946	5.635098	-0.001363	0.369046
6.940837	25.272451	5.640102	-0.001390	0.370583
7.150993	25.743761	5.645107	-0.001442	0.372131
7.232775	26.235725	5.650112	-0.001462	0.373659
7.284820	26.737977	5.655117	-0.001475	0.375194
7.547126	27.212851	5.660122	-0.001539	0.376764
7.585606	27.733589	5.665126	-0.001549	0.378334
7.761385	28.214004	5.670131	-0.001592	0.379857
7.615634	28.792081	5.675136	-0.001556	0.381477
7.511365	29.373161	5.680141	-0.001531	0.383122
7.438726	29.938502	5.685146	-0.001514	0.384732
7.384147	30.548486	5.690150	-0.001500	0.386476
7.441666	31.126207	5.695155	-0.001515	0.388182
7.664705	31.669747	5.700160	-0.001569	0.389875
7.860093	32.237828	5.705165	-0.001617	0.391616
8.109779	32.787156	5.710170	-0.001678	0.393325
8.266525	33.348125	5.715174	-0.001717	0.395009
8.421995	33.934184	5.720179	-0.001755	0.396756
8.541337	34.508576	5.725184	-0.001785	0.398442
8.660131	35.103886	5.730189	-0.001814	0.400180
8.721722	35.711542	5.735194	-0.001829	0.401913
8.991718	36.286419	5.740198	-0.001895	0.403661
8.995826	36.909533	5.745203	-0.001896	0.405392
9.142282	37.524576	5.750208	-0.001932	0.407169
9.018108	38.183714	5.755213	-0.001902	0.408914
9.218012	38.796977	5.760218	-0.001951	0.410700
9.346468	39.442978	5.765222	-0.001983	0.412529
9.281639	40.108676	5.770227	-0.001968	0.414301
9.496929	40.753705	5.775232	-0.002020	0.416157
9.690829	41.399271	5.780237	-0.002068	0.417995
9.821760	42.043793	5.785242	-0.002100	0.419790
9.964969	42.718561	5.790246	-0.002135	0.421664
10.076166	43.384623	5.795251	-0.002163	0.423489
10.191600	44.062936	5.800256	-0.002191	0.425342
10.378711	44.740700	5.805261	-0.002237	0.427221
10.410928	45.426646	5.810266	-0.002246	0.429035
10.793539	46.077004	5.815270	-0.002339	0.430927
10.672163	46.812781	5.820275	-0.002310	0.432777
10.793622	47.507196	5.825280	-0.002340	0.434634
11.085020	48.194222	5.830285	-0.002411	0.436550
11.101752	48.914248	5.835290	-0.002416	0.438404
11.162695	49.649715	5.840294	-0.002431	0.440312
11.363095	50.370584	5.845299	-0.002480	0.442244
11.505801	51.081053	5.850304	-0.002515	0.444113
11.490706	51.861352	5.855309	-0.002512	0.446072
11.562101	52.609520	5.860314	-0.002530	0.447985
11.875062	53.320786	5.865318	-0.002607	0.449914
11.985499	54.087082	5.870323	-0.002634	0.451874
12.045431	54.847325	5.875328	-0.002649	0.453786
12.185377	55.623935	5.880333	-0.002683	0.455769
12.292572	56.400771	5.885338	-0.002710	0.457728
12.264846	57.211062	5.890342	-0.002704	0.459697
12.466231	57.999692	5.895347	-0.002753	0.461713
12.595717	58.793885	5.900352	-0.002785	0.463699
12.618994	59.627729	5.905357	-0.002791	0.465723
12.636500	60.467909	5.910362	-0.002796	0.467750
13.000047	61.236195	5.915366	-0.002885	0.469758
13.106729	62.071167	5.920371	-0.002911	0.471797
13.206501	62.889489	5.925376	-0.002936	0.473785
13.272354	63.758154	5.930381	-0.002953	0.475867
13.417852	64.593468	5.935386	-0.002989	0.477899
13.432366	65.469077	5.940390	-0.002993	0.479956
13.598549	66.340394	5.945395	-0.003034	0.482064
13.751340	67.193376	5.950400	-0.003071	0.484113
14.069593	68.044546	5.955405	-0.003149	0.486224
14.367109	68.862955	5.960410	-0.003223	0.488242
14.494549	69.730698	5.965414	-0.003254	0.490288
14.451195	70.643607	5.970419	-0.003244	0.492353
14.450447	71.556456	5.975424	-0.003244	0.494428
14.587348	72.479424	5.980429	-0.003278	0.496577
14.684653	73.378495	5.985434	-0.003302	0.498647
14.870094	74.300099	5.990438	-0.003348	0.500796
14.809235	75.265544	5.995443	-0.003334	0.502928
14.733554	76.255148	6.000448	-0.003316	0.505098
14.960579	77.206518	6.005453	-0.003372	0.507303
14.992506	78.170336	6.010458	-0.003380	0.509444
15.150464	79.160798	6.015462	-0.003419	0.511687
15.305326	80.108201	6.020467	-0.003457	0.513826
15.540307	81.086307	6.025472	-0.003515	0.516056
15.784459	82.042814	6.030477	-0.003575	0.518233
15.823489	83.044362	6.035482	-0.003585	0.520413
16.193864	84.001358	6.040486	-0.003676	0.522625
16.336491	84.985141	6.045491	-0.003712	0.524792
16.716899	85.934696	6.050496	-0.003805	0.526974
16.843184	86.904061	6.055501	-0.003836	0.529086
16.865416	87.935753	6.060506	-0.003842	0.531277
17.076582	88.917579	6.065510	-0.003894	0.533432
17.004172	89.982389	6.070515	-0.003877	0.535637
16.993475	91.038787	6.075520	-0.003875	0.537841
17.128265	92.092617	6.080525	-0.003909	0.540088
17.191601	93.160910	6.085530	-0.003925	0.542328
17.361455	94.230178	6.090534	-0.003967	0.544602
17.406858	95.322741	6.095539	-0.003978	0.546866
17.502779	96.393230	6.100544	-0.004002	0.549095
17.815983	97.473151	6.105549	-0.004079	0.551420
17.961330	98.532840	6.110554	-0.004116	0.553628
18.316823	99.602542	6.115558	-0.004203	0.555930
18.461820	100.669222	6.120563	-0.004239	0.558135
18.753314	101.742163	6.125568	-0.004311	0.560399
18.932033	102.828390	6.130573	-0.004355	0.562638
18.996899	103.936629	6.135578	-0.004371	0.564868
18.991180	105.082699	6.140582	-0.004371	0.567137
18.991472	106.226452	6.145587	-0.004371	0.569395
19.058891	107.387054	6.150592	-0.004388	0.571702
19.103957	108.556704	6.155597	-0.004400	0.574009
19.067009	109.771969	6.160602	-0.004392	0.576365
19.271660	110.938248	6.165606	-0.004442	0.578707
19.388506	112.140050	6.170611	-0.004471	0.581075
19.475108	113.345941	6.175616	-0.004493	0.583430
19.571215	114.583868	6.180621	-0.004517	0.585840
19.741001	115.776458	6.185626	-0.004559	0.588182
20.135133	116.971110	6.190630	-0.004656	0.590600
20.276004	118.165487	6.195635	-0.004691	0.592915
20.569251	119.363155	6.200640	-0.004764	0.595283
20.933223	120.524446	6.205645	-0.004853	0.597599
20.948886	121.761045	6.210650	-0.004858	0.599921
21.276775	122.951813	6.215654	-0.004939	0.602260
21.493617	124.155302	6.220659	-0.004992	0.604575
21.697201	125.360458	6.225664	-0.005043	0.606879
21.907419	126.565014	6.230669	-0.005095	0.609176
21.841611	127.837015	6.235674	-0.005079	0.611490
22.002300	129.079386	6.240678	-0.005119	0.613821
22.025495	130.372791	6.245683	-0.005126	0.616188
21.966990	131.675409	6.250688	-0.005112	0.618534
22.075382	132.996557	6.255693	-0.005139	0.620962
22.051182	134.321598	6.260698	-0.005134	0.623342
22.219467	135.664376	6.265702	-0.005176	0.625812
22.227700	136.993013	6.270707	-0.005179	0.628191
22.454692	138.341184	6.275712	-0.005235	0.630671
22.600362	139.675912	6.280717	-0.005271	0.633090
22.756650	141.041709	6.285722	-0.005310	0.635558
22.993060	142.367914	6.290726	-0.005369	0.637974
23.320008	143.704111	6.295731	-0.005449	0.640428
23.597981	145.021455	6.300736	-0.005518	0.642824
23.970255	146.350204	6.305741	-0.005610	0.645263
24.176313	147.650228	6.310746	-0.005661	0.647587
24.520068	148.967291	6.315750	-0.005745	0.649977
24.567384	150.319038	6.320755	-0.005758	0.652321
24.781457	151.658895	6.325760	-0.005811	0.654691
25.081132	152.992035	6.330765	-0.005885	0.657069
25.229100	154.330920	6.335770	-0.005922	0.659398
25.368174	155.706248	6.340774	-0.005956	0.661778
25.381504	157.103637	6.345779	-0.005960	0.664146
25.522814	158.492597	6.350784	-0.005996	0.666533
25.689122	159.882600	6.355789	-0.006037	0.668921
25.786803	161.288542	6.360794	-0.006062	0.671305
25.854165	162.705418	6.365798	-0.006079	0.673690
25.811331	164.182450	6.370803	-0.006069	0.676130
26.026005	165.595822	6.375808	-0.006123	0.678538
26.233908	167.052526	6.380813	-0.006174	0.681007
26.232848	168.509173	6.385818	-0.006175	0.683401
26.348721	170.012769	6.390822	-0.006204	0.685900
26.574476	171.439934	6.395827	-0.006260	0.688300
26.767427	172.925807	6.400832	-0.006308	0.690777
27.110496	174.354728	6.405837	-0.006392	0.693199
27.206161	175.857669	6.410842	-0.006417	0.695655
27.520275	177.295813	6.415846	-0.006494	0.698066
27.677938	178.793740	6.420851	-0.006534	0.700516
27.830087	180.260763	6.425856	-0.006572	0.702907
28.106510	181.757258	6.430861	-0.006640	0.705374
28.288825	183.199107	6.435866	-0.006685	0.707718
28.460724	184.722338	6.440870	-0.006728	0.710179
28.592476	186.200527	6.445875	-0.006761	0.712549
28.523663	187.778946	6.450880	-0.006745	0.715008
28.575795	189.322742	6.455885	-0.006759	0.717441
28.692858	190.892900	6.460890	-0.006789	0.719925
28.969600	192.422277	6.465894	-0.006857	0.722386
28.971844	194.034802	6.470899	-0.006859	0.724885
29.030037	195.606440	6.475904	-0.006874	0.727329
29.291955	197.201061	6.480909	-0.006939	0.729860
29.465926	198.764762	6.485914	-0.006982	0.732309
29.721444	200.367387	6.490918	-0.007045	0.734834
29.819578	201.958946	6.495923	-0.007070	0.737287
30.221658	203.527296	6.500928	-0.007169	0.739784
30.488610	205.098713	6.505933	-0.007236	0.742239
30.422972	206.751014	6.510938	-0.007220	0.744712
30.620056	208.356274	6.515942	-0.007270	0.747181
30.859675	209.977839	6.520947	-0.007329	0.749679
30.916234	211.594157	6.525952	-0.007344	0.752109
30.959917	213.287364	6.530957	-0.007355	0.754641
31.077223	214.924238	6.535962	-0.007385	0.757102
31.371030	216.584265	6.540966	-0.007458	0.759639
31.539526	218.221725	6.545971	-0.007500	0.762099
31.499189	219.956582	6.550976	-0.007491	0.764636
31.864489	221.580629	6.555981	-0.007581	0.767115
32.076397	223.255869	6.560986	-0.007634	0.769619
32.274253	224.917996	6.565990	-0.007683	0.772091
32.534979	226.600998	6.570995	-0.007748	0.774603
32.760558	228.245098	6.576000	-0.007804	0.777041
32.924713	229.953593	6.581005	-0.007845	0.779547
33.104534	231.620209	6.586010	-0.007890	0.781989
33.257270	233.348569	6.591014	-0.007928	0.784505
33.350295	235.039235	6.596019	-0.007952	0.786942
33.521594	236.769340	6.601024	-0.007995	0.789449
33.597334	238.493621	6.606029	-0.008015	0.791915
33.660748	240.270234	6.611034	-0.008031	0.794443
33.816316	242.006652	6.616038	-0.008070	0.796931
34.040070	243.777773	6.621043	-0.008126	0.799479
34.243079	245.516536	6.626048	-0.008177	0.801967
34.449681	247.299475	6.631053	-0.008228	0.804510
34.388625	249.073655	6.636058	-0.008214	0.806963
34.605951	250.891117	6.641062	-0.008268	0.809541
34.856388	252.639816	6.646067	-0.008331	0.812024
34.960088	254.474613	6.651072	-0.008357	0.814581
35.219806	256.248864	6.656077	-0.008422	0.817086
35.224873	258.109009	6.661082	-0.008424	0.819636
35.384343	259.932927	6.666086	-0.008464	0.822168
35.651821	261.775608	6.671091	-0.008530	0.824746
35.984436	263.531792	6.676096	-0.008613	0.827215
36.135219	265.386429	6.681101	-0.008651	0.829763
36.115912	267.225994	6.686106	-0.008647	0.832240
36.436204	269.076799	6.691110	-0.008726	0.834810
36.556092	270.909281	6.696115	-0.008757	0.837298
36.818497	272.761075	6.701120	-0.008822	0.839839
37.075066	274.589326	6.706125	-0.008886	0.842341
37.078694	276.489811	6.711130	-0.008888	0.844867
37.223229	278.338082	6.716134	-0.008924	0.847352
37.205058	280.283910	6.721139	-0.008921	0.849918
37.425511	282.165494	6.726144	-0.008976	0.852451
37.685025	284.082322	6.731149	-0.009040	0.855032
37.786055	285.977250	6.736154	-0.009066	0.857538
37.992099	287.915591	6.741158	-0.009118	0.860119
38.169843	289.832783	6.746163	-0.009162	0.862657
38.380516	291.755702	6.751168	-0.009215	0.865204
38.739612	293.636378	6.756173	-0.009304	0.867724
38.747586	295.587108	6.761178	-0.009307	0.870243
38.972473	297.510683	6.766182	-0.009363	0.872771
39.093852	299.471048	6.771187	-0.009394	0.875315
39.342073	301.393848	6.776192	-0.009456	0.877833
39.408921	303.385766	6.781197	-0.009473	0.880389
39.570504	305.345782	6.786202	-0.009514	0.882920
39.759767	307.324528	6.791206	-0.009561	0.885473
39.945781	309.292103	6.796211	-0.009608	0.888005
39.995448	311.298825	6.801216	-0.009621	0.890546
40.211539	313.302726	6.806221	-0.009675	0.893116
40.372755	315.307474	6.811226	-0.009716	0.895666
40.649844	317.302303	6.816230	-0.009785	0.898224
40.757281	319.325892	6.821235	-0.009812	0.900771
41.027061	321.336119	6.826240	-0.009880	0.903332
41.242532	323.343711	6.831245	-0.009933	0.905869
41.292180	325.389643	6.836250	-0.009947	0.908409
41.467530	327.420071	6.841254	-0.009991	0.910951
41.684952	329.469990	6.846259	-0.010045	0.913520
41.791619	331.494136	6.851264	-0.010072	0.916025
41.940496	333.582591	6.856269	-0.010110	0.918611
42.123413	335.634442	6.861274	-0.010156	0.921153
42.282409	337.739760	6.866278	-0.010196	0.923747
42.413761	339.780024	6.871283	-0.010230	0.926249
42.598823	341.888307	6.876288	-0.010276	0.928838
42.807705	343.962424	6.881293	-0.010328	0.931385
43.090731	346.048503	6.886298	-0.010399	0.933955
43.377309	348.086121	6.891302	-0.010470	0.936461
43.605806	350.191513	6.896307	-0.010527	0.939029
43.759005	352.251135	6.901312	-0.010566	0.941518
44.040001	354.361485	6.906317	-0.010636	0.944089
44.110511	356.414879	6.911322	-0.010654	0.946539
44.395493	358.524563	6.916326	-0.010725	0.949097
44.352002	360.652328	6.921331	-0.010716	0.951597
44.549521	362.791047	6.926336	-0.010765	0.954155
44.604475	364.930735	6.931341	-0.010780	0.956678
44.612618	367.130682	6.936346	-0.010783	0.959253
44.813408	369.303206	6.941350	-0.010834	0.961832
44.942622	371.502488	6.946355	-0.010867	0.964419
45.167691	373.641974	6.951360	-0.010923	0.966951
45.257948	375.874783	6.956365	-0.010947	0.969555
45.568388	378.034327	6.961370	-0.011024	0.972114
45.821847	380.226671	6.966374	-0.011087	0.974693
46.222497	382.362332	6.971379	-0.011186	0.977230
46.481288	384.517979	6.976384	-0.011251	0.979754
46.719737	386.687418	6.981389	-0.011310	0.982283
46.863918	388.862411	6.986394	-0.011347	0.984792
47.073736	391.029662	6.991398	-0.011399	0.987300
47.222710	393.218830	6.996403	-0.011437	0.989813
47.366405	395.398805	7.001408	-0.011474	0.992308
47.573836	397.592182	7.006413	-0.011526	0.994825
47.665561	399.793930	7.011418	-0.011549	0.997322
47.877207	402.003337	7.016422	-0.011602	0.999845
47.772913	404.288218	7.021427	-0.011578	1.002382
47.791400	406.551062	7.026432	-0.011584	1.004912
47.952206	408.841080	7.031437	-0.011625	1.007496
48.234065	411.093726	7.036442	-0.011695	1.010056
48.458528	413.366715	7.041446	-0.011752	1.012621
48.708105	415.616162	7.046451	-0.011814	1.015158
48.707616	417.936014	7.051456	-0.011815	1.017716
48.860911	420.252573	7.056461	-0.011854	1.020295
49.151059	422.549543	7.061466	-0.011926	1.022873
49.400024	424.800291	7.066470	-0.011989	1.025386
49.628213	427.106344	7.071475	-0.012046	1.027949
49.840449	429.359792	7.076480	-0.012099	1.030445
49.941310	431.720013	7.081485	-0.012125	1.033029
50.073814	434.002503	7.086490	-0.012159	1.035528
50.383724	436.322275	7.091494	-0.012236	1.038097
50.557068	438.613330	7.096499	-0.012280	1.040602
50.750826	440.957696	7.101504	-0.012329	1.043162
50.845370	443.263140	7.106509	-0.012353	1.045654
50.999630	445.628818	7.111514	-0.012392	1.048216
51.171006	447.956990	7.116518	-0.012436	1.050736
51.445723	450.324071	7.121523	-0.012504	1.053311
51.560310	452.644741	7.126528	-0.012534	1.055799
51.777039	455.039742	7.131533	-0.012588	1.058380
51.947107	457.380024	7.136538	-0.012631	1.060888
52.086580	459.794051	7.141542	-0.012667	1.063462
52.400961	462.121138	7.146547	-0.012745	1.065972
52.504580	464.519288	7.151552	-0.012772	1.068509
52.732806	466.872306	7.156557	-0.012829	1.071018
52.952584	469.248440	7.161562	-0.012884	1.073543
53.297354	471.564000	7.166566	-0.012970	1.076023
53.325801	473.997002	7.171571	-0.012978	1.078559
53.526007	476.352903	7.176576	-0.013029	1.081042
53.749594	478.762595	7.181581	-0.013085	1.083579
53.809144	481.124764	7.186586	-0.013101	1.086030
53.878203	483.590420	7.191590	-0.013119	1.088584
54.011792	486.020588	7.196595	-0.013153	1.091107
54.133438	488.483543	7.201600	-0.013185	1.093656
54.287697	490.939200	7.206605	-0.013224	1.096198
54.326286	493.437920	7.211610	-0.013235	1.098756
54.601397	495.915340	7.216614	-0.013304	1.101331
54.852920	498.379015	7.221619	-0.013367	1.103881
54.834761	500.872428	7.226624	-0.013364	1.106406
55.286191	503.334094	7.231629	-0.013476	1.108979
55.373674	505.811087	7.236634	-0.013499	1.111495
55.892212	508.233329	7.241638	-0.013627	1.114029
56.097860	510.679896	7.246643	-0.013679	1.116524
56.305342	513.127509	7.251648	-0.013731	1.119015
56.659177	515.552902	7.256653	-0.013819	1.121505
56.817575	517.981020	7.261658	-0.013859	1.123957
56.947315	520.430390	7.266662	-0.013892	1.126419
57.059355	522.914111	7.271667	-0.013921	1.128907
57.179638	525.385173	7.276672	-0.013952	1.131379
57.227856	527.915502	7.281677	-0.013965	1.133890
57.300985	530.442767	7.286682	-0.013985	1.136398
57.314298	533.023283	7.291686	-0.013990	1.138941
57.463482	535.603226	7.296691	-0.014028	1.141503
57.579889	538.161181	7.301696	-0.014058	1.144032
57.913519	540.717416	7.306701	-0.014141	1.146591
57.947459	543.293389	7.311706	-0.014151	1.149111
58.247405	545.861771	7.316710	-0.014226	1.151666
58.439481	548.429670	7.321715	-0.014274	1.154195
58.613009	551.005765	7.326720	-0.014318	1.156723
58.845333	553.582325	7.331725	-0.014377	1.159256
59.039523	556.164235	7.336730	-0.014426	1.161783
59.331106	558.691914	7.341734	-0.014499	1.164268
59.671269	561.247536	7.346739	-0.014583	1.166783
59.827903	563.785188	7.351744	-0.014623	1.169244
60.129105	566.350428	7.356749	-0.014698	1.171752
60.125569	568.921878	7.361754	-0.014699	1.174207
60.476140	571.477124	7.366758	-0.014786	1.176702
60.718603	574.037768	7.371763	-0.014847	1.179179
60.759081	576.633114	7.376768	-0.014859	1.181649
61.043725	579.180024	7.381773	-0.014930	1.184110
61.118526	581.777801	7.386778	-0.014950	1.186578
61.194544	584.391411	7.391782	-0.014970	1.189055
61.459147	587.000781	7.396787	-0.015036	1.191556
61.447323	589.624710	7.401792	-0.015035	1.194018
61.720528	592.272770	7.406797	-0.015104	1.196546
61.786631	594.914786	7.411802	-0.015121	1.199028
62.050339	597.569390	7.416806	-0.015187	1.201550
62.213740	600.200091	7.421811	-0.015229	1.204027
62.396467	602.848645	7.426816	-0.015275	1.206519
62.601136	605.496827	7.431821	-0.015327	1.209009
62.774762	608.167940	7.436826	-0.015371	1.211511
63.031613	610.801470	7.441830	-0.015436	1.213986
63.255279	613.470501	7.446835	-0.015492	1.216483
63.413032	616.117912	7.451840	-0.015532	1.218944
63.644720	618.805567	7.456845	-0.015590	1.221449
63.831398	621.452566	7.461850	-0.015638	1.223905
64.075585	624.112418	7.466854	-0.015699	1.226377
64.268352	626.766715	7.471859	-0.015748	1.228830
64.394900	629.443008	7.476864	-0.015780	1.231288
64.529927	632.128536	7.481869	-0.015815	1.233750
64.597567	634.848022	7.486874	-0.015833	1.236228
64.825476	637.537255	7.491878	-0.015891	1.238699
65.012684	640.275617	7.496883	-0.015938	1.241203
65.194496	642.943356	7.501888	-0.015984	1.243637
65.467351	645.653646	7.506893	-0.016053	1.246119
65.619129	648.354778	7.511898	-0.016091	1.248569
65.925200	651.046473	7.516902	-0.016168	1.251030
66.147298	653.748384	7.521907	-0.016224	1.253482
66.390315	656.420837	7.526912	-0.016285	1.255906
66.532298	659.148215	7.531917	-0.016321	1.258359
66.645925	661.868965	7.536922	-0.016351	1.260796
66.864840	664.573671	7.541926	-0.016406	1.263231
66.959976	667.305518	7.546931	-0.016431	1.265666
67.029439	670.064180	7.551936	-0.016450	1.268116
67.379674	672.788495	7.556941	-0.016537	1.270574
67.474318	675.542401	7.561946	-0.016562	1.273015
67.738391	678.265406	7.566950	-0.016628	1.275449
67.809480	681.060760	7.571955	-0.016647	1.277913
67.989792	683.813811	7.576960	-0.016693	1.280351
68.244698	686.587918	7.581965	-0.016757	1.282815
68.410941	689.321320	7.586970	-0.016800	1.285225
68.595465	692.107230	7.591974	-0.016846	1.287678
68.817324	694.876149	7.596979	-0.016902	1.290119
68.989466	697.652777	7.601984	-0.016946	1.292553
69.082074	700.454498	7.606989	-0.016971	1.294993
69.386882	703.242758	7.611994	-0.017047	1.297448
69.593934	706.012606	7.616998	-0.017099	1.299868
69.716211	708.838007	7.622003	-0.017131	1.302319
69.881912	711.562334	7.627008	-0.017173	1.304685
70.004219	714.416987	7.632013	-0.017205	1.307151
70.105727	717.202990	7.637018	-0.017231	1.309551
70.358796	720.053147	7.642022	-0.017295	1.312025
70.615047	722.828099	7.647027	-0.017359	1.314429
70.731899	725.682791	7.652032	-0.017390	1.316877
70.897631	728.514983	7.657037	-0.017432	1.319308
71.078712	731.383229	7.662042	-0.017478	1.321768
71.479223	734.111558	7.667046	-0.017578	1.324137
71.745407	736.946759	7.672051	-0.017644	1.326572
71.800531	739.725933	7.677056	-0.017660	1.328924
72.159868	742.578255	7.682061	-0.017749	1.331378
72.357644	745.326202	7.687066	-0.017799	1.333717
72.548105	748.161257	7.692070	-0.017848	1.336123
72.751796	750.971501	7.697075	-0.017899	1.338506
72.980987	753.783243	7.702080	-0.017957	1.340890
73.143974	756.565582	7.707085	-0.017999	1.343235
73.392275	759.367628	7.712090	-0.018061	1.345605
73.501190	762.167443	7.717094	-0.018089	1.347949
73.492692	765.067722	7.722099	-0.018089	1.350355
73.575025	767.916825	7.727104	-0.018111	1.352728
73.808352	770.800052	7.732109	-0.018170	1.355146
73.841148	773.703344	7.737114	-0.018180	1.357548
73.946713	776.632702	7.742118	-0.018208	1.359977
74.221211	779.542378	7.747123	-0.018276	1.362410
74.305455	782.431248	7.752128	-0.018299	1.364795
74.575517	785.368057	7.757133	-0.018367	1.367241
74.834885	788.242044	7.762138	-0.018432	1.369629
75.119615	791.155407	7.767142	-0.018503	1.372049
75.277195	794.041475	7.772147	-0.018544	1.374425
75.415812	796.967561	7.777152	-0.018579	1.376827
75.657693	799.880181	7.782157	-0.018640	1.379227
75.967026	802.781313	7.787162	-0.018718	1.381624
76.163792	805.622785	7.792166	-0.018768	1.383953
76.301966	808.594630	7.797171	-0.018803	1.386374
76.483073	811.433455	7.802176	-0.018849	1.388691
76.761812	814.379695	7.807181	-0.018919	1.391103
76.838242	817.238666	7.812186	-0.018940	1.393413
77.037785	820.186444	7.817190	-0.018991	1.395807
77.292682	823.084030	7.822195	-0.019055	1.398165
77.342571	826.040108	7.827200	-0.019069	1.400537
77.637103	828.915866	7.832205	-0.019143	1.402875
77.824930	831.848423	7.837210	-0.019190	1.405240
78.055734	834.733871	7.842214	-0.019249	1.407569
78.242926	837.698138	7.847219	-0.019296	1.409950
78.217589	840.633748	7.852224	-0.019292	1.412276
78.361383	843.623026	7.857229	-0.019329	1.414664
78.512273	846.613042	7.862234	-0.019368	1.417049
78.798401	849.553690	7.867238	-0.019439	1.419409
79.177994	852.512466	7.872243	-0.019534	1.421792
79.225970	855.418884	7.877248	-0.019548	1.424086
79.441746	858.421363	7.882253	-0.019602	1.426473
79.680852	861.328963	7.887258	-0.019663	1.428786
79.892931	864.306463	7.892262	-0.019716	1.431146
79.993058	867.252173	7.897267	-0.019743	1.433462
80.137239	870.252407	7.902272	-0.019780	1.435822
80.351715	873.222771	7.907277	-0.019834	1.438165
80.600235	876.209329	7.912282	-0.019897	1.440522
80.884907	879.111638	7.917286	-0.019968	1.442813
81.013466	882.120486	7.922291	-0.020001	1.445163
80.949742	885.128144	7.927296	-0.019988	1.447483
81.212867	888.159251	7.932301	-0.020054	1.449860
81.543213	891.125687	7.937306	-0.020137	1.452193
81.668224	894.118632	7.942310	-0.020169	1.454515
81.851597	897.155432	7.947315	-0.020216	1.456874
82.076659	900.122395	7.952320	-0.020273	1.459182
82.385848	903.133439	7.957325	-0.020350	1.461530
82.569564	906.063848	7.962330	-0.020397	1.463797
82.713858	909.090408	7.967334	-0.020434	1.466129
82.909353	912.055420	7.972339	-0.020484	1.468417
82.993473	915.109254	7.977344	-0.020506	1.470754
83.322863	918.037238	7.982349	-0.020589	1.473023
83.472647	921.067599	7.987354	-0.020627	1.475344
83.603215	924.070206	7.992358	-0.020661	1.477638
83.955570	927.082475	7.997363	-0.020749	1.479963
84.140567	930.016989	8.002368	-0.020796	1.482205
84.283520	933.036411	8.007373	-0.020833	1.484502
84.356922	936.054506	8.012378	-0.020853	1.486785
84.512894	939.088855	8.017382	-0.020893	1.489088
84.950559	942.082873	8.022387	-0.021002	1.491393
84.988530	945.069438	8.027392	-0.021013	1.493638
85.015224	948.182145	8.032397	-0.021021	1.495972
85.227308	951.192408	8.037402	-0.021075	1.498250
85.436125	954.281337	8.042406	-0.021128	1.500582
85.666330	957.265103	8.047411	-0.021186	1.502835
85.918829	960.304678	8.052416	-0.021250	1.505130
86.011432	963.350482	8.057421	-0.021275	1.507405
86.264601	966.413911	8.062426	-0.021338	1.509710
86.483204	969.415627	8.067430	-0.021394	1.511961
86.702544	972.474785	8.072435	-0.021449	1.514251
87.009141	975.484468	8.077440	-0.021526	1.516513
87.231692	978.496577	8.082445	-0.021582	1.518762
87.478571	981.508315	8.087450	-0.021645	1.521010
87.649914	984.469736	8.092454	-0.021688	1.523209
87.708747	987.571790	8.097459	-0.021705	1.525495
87.711170	990.584007	8.102464	-0.021707	1.527703
88.050739	993.676621	8.107469	-0.021792	1.530009
88.090061	996.734125	8.112474	-0.021804	1.532249
88.136496	999.855488	8.117478	-0.021817	1.534534
88.067454	1003.042833	8.122483	-0.021802	1.536848
88.316213	1006.187863	8.127488	-0.021865	1.539168
88.538421	1009.345618	8.132493	-0.021921	1.541489
88.683634	1012.487713	8.137498	-0.021959	1.543787
88.973010	1015.613089	8.142502	-0.022032	1.546086
89.272981	1018.730465	8.147507	-0.022107	1.548378
89.484748	1021.855174	8.152512	-0.022161	1.550660
89.826111	1024.900625	8.157517	-0.022246	1.552898
90.005677	1028.024389	8.162522	-0.022292	1.555169
90.306820	1031.043737	8.167526	-0.022367	1.557377
90.653130	1034.140679	8.172531	-0.022454	1.559642
90.821602	1037.127845	8.177536	-0.022497	1.561805
91.100216	1040.186427	8.182541	-0.022567	1.564028
91.214703	1043.233474	8.187546	-0.022597	1.566221
91.374812	1046.276611	8.192550	-0.022638	1.568413
91.511069	1049.398341	8.197555	-0.022673	1.570655
91.562970	1052.435033	8.202560	-0.022688	1.572824
91.839212	1055.581775	8.207565	-0.022758	1.575094
92.106474	1058.613009	8.212570	-0.022825	1.577278
92.180749	1061.753843	8.217574	-0.022845	1.579513
92.390262	1064.814363	8.222579	-0.022898	1.581705
92.494859	1067.925935	8.227584	-0.022926	1.583918
92.726910	1071.030135	8.232589	-0.022984	1.586136
92.809100	1074.147130	8.237594	-0.023007	1.588344
92.965242	1077.298661	8.242598	-0.023047	1.590581
93.146524	1080.426112	8.247603	-0.023093	1.592801
93.291288	1083.592272	8.252608	-0.023130	1.595041
93.427184	1086.731880	8.257613	-0.023166	1.597258
93.453162	1089.986139	8.262618	-0.023174	1.599540
93.596183	1093.130177	8.267622	-0.023211	1.601754
93.926511	1096.328357	8.272627	-0.023294	1.604025
93.975801	1099.530580	8.277632	-0.023308	1.606264
94.258971	1102.728707	8.282637	-0.023379	1.608523
94.491112	1105.919156	8.287642	-0.023438	1.610768
94.702381	1109.083381	8.292646	-0.023492	1.612989
95.073192	1112.273425	8.297651	-0.023584	1.615242
95.169412	1115.414949	8.302656	-0.023610	1.617428
95.532989	1118.598743	8.307661	-0.023701	1.619671
95.800768	1121.687636	8.312666	-0.023768	1.621834
95.920705	1124.848446	8.317670	-0.023799	1.624027
96.281074	1127.940910	8.322675	-0.023889	1.626197
96.317987	1131.073258	8.327680	-0.023900	1.628355
96.662093	1134.197118	8.332685	-0.023987	1.630539
96.793406	1137.287172	8.337690	-0.024021	1.632674
96.757836	1140.495208	8.342694	-0.024014	1.634867
97.008045	1143.618684	8.347699	-0.024077	1.637031
97.038514	1146.853095	8.352704	-0.024087	1.639244
97.152986	1150.004936	8.357709	-0.024117	1.641407
97.253774	1153.252851	8.362714	-0.024143	1.643631
97.295490	1156.489794	8.367718	-0.024156	1.645838
97.660103	1159.717438	8.372723	-0.024247	1.648071
97.700195	1162.989693	8.377728	-0.024259	1.650296
97.964816	1166.200634	8.382733	-0.024325	1.652501
98.190143	1169.485825	8.387738	-0.024383	1.654749
98.414355	1172.663656	8.392742	-0.024439	1.656921
98.865932	1175.912101	8.397747	-0.024552	1.659163
99.081391	1179.004777	8.402752	-0.024606	1.661271
99.434356	1182.161104	8.407757	-0.024695	1.663434
99.627228	1185.304145	8.412762	-0.024744	1.665568
99.843958	1188.409745	8.417766	-0.024799	1.667676
100.028083	1191.605228	8.422771	-0.024846	1.669839
100.087577	1194.706814	8.427776	-0.024862	1.671922
100.299281	1197.934133	8.432781	-0.024916	1.674104
100.315991	1201.124731	8.437786	-0.024922	1.676237
100.594632	1204.313198	8.442790	-0.024993	1.678394
100.633154	1207.538264	8.447795	-0.025004	1.680546
100.775653	1210.719269	8.452800	-0.025041	1.682678
100.925586	1214.011757	8.457805	-0.025080	1.684882
100.968867	1217.251411	8.462810	-0.025092	1.687037
101.054555	1220.583843	8.467814	-0.025115	1.689255
101.312694	1223.833500	8.472819	-0.025181	1.691433
101.451338	1227.135711	8.477824	-0.025217	1.693631
101.813071	1230.404551	8.482829	-0.025307	1.695828
102.073406	1233.678648	8.487834	-0.025373	1.698014
102.247766	1236.922945	8.492838	-0.025417	1.700169
102.493020	1240.147474	8.497843	-0.025479	1.702315
102.704865	1243.408867	8.502848	-0.025533	1.704480
102.892112	1246.584856	8.507853	-0.025581	1.706583
103.138513	1249.868129	8.512858	-0.025643	1.708760
103.282825	1253.050753	8.517862	-0.025681	1.710858
103.547768	1256.308635	8.522867	-0.025748	1.713014
103.526381	1259.576022	8.527872	-0.025744	1.715145
103.931322	1262.795698	8.532877	-0.025845	1.717286
103.996210	1266.092273	8.537882	-0.025863	1.719439
104.178024	1269.234572	8.542886	-0.025910	1.721501
104.465445	1272.531253	8.547891	-0.025982	1.723672
104.515215	1275.753990	8.552896	-0.025996	1.725768
104.692045	1279.058560	8.557901	-0.026042	1.727927
105.009593	1282.297395	8.562906	-0.026122	1.730055
105.060286	1285.542162	8.567911	-0.026136	1.732158
105.409852	1288.848424	8.572915	-0.026224	1.734327
105.493484	1292.053155	8.577920	-0.026246	1.736402
105.666089	1295.375951	8.582925	-0.026290	1.738559
105.909329	1298.592889	8.587930	-0.026352	1.740653
106.173502	1301.823848	8.592935	-0.026418	1.742755
106.270876	1305.123210	8.597939	-0.026444	1.744882
106.343962	1308.374416	8.602944	-0.026464	1.746972
106.620727	1311.686642	8.607949	-0.026534	1.749120
106.719390	1314.920027	8.612954	-0.026560	1.751197
106.891353	1318.254325	8.617959	-0.026604	1.753343
107.189790	1321.542427	8.622963	-0.026680	1.755470
107.125552	1324.880592	8.627968	-0.026666	1.757589
107.502695	1328.164435	8.632973	-0.026760	1.759716
107.693160	1331.421593	8.637978	-0.026809	1.761804
108.029340	1334.706741	8.642983	-0.026893	1.763923
108.126369	1337.963143	8.647987	-0.026919	1.765996
108.312464	1341.277981	8.652992	-0.026967	1.768113
108.677277	1344.514167	8.657997	-0.027058	1.770196
108.733517	1347.801561	8.663002	-0.027074	1.772277
108.863557	1351.113685	8.668007	-0.027108	1.774380
108.970985	1354.426146	8.673011	-0.027136	1.776477
109.157465	1357.763171	8.678016	-0.027184	1.778596
109.355426	1361.034360	8.683021	-0.027234	1.780671
109.516145	1364.383440	8.688026	-0.027276	1.782790
109.651723	1367.689441	8.693031	-0.027311	1.784876
109.849466	1371.018809	8.698035	-0.027361	1.786981
109.971472	1374.385243	8.703040	-0.027393	1.789099
110.332325	1377.640894	8.708045	-0.027484	1.791169
110.449026	1381.015659	8.713050	-0.027514	1.793286
110.711975	1384.279928	8.718055	-0.027581	1.795347
110.989178	1387.619816	8.723059	-0.027651	1.797453
111.140812	1390.893652	8.728064	-0.027690	1.799504
111.370916	1394.134162	8.733069	-0.027748	1.801540
111.543162	1397.498179	8.738074	-0.027792	1.803644
111.714207	1400.722235	8.743079	-0.027836	1.805658
111.922745	1404.070765	8.748083	-0.027889	1.807752
112.034460	1407.381727	8.753088	-0.027919	1.809810
112.293405	1410.677170	8.758093	-0.027984	1.811870
112.554884	1414.007455	8.763098	-0.028050	1.813950
112.709580	1417.251023	8.768103	-0.028090	1.815963
112.896577	1420.612741	8.773107	-0.028138	1.818051
112.908819	1423.898277	8.778112	-0.028143	1.820072
113.236202	1427.204784	8.783117	-0.028225	1.822134
113.296785	1430.554156	8.788122	-0.028242	1.824194
113.509098	1433.847168	8.793127	-0.028296	1.826233
113.727513	1437.225155	8.798131	-0.028352	1.828321
113.702843	1440.536834	8.803136	-0.028348	1.830343
114.000143	1443.927773	8.808141	-0.028423	1.832442
114.151795	1447.295255	8.813146	-0.028462	1.834511
114.299972	1450.645598	8.818151	-0.028500	1.836566
114.678065	1454.046181	8.823155	-0.028595	1.838671
114.764534	1457.274260	8.828160	-0.028618	1.840642
114.963863	1460.696774	8.833165	-0.028669	1.842739
115.022147	1464.064362	8.838170	-0.028685	1.844787
115.348721	1467.388551	8.843175	-0.028767	1.846832
115.593493	1470.786136	8.848179	-0.028829	1.848911
115.645776	1474.085172	8.853184	-0.028844	1.850910
115.832938	1477.524344	8.858189	-0.028892	1.853004
115.941546	1480.904950	8.863194	-0.028921	1.855054
116.130476	1484.298802	8.868199	-0.028969	1.857116
116.596736	1487.664674	8.873203	-0.029085	1.859185
116.611405	1490.973933	8.878208	-0.029091	1.861176
116.770723	1494.427680	8.883213	-0.029132	1.863264
116.998163	1497.715876	8.888218	-0.029190	1.865258
117.181715	1501.126183	8.893223	-0.029237	1.867318
117.426101	1504.488248	8.898227	-0.029299	1.869353
117.598601	1507.805997	8.903232	-0.029343	1.871353
117.759966	1511.238877	8.908237	-0.029385	1.873418
118.071043	1514.526362	8.913242	-0.029463	1.875407
118.164891	1517.926250	8.918247	-0.029488	1.877442
118.406623	1521.264076	8.923251	-0.029549	1.879451
118.595070	1524.586874	8.928256	-0.029597	1.881444
118.792645	1527.980756	8.933261	-0.029648	1.883478
118.777005	1531.342059	8.938266	-0.029646	1.885471
118.982056	1534.760634	8.943271	-0.029699	1.887516
119.260349	1538.138123	8.948275	-0.029769	1.889541
119.258202	1541.534902	8.953280	-0.029770	1.891550
119.440985	1545.014071	8.958285	-0.029817	1.893622
119.689476	1548.396411	8.963290	-0.029880	1.895641
119.757791	1551.874330	8.968295	-0.029899	1.897697
120.097675	1555.224839	8.973299	-0.029984	1.899701
120.189824	1558.666863	8.978304	-0.030009	1.901734
120.512237	1562.062699	8.983309	-0.030090	1.903758
120.796757	1565.427012	8.988314	-0.030162	1.905759
120.997492	1568.822505	8.993319	-0.030213	1.907768
121.300885	1572.150465	8.998323	-0.030289	1.909744
121.368989	1575.532614	9.003328	-0.030308	1.911729
121.723217	1578.890481	9.008333	-0.030397	1.913724
121.858126	1582.237884	9.013338	-0.030432	1.915690
122.123335	1585.586596	9.018343	-0.030499	1.917667
122.289928	1588.872200	9.023347	-0.030542	1.919597
122.322105	1592.261007	9.028352	-0.030552	1.921572
122.334515	1595.698706	9.033357	-0.030557	1.923573
122.543078	1599.086666	9.038362	-0.030610	1.925559
122.680780	1602.545051	9.043367	-0.030646	1.927578
122.852688	1605.963740	9.048371	-0.030690	1.929575
122.862451	1609.453159	9.053376	-0.030695	1.931597
123.101157	1612.932533	9.058381	-0.030756	1.933631
123.095343	1616.451099	9.063386	-0.030756	1.935664
123.351901	1619.967201	9.068391	-0.030821	1.937716
123.634824	1623.417385	9.073395	-0.030893	1.939730
123.860641	1626.890342	9.078400	-0.030950	1.941750
124.150087	1630.335809	9.083405	-0.031023	1.943758
124.156783	1633.795249	9.088410	-0.031027	1.945748
124.489481	1637.276085	9.093415	-0.031111	1.947775
124.728140	1640.651065	9.098419	-0.031171	1.949732
124.826691	1644.157145	9.103424	-0.031197	1.951750
125.167340	1647.577757	9.108429	-0.031283	1.953737
125.363550	1650.991455	9.113434	-0.031333	1.955707
125.524110	1654.464239	9.118439	-0.031375	1.957704
125.739425	1657.792432	9.123443	-0.031429	1.959622
125.951845	1661.241329	9.128448	-0.031483	1.961607
126.104139	1664.662663	9.133453	-0.031523	1.963569
126.161196	1668.098811	9.138458	-0.031539	1.965529
126.432651	1671.582544	9.143463	-0.031608	1.967533
126.707778	1674.960765	9.148467	-0.031677	1.969474
126.722454	1678.432595	9.153472	-0.031683	1.971445
126.865916	1681.935478	9.158477	-0.031720	1.973443
127.168059	1685.381342	9.163482	-0.031796	1.975419
127.539101	1688.789693	9.168487	-0.031889	1.977378
127.723933	1692.157932	9.173491	-0.031936	1.979297
127.986438	1695.540486	9.178496	-0.032003	1.981228
128.155366	1698.954028	9.183501	-0.032046	1.983168
128.216619	1702.323311	9.188506	-0.032063	1.985071
128.268755	1705.804001	9.193511	-0.032078	1.987035
128.443190	1709.259938	9.198515	-0.032123	1.988993
128.543738	1712.717939	9.203520	-0.032150	1.990943
128.505004	1716.294099	9.208525	-0.032143	1.992947
128.751909	1719.799447	9.213530	-0.032206	1.994933
128.800323	1723.362221	9.218535	-0.032220	1.996932
128.967570	1726.914564	9.223539	-0.032263	1.998934
129.267623	1730.416764	9.228544	-0.032338	2.000916
129.532414	1733.985300	9.233549	-0.032406	2.002930
130.013025	1737.397266	9.238554	-0.032525	2.004873
130.434036	1740.800376	9.243559	-0.032630	2.006804
130.711688	1744.168043	9.248563	-0.032700	2.008701
131.043187	1747.483982	9.253568	-0.032783	2.010572
131.282224	1750.849168	9.258573	-0.032844	2.012462
131.451529	1754.132660	9.263578	-0.032887	2.014299
131.387255	1757.544916	9.268583	-0.032874	2.016186
131.673500	1760.961599	9.273587	-0.032946	2.018103
131.627330	1764.303480	9.278592	-0.032937	2.019949
131.529711	1767.851237	9.283597	-0.032915	2.021904
131.242134	1771.435848	9.288602	-0.032848	2.023861
131.217272	1775.071797	9.293607	-0.032844	2.025867
131.332527	1778.804340	9.298611	-0.032874	2.027934
131.367963	1782.446256	9.303616	-0.032885	2.029944
131.568905	1786.214586	9.308621	-0.032937	2.032034
132.101931	1789.834407	9.313626	-0.033070	2.034066
132.488095	1793.411837	9.318631	-0.033166	2.036062
132.978091	1796.950909	9.323635	-0.033288	2.038043
133.330136	1800.338547	9.328640	-0.033376	2.039928
133.656951	1803.810340	9.333645	-0.033459	2.041855
133.971262	1807.194277	9.338650	-0.033538	2.043731
134.349862	1810.529909	9.343655	-0.033632	2.045584
134.662985	1813.927845	9.348659	-0.033711	2.047465
134.621467	1817.204189	9.353664	-0.033703	2.049249
134.679244	1820.663627	9.358669	-0.033719	2.051140
134.756937	1824.140338	9.363674	-0.033741	2.053039
134.702153	1827.588475	9.368679	-0.033729	2.054912
134.699883	1831.220656	9.373683	-0.033731	2.056886
134.804732	1834.702993	9.378688	-0.033759	2.058786
134.946614	1838.303585	9.383693	-0.033796	2.060751
135.095267	1841.923403	9.388698	-0.033835	2.062724
135.106950	1845.484398	9.393703	-0.033840	2.064654
135.341725	1849.190085	9.398707	-0.033900	2.066677
135.584080	1852.736329	9.403712	-0.033961	2.068613
135.947867	1856.315820	9.408717	-0.034052	2.070574
136.298843	1859.910206	9.413722	-0.034141	2.072540
136.550871	1863.349809	9.418727	-0.034204	2.074414
136.955301	1866.876504	9.423731	-0.034305	2.076344
137.219519	1870.270949	9.428736	-0.034372	2.078190
137.391495	1873.659217	9.433741	-0.034416	2.080025
137.673922	1877.146237	9.438746	-0.034488	2.081919
137.898878	1880.472085	9.443751	-0.034545	2.083721
138.134319	1883.920573	9.448755	-0.034605	2.085587
138.250314	1887.338983	9.453760	-0.034635	2.087427
138.347293	1890.719364	9.458765	-0.034661	2.089243
138.236768	1894.311367	9.463770	-0.034636	2.091156
138.326808	1897.829774	9.468775	-0.034661	2.093042
138.298901	1901.435033	9.473779	-0.034656	2.094964
138.291635	1905.117124	9.478784	-0.034657	2.096927
138.393344	1908.687346	9.483789	-0.034684	2.098836
138.571163	1912.429125	9.488794	-0.034730	2.100841
138.777507	1916.052166	9.493799	-0.034783	2.102783
139.030278	1919.690032	9.498803	-0.034847	2.104735
139.343567	1923.350815	9.503808	-0.034926	2.106701
139.828650	1926.824606	9.508813	-0.035046	2.108579
140.253451	1930.335461	9.513818	-0.035153	2.110470
140.695180	1933.750752	9.518823	-0.035263	2.112311
140.996586	1937.089299	9.523827	-0.035338	2.114099
141.274190	1940.511533	9.528832	-0.035409	2.115927
141.514662	1943.829305	9.533837	-0.035469	2.117696
141.549559	1947.164743	9.538842	-0.035480	2.119458
141.531831	1950.622914	9.543847	-0.035478	2.121280
141.555302	1954.098468	9.548851	-0.035486	2.123111
141.440354	1957.628392	9.553856	-0.035460	2.124960
141.366031	1961.297997	9.558861	-0.035444	2.126884
141.297474	1964.917166	9.563866	-0.035430	2.128779
141.268821	1968.700360	9.568871	-0.035426	2.130762
141.404984	1972.503477	9.573875	-0.035461	2.132766
141.583662	1976.238113	9.578880	-0.035507	2.134735
141.735614	1980.062944	9.583885	-0.035547	2.136747
142.119138	1983.697390	9.588890	-0.035643	2.138675
142.532540	1987.397188	9.593895	-0.035747	2.140637
142.963542	1991.013982	9.598899	-0.035854	2.142555
143.231401	1994.550395	9.603904	-0.035922	2.144418
143.608835	1998.126387	9.608909	-0.036016	2.146308
143.972510	2001.586321	9.613914	-0.036108	2.148134
144.205990	2005.039663	9.618919	-0.036167	2.149947
144.394815	2008.569790	9.623923	-0.036215	2.151794
144.480382	2012.002321	9.628928	-0.036238	2.153582
144.716747	2015.538301	9.633933	-0.036298	2.155433
144.882954	2019.043357	9.638938	-0.036341	2.157261
144.866575	2022.490597	9.643943	-0.036340	2.159044
144.995192	2026.121496	9.648947	-0.036373	2.160932
144.981210	2029.696039	9.653952	-0.036372	2.162778
145.072168	2033.328175	9.658957	-0.036397	2.164660
145.099545	2037.098438	9.663962	-0.036406	2.166608
145.554379	2040.586917	9.668967	-0.036519	2.168438
145.753669	2044.280854	9.673971	-0.036571	2.170355
146.044395	2047.876996	9.678976	-0.036644	2.172226
146.209180	2051.435238	9.683981	-0.036686	2.174067
146.485652	2055.054856	9.688986	-0.036756	2.175946
146.627155	2058.586284	9.693991	-0.036793	2.177768
146.809951	2062.174766	9.698995	-0.036840	2.179621
146.923235	2065.822468	9.704000	-0.036870	2.181498
147.130062	2069.299854	9.709005	-0.036923	2.183293
147.213865	2073.003286	9.714010	-0.036946	2.185193
147.306357	2076.609177	9.719015	-0.036971	2.187042
147.431133	2080.232111	9.724019	-0.037004	2.188901
147.482852	2083.987457	9.729024	-0.037019	2.190821
147.627361	2087.659387	9.734029	-0.037057	2.192702
147.967921	2091.351783	9.739034	-0.037142	2.194606
148.377513	2094.995185	9.744039	-0.037245	2.196489
148.684840	2098.460655	9.749043	-0.037322	2.198272
148.941571	2102.061602	9.754048	-0.037387	2.200119
149.210511	2105.607399	9.759053	-0.037455	2.201937
149.603341	2109.065275	9.764058	-0.037553	2.203718
149.639781	2112.595123	9.769063	-0.037564	2.205509
149.872537	2116.108780	9.774067	-0.037624	2.207304
149.972456	2119.614874	9.779072	-0.037650	2.209085
149.997544	2123.234918	9.784077	-0.037659	2.210916
150.157311	2126.802133	9.789082	-0.037700	2.212729
150.128068	2130.427441	9.794087	-0.037695	2.214556
150.247650	2134.144440	9.799091	-0.037727	2.216439
150.155958	2137.744845	9.804096	-0.037707	2.218247
150.312140	2141.529259	9.809101	-0.037748	2.220162
150.571983	2145.258394	9.814106	-0.037814	2.222056
150.643906	2148.948529	9.819111	-0.037834	2.223915
150.870757	2152.777482	9.824115	-0.037891	2.225853
151.192562	2156.424083	9.829120	-0.037972	2.227704
151.564997	2160.092293	9.834125	-0.038066	2.229567
151.990255	2163.755084	9.839130	-0.038172	2.231430
152.168723	2167.248968	9.844135	-0.038218	2.233191
152.517285	2170.897885	9.849139	-0.038306	2.235038
152.826243	2174.375797	9.854144	-0.038383	2.236797
152.908261	2177.854831	9.859149	-0.038406	2.238539
153.161793	2181.440270	9.864154	-0.038470	2.240344
153.240862	2184.938129	9.869159	-0.038491	2.242093
153.302460	2188.536382	9.874163	-0.038509	2.243889
153.399141	2192.195018	9.879168	-0.038535	2.245716
153.577194	2195.749147	9.884173	-0.038581	2.247495
153.682219	2199.408543	9.889178	-0.038609	2.249320
153.526720	2203.162989	9.894183	-0.038573	2.251173
153.734555	2206.853545	9.899187	-0.038626	2.253017
153.909908	2210.636876	9.904192	-0.038672	2.254904
154.151735	2214.361677	9.909197	-0.038733	2.256764
154.281557	2218.065582	9.914202	-0.038767	2.258605
154.471278	2221.827202	9.919207	-0.038816	2.260477
154.947414	2225.449957	9.924211	-0.038935	2.262298
155.245336	2229.057151	9.929216	-0.039010	2.264097
155.537392	2232.717794	9.934221	-0.039084	2.265921
155.930571	2236.161890	9.939226	-0.039182	2.267644
156.180280	2239.668151	9.944231	-0.039245	2.269386
156.522696	2243.226281	9.949235	-0.039331	2.271159
156.640388	2246.624260	9.954240	-0.039362	2.272837
156.736275	2250.174817	9.959245	-0.039388	2.274588
156.674386	2253.790778	9.964250	-0.039375	2.276359
156.682748	2257.260904	9.969255	-0.039380	2.278061
156.700497	2261.022340	9.974259	-0.039386	2.279906
156.619685	2264.743573	9.979264	-0.039369	2.281723
156.644619	2268.478526	9.984269	-0.039378	2.283552
156.743336	2272.378381	9.989274	-0.039404	2.285465
156.827311	2276.143125	9.994279	-0.039427	2.287310
157.198913	2279.984844	9.999283	-0.039521	2.289208
157.521459	2283.802955	10.004288	-0.039602	2.291091
157.839994	2287.469091	10.009293	-0.039682	2.292898
158.270556	2291.206746	10.014298	-0.039790	2.294745
158.676546	2294.760082	10.019303	-0.039891	2.296499
159.036957	2298.243792	10.024307	-0.039982	2.298216
159.457323	2301.793493	10.029312	-0.040087	2.299966
159.544060	2305.253110	10.034317	-0.040110	2.301651
159.890178	2308.715561	10.039322	-0.040197	2.303352
159.992465	2312.186396	10.044327	-0.040224	2.305041
159.923198	2315.723216	10.049331	-0.040209	2.306750
160.031883	2319.263242	10.054336	-0.040238	2.308470
159.990019	2322.948040	10.059341	-0.040230	2.310249
159.935668	2326.635658	10.064346	-0.040220	2.312028
159.887394	2330.386440	10.069351	-0.040210	2.313836
159.875792	2334.293371	10.074355	-0.040210	2.315720
159.930082	2338.018807	10.079360	-0.040226	2.317519
160.292435	2341.876197	10.084365	-0.040317	2.319400
160.627994	2345.678628	10.089370	-0.040401	2.321251
160.631385	2349.437783	10.094375	-0.040404	2.323059
161.102452	2353.266422	10.099379	-0.040522	2.324928
161.335741	2356.978448	10.104384	-0.040581	2.326725
161.902076	2360.589353	10.109389	-0.040722	2.328492
162.225650	2364.249151	10.114394	-0.040804	2.330266
162.451431	2367.778932	10.119399	-0.040861	2.331971
162.875520	2371.325234	10.124403	-0.040967	2.333694
163.058115	2374.896878	10.129408	-0.041014	2.335414
163.103283	2378.332868	10.134413	-0.041027	2.337059
163.289131	2381.945958	10.139418	-0.041075	2.338796
163.324096	2385.533520	10.144423	-0.041086	2.340511
163.398786	2389.085286	10.149427	-0.041106	2.342209
163.336272	2392.741259	10.154432	-0.041094	2.343948

163.399108	2396.414863	10.159437	-0.041111	2.345701
163.456860	2399.927815	10.164442	-0.041128	2.347376
163.673594	2403.527598	10.169447	-0.041183	2.349101
163.853961	2407.079156	10.174451	-0.041229	2.350800
163.931727	2410.506539	10.179456	-0.041251	2.352432
164.205955	2413.946738	10.184461	-0.041320	2.354081
164.484482	2417.350030	10.189466	-0.041390	2.355711
164.658911	2420.474286	10.194471	-0.041435	2.357202
164.977722	2423.731750	10.199475	-0.041515	2.358764
165.234329	2426.897003	10.204480	-0.041579	2.360277
165.498587	2429.881480	10.209485	-0.041646	2.361704
165.643635	2432.923771	10.214490	-0.041683	2.363151
165.778345	2435.888937	10.219495	-0.041718	2.364560
165.961142	2438.850532	10.224499	-0.041765	2.365969
165.901923	2441.707278	10.229504	-0.041752	2.367313
165.980941	2444.658243	10.234509	-0.041773	2.368709
166.140966	2447.606457	10.239514	-0.041814	2.370108
166.110011	2450.420892	10.244519	-0.041808	2.371432
166.086518	2453.347411	10.249523	-0.041805	2.372808
166.155768	2456.245114	10.254528	-0.041823	2.374175
166.402724	2459.092751	10.259533	-0.041885	2.375528
166.548736	2461.757633	10.264538	-0.041923	2.376789
166.693769	2464.484922	10.269543	-0.041960	2.378079
166.985484	2467.182464	10.274547	-0.042033	2.379362
167.205674	2469.807238	10.279552	-0.042088	2.380606
167.392586	2472.210486	10.284557	-0.042136	2.381744
167.880168	2474.681774	10.289562	-0.042256	2.382931
167.975069	2477.040250	10.294567	-0.042281	2.384041
168.334086	2479.363011	10.299571	-0.042370	2.385150
168.438316	2481.540765	10.304576	-0.042397	2.386175
168.443441	2483.727777	10.309581	-0.042399	2.387198
168.604716	2485.969469	10.314586	-0.042440	2.388256
168.644135	2488.141788	10.319591	-0.042451	2.389273
168.645854	2490.374519	10.324595	-0.042453	2.390317
168.868628	2492.469501	10.329600	-0.042509	2.391308
168.821361	2494.530277	10.334605	-0.042498	2.392267
168.790721	2496.723316	10.339610	-0.042492	2.393289
168.712910	2498.879607	10.344615	-0.042475	2.394290
168.833365	2501.056469	10.349619	-0.042505	2.395312
169.027398	2503.055667	10.354624	-0.042554	2.396255
169.080447	2505.030206	10.359629	-0.042568	2.397177
169.142230	2507.129159	10.364634	-0.042584	2.398158
169.309423	2509.123729	10.369639	-0.042627	2.399096
169.562140	2511.079698	10.374643	-0.042689	2.400021
169.616107	2512.968328	10.379648	-0.042704	2.400902
169.783567	2514.753677	10.384653	-0.042746	2.401742
169.912850	2516.615929	10.389658	-0.042778	2.402615
170.045803	2518.407522	10.394663	-0.042812	2.403455
170.221534	2520.180712	10.399667	-0.042856	2.404289
170.316791	2521.931157	10.404672	-0.042880	2.405107
170.331489	2523.578091	10.409677	-0.042885	2.405872
170.507662	2525.205693	10.414682	-0.042929	2.406637
170.459650	2526.824707	10.419687	-0.042918	2.407385
170.581318	2528.521346	10.424691	-0.042949	2.408179
170.686896	2530.141389	10.429696	-0.042975	2.408936
170.667800	2531.706512	10.434701	-0.042972	2.409660
170.823712	2533.384416	10.439706	-0.043011	2.410446
170.888595	2534.813802	10.444711	-0.043027	2.411112
170.923084	2536.314085	10.449715	-0.043037	2.411808
171.071911	2537.853744	10.454720	-0.043074	2.412529
171.121850	2539.358428	10.459725	-0.043087	2.413228
171.293861	2540.813834	10.464730	-0.043130	2.413911
171.358039	2542.221099	10.469735	-0.043146	2.414566
171.588248	2543.584111	10.474739	-0.043203	2.415209
171.597738	2544.933656	10.479744	-0.043206	2.415833
171.607109	2546.097405	10.484749	-0.043209	2.416371
171.709054	2547.441700	10.489754	-0.043235	2.416998
171.707641	2548.716515	10.494759	-0.043235	2.417587
171.945021	2549.995582	10.499763	-0.043294	2.418191
171.744470	2551.295712	10.504768	-0.043246	2.418779
171.766339	2552.559152	10.509773	-0.043252	2.419364
171.849567	2553.920635	10.514778	-0.043273	2.419996
171.843217	2555.204071	10.519783	-0.043272	2.420588
171.977048	2556.300091	10.524787	-0.043305	2.421101
171.885150	2557.510246	10.529792	-0.043284	2.421654
172.002522	2558.722569	10.534797	-0.043313	2.422219
172.308961	2559.888413	10.539802	-0.043388	2.422774
172.286391	2561.112630	10.544807	-0.043383	2.423336
172.506913	2562.142785	10.549811	-0.043438	2.423823
172.630020	2563.246733	10.554816	-0.043469	2.424339
172.917821	2564.188799	10.559821	-0.043539	2.424788
173.038549	2565.176848	10.564826	-0.043569	2.425250
173.028849	2566.056163	10.569831	-0.043567	2.425654
172.999163	2566.877338	10.574835	-0.043560	2.426030
172.993679	2567.789670	10.579840	-0.043560	2.426450
172.961014	2568.667463	10.584845	-0.043552	2.426852
172.960234	2569.737691	10.589850	-0.043552	2.427344
172.921731	2570.600898	10.594855	-0.043543	2.427739
173.129947	2571.551028	10.599859	-0.043595	2.428187
173.102855	2572.506533	10.604864	-0.043589	2.428625
172.989368	2573.333460	10.609869	-0.043561	2.428999
173.072759	2574.325445	10.614874	-0.043582	2.429459
173.034205	2575.264831	10.619879	-0.043573	2.429888
173.252818	2576.102792	10.624883	-0.043627	2.430286
173.436263	2576.944158	10.629888	-0.043672	2.430682
173.402442	2577.652296	10.634893	-0.043664	2.431006
173.431220	2578.461375	10.639898	-0.043672	2.431379
173.425483	2579.250969	10.644903	-0.043671	2.431741
173.688372	2579.981547	10.649907	-0.043735	2.432091
173.861410	2580.690500	10.654912	-0.043778	2.432426
173.769467	2581.375585	10.659917	-0.043755	2.432735
173.984290	2582.102465	10.664922	-0.043808	2.433080
173.993764	2582.720988	10.669927	-0.043811	2.433365
174.112596	2583.326660	10.674931	-0.043840	2.433649
174.175703	2583.891519	10.679936	-0.043856	2.433912
174.221381	2584.432007	10.684941	-0.043867	2.434162
174.180859	2585.058573	10.689946	-0.043857	2.434447
174.210188	2585.694788	10.694951	-0.043865	2.434740
174.256215	2586.255851	10.699955	-0.043876	2.435000
174.138250	2586.826634	10.704960	-0.043848	2.435255
174.026588	2587.454263	10.709965	-0.043821	2.435537
174.222002	2587.985832	10.714970	-0.043868	2.435791
174.096907	2588.415952	10.719975	-0.043838	2.435981
173.994798	2589.054183	10.724979	-0.043813	2.436268
173.986613	2589.703937	10.729984	-0.043812	2.436565
174.002500	2590.348469	10.734989	-0.043816	2.436861
174.275379	2591.000818	10.739994	-0.043883	2.437175
174.261588	2591.525049	10.744999	-0.043879	2.437415
174.275033	2592.058306	10.750003	-0.043883	2.437659
174.466722	2592.569705	10.755008	-0.043930	2.437904
174.607244	2593.042011	10.760013	-0.043964	2.438128
174.586431	2593.612307	10.765018	-0.043959	2.438388
174.664419	2593.933721	10.770023	-0.043978	2.438540
174.779026	2594.374855	10.775027	-0.044007	2.438748
174.784400	2594.851411	10.780032	-0.044008	2.438966
174.647434	2595.137512	10.785037	-0.043975	2.439090
174.592004	2595.817277	10.790042	-0.043961	2.439397
174.542305	2596.231367	10.795047	-0.043949	2.439584
174.563336	2596.565292	10.800051	-0.043954	2.439738
174.673774	2597.146025	10.805056	-0.043982	2.440010
174.601783	2597.591573	10.810061	-0.043964	2.440210
174.780744	2597.896602	10.815066	-0.044008	2.440359
174.659914	2598.560047	10.820071	-0.043979	2.440656
174.766877	2598.828107	10.825075	-0.044005	2.440784
174.968849	2599.046476	10.830080	-0.044054	2.440895
175.010215	2599.459712	10.835085	-0.044064	2.441086
175.103598	2599.715131	10.840090	-0.044087	2.441208
175.140283	2600.096899	10.845095	-0.044096	2.441385
175.158041	2600.368315	10.850099	-0.044100	2.441510
175.283821	2600.488766	10.855104	-0.044131	2.441572
175.304765	2601.052096	10.860109	-0.044136	2.441831
175.442215	2601.062232	10.865114	-0.044170	2.441843
175.561877	2601.058127	10.870119	-0.044199	2.441847
175.540200	2601.688824	10.875123	-0.044194	2.442135
175.643056	2601.689825	10.880128	-0.044219	2.442141
175.392554	2601.694904	10.885133	-0.044157	2.442129
175.418927	2602.007715	10.890138	-0.044164	2.442273
175.253451	2602.414064	10.895143	-0.044123	2.442450
175.143362	2602.437703	10.900147	-0.044096	2.442455
175.241679	2603.063970	10.905152	-0.044120	2.442746
175.253591	2603.103624	10.910157	-0.044123	2.442765
175.209137	2603.433605	10.915162	-0.044112	2.442913
175.170681	2603.840090	10.920167	-0.044103	2.443097
175.323151	2603.823840	10.925171	-0.044140	2.443098
175.416317	2604.388378	10.930176	-0.044163	2.443361
175.307195	2604.477499	10.935181	-0.044136	2.443396
175.492340	2604.488060	10.940186	-0.044181	2.443411
175.438251	2604.977156	10.945191	-0.044168	2.443631
175.438664	2605.167884	10.950195	-0.044168	2.443718
175.483071	2605.165704	10.955200	-0.044179	2.443719
175.471128	2605.420808	10.960205	-0.044176	2.443835
175.623752	2605.847116	10.965210	-0.044213	2.444038
175.642336	2605.823445	10.970215	-0.044218	2.444029
175.698493	2605.807545	10.975219	-0.044231	2.444024
175.765093	2605.818410	10.980224	-0.044247	2.444033
175.752305	2606.306409	10.985229	-0.044244	2.444255
175.688288	2606.556230	10.990234	-0.044228	2.444366
175.737498	2606.522710	10.995239	-0.044240	2.444353
175.683627	2606.537171	11.000243	-0.044227	2.444356
175.790356	2606.538415	11.005248	-0.044253	2.444363
175.743293	2606.693909	11.010253	-0.044241	2.444431
175.755844	2607.212090	11.015258	-0.044244	2.444669
175.658480	2607.191799	11.020263	-0.044220	2.444654
175.546580	2607.212916	11.025267	-0.044193	2.444657
175.749571	2607.193667	11.030272	-0.044242	2.444660
175.655034	2607.437634	11.035277	-0.044219	2.444766
175.692369	2607.905032	11.040282	-0.044228	2.444981
175.796305	2607.867644	11.045287	-0.044254	2.444970
175.765056	2607.874933	11.050291	-0.044246	2.444971
175.916040	2607.878712	11.055296	-0.044282	2.444981
175.963250	2607.849873	11.060301	-0.044294	2.444971
176.110474	2607.855816	11.065306	-0.044329	2.444982
176.118824	2607.839867	11.070311	-0.044331	2.444975
176.102107	2607.837540	11.075315	-0.044327	2.444973
176.173168	2607.831810	11.080320	-0.044344	2.444974
175.997263	2607.838077	11.085325	-0.044301	2.444967
175.976348	2607.868736	11.090330	-0.044296	2.444980
175.893333	2608.315128	11.095335	-0.044275	2.445179
175.933270	2608.560028	11.100339	-0.044285	2.445293
175.933915	2608.570653	11.105344	-0.044285	2.445298
175.910340	2608.547951	11.110349	-0.044279	2.445286
175.988551	2608.568716	11.115354	-0.044298	2.445300
176.032318	2608.546445	11.120359	-0.044309	2.445292
176.029995	2608.555033	11.125363	-0.044308	2.445296
176.169627	2608.545484	11.130368	-0.044342	2.445299
176.163954	2608.525069	11.135373	-0.044340	2.445289
176.308149	2608.536170	11.140378	-0.044375	2.445302
176.389802	2608.506255	11.145383	-0.044395	2.445293
176.440111	2608.499950	11.150387	-0.044407	2.445293
176.422753	2608.512061	11.155392	-0.044402	2.445297
176.313281	2608.501765	11.160397	-0.044376	2.445287
176.291377	2608.160863	11.165402	-0.044370	2.445130
176.080983	2608.232147	11.170407	-0.044318	2.445151
176.026993	2608.552654	11.175411	-0.044305	2.445294
176.026959	2608.573961	11.180416	-0.044305	2.445304
175.856622	2608.560402	11.185421	-0.044263	2.445288
175.882373	2608.581678	11.190426	-0.044269	2.445299
175.842997	2608.571823	11.195431	-0.044259	2.445292
175.817052	2608.567872	11.200435	-0.044253	2.445289
175.894411	2608.589765	11.205440	-0.044271	2.445303
175.875768	2608.556552	11.210445	-0.044267	2.445287
176.146822	2608.560909	11.215450	-0.044333	2.445304
176.123788	2608.544297	11.220455	-0.044327	2.445295
176.409817	2608.507184	11.225459	-0.044396	2.445294
176.453673	2608.519438	11.230464	-0.044407	2.445302
176.553503	2608.462369	11.235469	-0.044431	2.445281
176.692965	2608.487719	11.240474	-0.044465	2.445300
176.608032	2608.466258	11.245479	-0.044444	2.445286
176.549137	2607.893205	11.250483	-0.044429	2.445021
176.554322	2607.804811	11.255488	-0.044430	2.444981
176.558019	2607.771987	11.260493	-0.044431	2.444966
176.470810	2607.805511	11.265498	-0.044409	2.444977
176.344887	2607.808828	11.270503	-0.044378	2.444971
176.308070	2607.811660	11.275507	-0.044369	2.444970
176.334814	2607.828026	11.280512	-0.044375	2.444979
176.257070	2607.809465	11.285517	-0.044356	2.444966
176.166895	2607.840270	11.290522	-0.044334	2.444975
176.145658	2607.823786	11.295527	-0.044329	2.444967
176.129739	2607.828542	11.300531	-0.044324	2.444968
176.240108	2607.834484	11.305536	-0.044351	2.444977
176.286087	2607.469031	11.310541	-0.044362	2.444812
176.271202	2607.141709	11.315546	-0.044358	2.444662
176.419478	2607.094873	11.320551	-0.044394	2.444649
176.458384	2607.106693	11.325555	-0.044403	2.444656
176.548936	2607.098952	11.330560	-0.044425	2.444658
176.489122	2607.076867	11.335565	-0.044410	2.444644
176.685405	2607.091930	11.340570	-0.044458	2.444662
176.682556	2606.824021	11.345575	-0.044457	2.444539
176.524399	2606.424454	11.350579	-0.044418	2.444348
176.684181	2606.427162	11.355584	-0.044457	2.444358
176.480248	2606.432375	11.360589	-0.044407	2.444349
176.448056	2606.458236	11.365594	-0.044399	2.444359
176.539538	2606.426112	11.370599	-0.044421	2.444349
176.489939	2605.934877	11.375603	-0.044408	2.444122
176.496441	2605.726394	11.380608	-0.044409	2.444027
176.419603	2605.712524	11.385613	-0.044390	2.444017
176.425335	2605.742010	11.390618	-0.044391	2.444031
176.456938	2605.724629	11.395623	-0.044399	2.444024
176.481663	2605.717648	11.400627	-0.044405	2.444022
176.495702	2605.739639	11.405632	-0.044408	2.444033
176.486041	2605.345832	11.410637	-0.044405	2.443853
176.709367	2605.026806	11.415642	-0.044459	2.443719
176.545624	2605.025134	11.420647	-0.044419	2.443709
176.493069	2605.026450	11.425651	-0.044406	2.443707
176.498128	2605.053964	11.430656	-0.044407	2.443720
176.595662	2605.007443	11.435661	-0.044431	2.443704
176.830011	2604.429457	11.440666	-0.044487	2.443453
176.643835	2604.328674	11.445671	-0.044442	2.443396
176.666918	2604.323258	11.450675	-0.044447	2.443395
176.648659	2604.343330	11.455680	-0.044442	2.443403
176.556725	2603.968778	11.460685	-0.044419	2.443227
176.575015	2603.691985	11.465690	-0.044423	2.443102
176.607979	2603.663169	11.470695	-0.044431	2.443090
176.469137	2603.670120	11.475699	-0.044397	2.443086
176.460150	2603.704788	11.480704	-0.044395	2.443101
176.462154	2603.663651	11.485709	-0.044395	2.443082
176.412737	2603.395047	11.490714	-0.044383	2.442957
176.278336	2602.972408	11.495719	-0.044349	2.442756
176.400352	2602.961881	11.500723	-0.044379	2.442758
176.517959	2602.964184	11.505728	-0.044407	2.442766
176.708237	2602.908867	11.510733	-0.044454	2.442751
176.785152	2602.929062	11.515738	-0.044472	2.442764
176.784452	2602.556921	11.520743	-0.044472	2.442594
176.851740	2602.210412	11.525747	-0.044488	2.442439
176.795506	2602.244627	11.530752	-0.044474	2.442452
176.870986	2602.098655	11.535757	-0.044492	2.442389
176.804670	2601.537097	11.540762	-0.044475	2.442129
176.757652	2601.543218	11.545767	-0.044463	2.442129
176.697090	2601.531167	11.550771	-0.044448	2.442120
176.799603	2601.275061	11.555776	-0.044473	2.442009
176.555060	2600.898336	11.560781	-0.044413	2.441823
176.588412	2600.911483	11.565786	-0.044421	2.441831
176.589168	2600.904665	11.570791	-0.044421	2.441828
176.500400	2600.901146	11.575795	-0.044399	2.441821
176.669857	2600.607278	11.580800	-0.044440	2.441696
176.387743	2600.205105	11.585805	-0.044370	2.441496
176.444696	2600.224275	11.590810	-0.044384	2.441508
176.425007	2600.224366	11.595815	-0.044379	2.441507
176.331102	2600.212594	11.600819	-0.044356	2.441497
176.419854	2600.223486	11.605824	-0.044377	2.441506
176.410058	2600.196092	11.610829	-0.044375	2.441493
176.590582	2600.199654	11.615834	-0.044419	2.441505
176.735226	2599.694419	11.620839	-0.044453	2.441282
176.721570	2599.486903	11.625843	-0.044450	2.441186
176.841539	2599.497433	11.630848	-0.044479	2.441197
176.921677	2599.356425	11.635853	-0.044498	2.441137
176.974726	2598.801222	11.640858	-0.044510	2.440886
176.998567	2598.789228	11.645863	-0.044516	2.440882
176.791247	2598.599002	11.650867	-0.044465	2.440784
176.634315	2598.341606	11.655872	-0.044426	2.440657
176.569088	2598.320238	11.660877	-0.044410	2.440644
176.407357	2598.357973	11.665882	-0.044370	2.440652
176.536454	2598.332577	11.670887	-0.044402	2.440648
176.442389	2598.341657	11.675891	-0.044379	2.440646
176.389466	2598.352592	11.680896	-0.044365	2.440648
176.169050	2597.645937	11.685901	-0.044311	2.440313
176.299691	2597.649019	11.690906	-0.044343	2.440322
176.349137	2597.637344	11.695911	-0.044354	2.440319
176.288168	2597.627752	11.700915	-0.044339	2.440311
176.449876	2597.634245	11.705920	-0.044379	2.440323
176.444012	2597.614240	11.710925	-0.044377	2.440313
176.640563	2597.609356	11.715930	-0.044425	2.440322
176.757112	2597.587524	11.720935	-0.044453	2.440318
176.701794	2597.020013	11.725939	-0.044439	2.440056
176.827952	2596.896359	11.730944	-0.044469	2.440006
176.860699	2596.873395	11.735949	-0.044477	2.439997
176.993778	2596.538729	11.740954	-0.044509	2.439852
176.919895	2596.166667	11.745959	-0.044491	2.439677
176.911209	2596.155879	11.750963	-0.044488	2.439672
176.848165	2595.873962	11.755968	-0.044473	2.439539
176.687154	2595.522038	11.760973	-0.044433	2.439369
176.743759	2595.551114	11.765978	-0.044447	2.439386
176.746113	2595.540698	11.770983	-0.044447	2.439381
176.637765	2595.163331	11.775987	-0.044420	2.439202
176.535878	2594.854111	11.780992	-0.044395	2.439055
176.483206	2594.830569	11.785997	-0.044382	2.439041
176.554191	2594.854148	11.791002	-0.044399	2.439056
176.514694	2594.848453	11.796007	-0.044389	2.439051
176.588483	2594.838268	11.801011	-0.044407	2.439050
176.643334	2594.346408	11.806016	-0.044419	2.438828
176.527707	2594.152122	11.811021	-0.044391	2.438733
176.611511	2594.165278	11.816026	-0.044411	2.438744
176.737212	2594.133806	11.821031	-0.044442	2.438736
176.835878	2593.923838	11.826035	-0.044465	2.438645
176.855365	2593.454746	11.831040	-0.044470	2.438432
176.638283	2593.450080	11.836045	-0.044416	2.438417
176.553747	2593.484620	11.841050	-0.044396	2.438429
176.576273	2593.471767	11.846055	-0.044401	2.438424
176.476208	2592.885237	11.851059	-0.044376	2.438150
176.409081	2592.847775	11.856064	-0.044359	2.438129
176.297053	2592.834157	11.861069	-0.044332	2.438116
176.471840	2592.826408	11.866074	-0.044374	2.438122
176.535852	2592.810582	11.871079	-0.044389	2.438119
176.516665	2592.806528	11.876083	-0.044385	2.438116
176.659109	2592.815648	11.881088	-0.044419	2.438128
176.708248	2592.172954	11.886093	-0.044430	2.437836
176.843401	2592.059202	11.891098	-0.044463	2.437792
177.031212	2592.028395	11.896103	-0.044509	2.437788
176.933130	2591.580851	11.901107	-0.044484	2.437577
177.019303	2591.348621	11.906112	-0.044505	2.437476
176.878373	2591.328628	11.911117	-0.044470	2.437459
176.925305	2590.851668	11.916122	-0.044481	2.437243
176.781448	2590.674237	11.921127	-0.044446	2.437154
176.705279	2590.670268	11.926131	-0.044427	2.437147
176.693742	2590.668700	11.931136	-0.044424	2.437146
176.658769	2590.018383	11.936141	-0.044415	2.436846
176.718666	2590.037813	11.941146	-0.044429	2.436858
176.663495	2590.029261	11.946151	-0.044416	2.436851
176.626957	2590.035832	11.951155	-0.044406	2.436852
176.536363	2589.753170	11.956160	-0.044384	2.436718
176.525551	2589.329005	11.961165	-0.044381	2.436523
176.693560	2589.331591	11.966170	-0.044422	2.436533
176.684397	2589.330418	11.971175	-0.044419	2.436532
176.631155	2589.317206	11.976179	-0.044406	2.436523
176.526074	2589.062915	11.981184	-0.044380	2.436401
176.545611	2588.645351	11.986189	-0.044384	2.436210
176.615759	2588.672047	11.991194	-0.044401	2.436226
176.559859	2588.670403	11.996199	-0.044387	2.436223
176.308276	2588.679854	12.001203	-0.044326	2.436213
176.580054	2588.671909	12.006208	-0.044392	2.436224
176.368837	2588.665570	12.011213	-0.044340	2.436210
176.523123	2588.129864	12.016218	-0.044377	2.435973
176.474510	2587.994150	12.021223	-0.044365	2.435908
176.473348	2587.973955	12.026227	-0.044364	2.435898
176.698576	2587.976750	12.031232	-0.044419	2.435912
176.801146	2587.932068	12.036237	-0.044444	2.435897
176.845430	2587.569491	12.041242	-0.044454	2.435734
176.857573	2587.488079	12.046247	-0.044457	2.435697
176.878817	2587.476411	12.051251	-0.044462	2.435693
176.891429	2587.047541	12.056256	-0.044465	2.435497
176.836924	2586.767827	12.061261	-0.044451	2.435365
177.005502	2586.759764	12.066266	-0.044492	2.435371
176.893661	2586.320148	12.071271	-0.044464	2.435163
176.886066	2586.064075	12.076275	-0.044462	2.435045
176.753958	2586.117304	12.081280	-0.044429	2.435062
176.704707	2585.977636	12.086285	-0.044417	2.434996
176.583270	2585.439161	12.091290	-0.044387	2.434742
176.485873	2585.437109	12.096295	-0.044363	2.434736
176.419572	2585.424480	12.101299	-0.044346	2.434726
176.343861	2585.462359	12.106304	-0.044328	2.434739
176.315640	2585.437623	12.111309	-0.044320	2.434726
176.337542	2585.453796	12.116314	-0.044326	2.434735
176.382278	2585.451881	12.121319	-0.044336	2.434736
176.531476	2585.403938	12.126323	-0.044373	2.434723
176.624221	2584.770799	12.131328	-0.044395	2.434437
176.611255	2584.742175	12.136333	-0.044391	2.434424
176.829243	2584.745809	12.141338	-0.044444	2.434437
176.797830	2584.740869	12.146343	-0.044436	2.434433
176.859371	2584.041801	12.151347	-0.044451	2.434116
176.939664	2584.019574	12.156352	-0.044470	2.434110
176.958838	2583.985355	12.161357	-0.044475	2.434096
177.074436	2583.341425	12.166362	-0.044502	2.433807
176.909675	2583.329175	12.171367	-0.044462	2.433792
176.866058	2583.208643	12.176371	-0.044451	2.433734
176.921631	2582.674515	12.181376	-0.044464	2.433492
176.751684	2582.671069	12.186381	-0.044422	2.433481
176.696193	2582.693556	12.191386	-0.044408	2.433488
176.574465	2582.437554	12.196391	-0.044378	2.433364
176.458805	2582.034522	12.201395	-0.044349	2.433173
176.367580	2582.065766	12.206400	-0.044327	2.433182
176.306519	2582.050139	12.211405	-0.044312	2.433171
176.415322	2582.055416	12.216410	-0.044338	2.433180
176.510753	2582.031694	12.221415	-0.044361	2.433174
176.532891	2582.014820	12.226419	-0.044366	2.433167
176.475024	2582.051204	12.231424	-0.044352	2.433181
176.551437	2581.587139	12.236429	-0.044370	2.432972
176.745503	2581.285742	12.241434	-0.044417	2.432845
176.815873	2581.284111	12.246439	-0.044434	2.432848
176.622796	2581.284165	12.251443	-0.044387	2.432837
176.796229	2580.903299	12.256448	-0.044429	2.432672
176.579213	2580.593645	12.261453	-0.044375	2.432518
176.592612	2580.616273	12.266458	-0.044378	2.432529
176.608937	2580.610653	12.271463	-0.044382	2.432527
176.720864	2580.526761	12.276467	-0.044409	2.432495
176.873654	2579.904574	12.281472	-0.044446	2.432218
176.757146	2579.890247	12.286477	-0.044417	2.432204
176.716427	2579.916719	12.291482	-0.044407	2.432214
176.730069	2579.676408	12.296487	-0.044410	2.432105
176.581235	2579.256542	12.301491	-0.044373	2.431904
176.551956	2579.279583	12.306496	-0.044366	2.431912
176.580393	2579.256170	12.311501	-0.044373	2.431903
176.545348	2579.284672	12.316506	-0.044364	2.431914
176.595889	2579.253474	12.321511	-0.044376	2.431903
176.428017	2578.568692	12.326515	-0.044334	2.431579
176.575870	2578.578386	12.331520	-0.044370	2.431592
176.415850	2578.566634	12.336525	-0.044331	2.431577
176.550852	2578.570408	12.341530	-0.044364	2.431587
176.577910	2578.574706	12.346535	-0.044370	2.431590
176.544974	2578.557726	12.351539	-0.044362	2.431580
176.505654	2577.953988	12.356544	-0.044351	2.431301
176.691870	2577.863822	12.361549	-0.044397	2.431270
176.857594	2577.859101	12.366554	-0.044437	2.431277
176.727280	2577.879107	12.371559	-0.044405	2.431279
176.768598	2577.344858	12.376563	-0.044414	2.431036
176.794772	2577.209881	12.381568	-0.044421	2.430975
176.775651	2577.189870	12.386573	-0.044416	2.430965
176.792458	2577.045837	12.391578	-0.044419	2.430900
176.737167	2576.685878	12.396583	-0.044405	2.430731
176.571421	2576.682998	12.401587	-0.044365	2.430721
176.558553	2576.716615	12.406592	-0.044361	2.430735
176.420114	2576.712119	12.411597	-0.044327	2.430725
176.508858	2576.701783	12.416602	-0.044349	2.430726
176.562293	2576.185217	12.421607	-0.044361	2.430491
176.448163	2575.963656	12.426611	-0.044333	2.430383
176.597887	2575.981935	12.431616	-0.044370	2.430400
176.638453	2575.944483	12.436621	-0.044379	2.430385
176.776865	2575.939667	12.441626	-0.044413	2.430390
176.842830	2575.450191	12.446631	-0.044428	2.430169
176.778115	2575.238289	12.451635	-0.044412	2.430068
176.818458	2575.264074	12.456640	-0.044422	2.430082
176.857805	2575.020507	12.461645	-0.044431	2.429972
176.930086	2574.545633	12.466650	-0.044448	2.429758
176.731163	2574.571948	12.471655	-0.044399	2.429759
176.475543	2574.582727	12.476659	-0.044337	2.429750
176.461604	2574.620880	12.481664	-0.044333	2.429766
176.332831	2574.140587	12.486669	-0.044301	2.429539
176.265226	2573.961374	12.491674	-0.044284	2.429452
176.347637	2573.962671	12.496679	-0.044304	2.429458
176.281754	2573.947341	12.501683	-0.044288	2.429447
176.257385	2573.977923	12.506688	-0.044282	2.429459
176.333807	2573.948014	12.511693	-0.044300	2.429450
176.468245	2573.932797	12.516698	-0.044333	2.429450
176.590267	2573.930639	12.521703	-0.044362	2.429456
176.685098	2573.900191	12.526707	-0.044385	2.429447
176.955217	2573.297762	12.531712	-0.044451	2.429186
176.995624	2573.146545	12.536717	-0.044460	2.429118
176.951225	2573.127248	12.541722	-0.044449	2.429107
176.940521	2572.497215	12.546727	-0.044446	2.428817
176.925717	2572.475682	12.551731	-0.044442	2.428806
177.012940	2572.356156	12.556736	-0.044463	2.428756
176.694605	2571.824749	12.561741	-0.044385	2.428494
176.713178	2571.839233	12.566746	-0.044389	2.428501
176.689607	2571.845938	12.571751	-0.044383	2.428503
176.419912	2571.849630	12.576755	-0.044317	2.428490
176.282590	2571.910919	12.581760	-0.044283	2.428510
176.012559	2571.913634	12.586765	-0.044217	2.428496
176.184584	2571.897572	12.591770	-0.044259	2.428498
176.266242	2571.896915	12.596775	-0.044279	2.428503
176.147359	2571.307373	12.601779	-0.044249	2.428225
176.255241	2571.678406	12.606784	-0.044276	2.428401
176.414581	2571.200377	12.611789	-0.044314	2.428191
176.484604	2571.201472	12.616794	-0.044331	2.428195
176.591770	2571.192955	12.621799	-0.044357	2.428197
176.667632	2571.170250	12.626803	-0.044375	2.428191
176.851306	2571.171783	12.631808	-0.044420	2.428202
176.816780	2570.464082	12.636813	-0.044411	2.427874
176.855016	2570.438144	12.641818	-0.044420	2.427865
176.731667	2570.459363	12.646823	-0.044389	2.427867
176.648124	2570.192595	12.651827	-0.044369	2.427740
176.563869	2569.810172	12.656832	-0.044348	2.427559
176.550996	2569.780271	12.661837	-0.044344	2.427545
176.508242	2569.785576	12.666842	-0.044334	2.427545
176.445786	2569.810590	12.671847	-0.044318	2.427553
176.325075	2569.796184	12.676851	-0.044288	2.427539
176.389099	2569.817692	12.681856	-0.044304	2.427553
176.364090	2569.797075	12.686861	-0.044297	2.427542
176.448889	2569.143621	12.691866	-0.044318	2.427246
176.422698	2569.124170	12.696871	-0.044311	2.427236
176.505319	2569.087406	12.701875	-0.044331	2.427223
176.696144	2569.105020	12.706880	-0.044377	2.427242
176.594037	2569.085302	12.711885	-0.044352	2.427227
176.546629	2569.101696	12.716890	-0.044340	2.427232
176.669993	2568.443965	12.721895	-0.044370	2.426936
176.526241	2568.433394	12.726899	-0.044334	2.426923
176.530678	2568.461804	12.731904	-0.044335	2.426937
176.537585	2568.437310	12.736909	-0.044337	2.426926
176.597974	2568.435155	12.741914	-0.044351	2.426928
176.484969	2568.204326	12.746919	-0.044323	2.426816
176.316742	2567.745412	12.751923	-0.044282	2.426595
176.487110	2567.753281	12.756928	-0.044323	2.426608
176.380554	2567.749388	12.761933	-0.044297	2.426600
176.313271	2567.765824	12.766938	-0.044280	2.426604
176.519708	2567.742497	12.771943	-0.044331	2.426605
176.538046	2567.721026	12.776947	-0.044335	2.426596
176.503604	2567.755182	12.781952	-0.044326	2.426610
176.503699	2567.281249	12.786957	-0.044326	2.426392
176.463939	2567.066669	12.791962	-0.044316	2.426291
176.474451	2567.072618	12.796967	-0.044318	2.426294
176.440035	2567.063339	12.801971	-0.044309	2.426288
176.572099	2567.078579	12.806976	-0.044341	2.426302
176.539301	2567.058925	12.811981	-0.044333	2.426291
176.491085	2566.992630	12.816986	-0.044321	2.426258
176.533876	2566.397884	12.821991	-0.044331	2.425986
176.547149	2566.388229	12.826995	-0.044334	2.425983
176.446125	2566.428451	12.832000	-0.044309	2.425996
176.474963	2566.404009	12.837005	-0.044316	2.425986
176.691299	2566.385575	12.842010	-0.044369	2.425989
176.604365	2566.279903	12.847015	-0.044347	2.425936
176.430066	2565.907729	12.852019	-0.044304	2.425755
176.568767	2565.933683	12.857024	-0.044338	2.425774
176.512934	2565.912430	12.862029	-0.044324	2.425762
176.500520	2565.913367	12.867034	-0.044321	2.425761
176.602806	2565.914922	12.872039	-0.044345	2.425768
176.631686	2565.659139	12.877043	-0.044352	2.425651
176.589252	2565.203120	12.882048	-0.044341	2.425439
176.574903	2565.176142	12.887053	-0.044337	2.425426
176.553947	2565.189990	12.892058	-0.044332	2.425431
176.670335	2565.182362	12.897063	-0.044360	2.425434
176.563583	2565.080829	12.902067	-0.044334	2.425381
176.667718	2564.499507	12.907072	-0.044359	2.425119
176.634917	2564.480885	12.912077	-0.044351	2.425109
176.611301	2564.489290	12.917082	-0.044345	2.425112
176.578779	2564.498442	12.922087	-0.044336	2.425114
176.350674	2564.508357	12.927091	-0.044281	2.425106
176.418509	2564.176009	12.932096	-0.044297	2.424956
176.373281	2563.819477	12.937101	-0.044285	2.424790
176.250880	2563.840596	12.942106	-0.044255	2.424792
176.449155	2563.819255	12.947111	-0.044303	2.424794
176.443228	2563.796684	12.952115	-0.044302	2.424783
176.355733	2563.836269	12.957120	-0.044280	2.424796
176.330051	2563.823903	12.962125	-0.044274	2.424789
176.624828	2563.785719	12.967130	-0.044345	2.424788
176.709296	2563.621593	12.972135	-0.044366	2.424717
176.541832	2563.133524	12.977139	-0.044324	2.424483
176.631274	2563.150868	12.982144	-0.044346	2.424496
176.553749	2563.139397	12.987149	-0.044327	2.424486
176.526584	2563.146540	12.992154	-0.044320	2.424488
176.484071	2563.172166	12.997159	-0.044309	2.424497
176.514187	2562.724142	13.002163	-0.044316	2.424293
176.453661	2562.455339	13.007168	-0.044301	2.424165
176.293031	2562.457730	13.012173	-0.044261	2.424157
176.245066	2562.466390	13.017178	-0.044250	2.424159
176.425270	2562.459786	13.022183	-0.044293	2.424166
176.156021	2562.464906	13.027187	-0.044227	2.424153
176.285386	2562.470938	13.032192	-0.044259	2.424163
176.221084	2562.464641	13.037197	-0.044243	2.424156
176.394752	2562.457138	13.042202	-0.044285	2.424163
176.436808	2562.456523	13.047207	-0.044295	2.424165
176.381217	2562.437638	13.052211	-0.044281	2.424153
176.546283	2562.174237	13.057216	-0.044321	2.424041
176.512048	2561.744647	13.062221	-0.044312	2.423841
176.716488	2561.728304	13.067226	-0.044362	2.423845
176.616653	2561.761591	13.072231	-0.044338	2.423854
176.685156	2561.725551	13.077235	-0.044354	2.423842
176.726134	2561.418667	13.082240	-0.044364	2.423703
176.736958	2561.055490	13.087245	-0.044366	2.423536
176.638329	2561.061517	13.092250	-0.044342	2.423533
176.497651	2561.096054	13.097255	-0.044307	2.423541
176.374496	2561.091176	13.102259	-0.044277	2.423532
176.381611	2561.115491	13.107264	-0.044278	2.423543
176.356570	2560.555086	13.112269	-0.044272	2.423284
176.367614	2560.439646	13.117274	-0.044274	2.423231
176.463718	2560.438536	13.122279	-0.044297	2.423236
176.446610	2560.412939	13.127283	-0.044293	2.423223
176.624274	2560.414761	13.132288	-0.044336	2.423234
176.469391	2560.421211	13.137293	-0.044298	2.423228
176.551407	2560.407248	13.142298	-0.044318	2.423226
176.524976	2559.930435	13.147303	-0.044311	2.423005
176.328848	2559.702037	13.152307	-0.044262	2.422889
176.428399	2559.717104	13.157312	-0.044287	2.422901
176.365418	2559.712691	13.162317	-0.044271	2.422896
176.406148	2559.704778	13.167322	-0.044281	2.422894
176.386861	2559.731627	13.172327	-0.044276	2.422906
176.255134	2559.705444	13.177331	-0.044243	2.422886
176.378214	2559.727467	13.182336	-0.044273	2.422903
176.279900	2559.735155	13.187341	-0.044249	2.422901
176.232693	2559.730512	13.192346	-0.044237	2.422896
176.433024	2559.719737	13.197351	-0.044286	2.422902
176.557564	2559.021313	13.202355	-0.044316	2.422588
176.509395	2559.031695	13.207360	-0.044304	2.422590
176.617418	2558.996264	13.212365	-0.044330	2.422579
176.594994	2558.996731	13.217370	-0.044324	2.422578
176.707562	2559.008512	13.222375	-0.044352	2.422590
176.694982	2558.378382	13.227379	-0.044348	2.422299
176.735018	2558.323809	13.232384	-0.044357	2.422276
176.672535	2558.323743	13.237389	-0.044342	2.422272
176.504671	2558.324678	13.242394	-0.044301	2.422263
176.398500	2558.360089	13.247399	-0.044275	2.422273
176.320267	2557.797666	13.252403	-0.044255	2.422010
176.298194	2557.728661	13.257408	-0.044249	2.421977
176.240327	2557.716520	13.262413	-0.044235	2.421968
176.150685	2557.721803	13.267418	-0.044213	2.421965
176.231699	2557.729633	13.272423	-0.044232	2.421973
176.273939	2557.696811	13.277427	-0.044242	2.421960
176.434022	2557.706171	13.282432	-0.044281	2.421974
176.313881	2557.712126	13.287437	-0.044252	2.421970
176.343065	2557.705959	13.292442	-0.044259	2.421968
176.400276	2557.701792	13.297447	-0.044273	2.421970
176.411758	2557.679496	13.302451	-0.044275	2.421960
176.485461	2557.688896	13.307456	-0.044293	2.421968
176.463660	2557.501662	13.312461	-0.044287	2.421881
176.473803	2556.984423	13.317466	-0.044289	2.421643
176.540112	2556.988964	13.322471	-0.044305	2.421649
176.323407	2556.992146	13.327475	-0.044252	2.421638
176.366305	2557.011057	13.332480	-0.044262	2.421649
176.363414	2556.994920	13.337485	-0.044261	2.421641
176.323792	2556.997827	13.342490	-0.044251	2.421640
176.354021	2557.020655	13.347495	-0.044259	2.421653
176.234548	2557.002828	13.352499	-0.044229	2.421638
176.416586	2557.004084	13.357504	-0.044274	2.421648
176.490641	2556.661266	13.362509	-0.044291	2.421495
176.270555	2556.319154	13.367514	-0.044237	2.421324
176.469700	2556.331519	13.372519	-0.044285	2.421341
176.610950	2556.294745	13.377523	-0.044320	2.421332
176.675042	2556.302940	13.382528	-0.044335	2.421340
176.520063	2556.308414	13.387533	-0.044297	2.421333
176.600490	2556.085054	13.392538	-0.044316	2.421235
176.592451	2555.641265	13.397543	-0.044314	2.421030
176.446735	2555.626316	13.402547	-0.044278	2.421015
176.526897	2555.652520	13.407552	-0.044297	2.421031
176.534734	2555.631015	13.412557	-0.044299	2.421022
176.506137	2555.625469	13.417562	-0.044292	2.421017
176.413293	2555.643676	13.422567	-0.044269	2.421020
176.173641	2555.177427	13.427571	-0.044210	2.420792
176.356074	2555.176924	13.432576	-0.044254	2.420802
176.338430	2555.160224	13.437581	-0.044250	2.420793
176.453715	2555.143883	13.442586	-0.044278	2.420792
176.344556	2555.180671	13.447591	-0.044251	2.420803
176.126691	2555.187738	13.452595	-0.044197	2.420794
176.255033	2555.198915	13.457600	-0.044229	2.420806
176.214106	2555.187089	13.462605	-0.044218	2.420798
176.276321	2555.174858	13.467610	-0.044233	2.420796
176.366671	2555.185596	13.472615	-0.044255	2.420806
176.495625	2555.133735	13.477619	-0.044287	2.420789
176.728268	2555.054999	13.482624	-0.044343	2.420766
176.659578	2554.406812	13.487629	-0.044326	2.420463
176.774147	2554.385818	13.492634	-0.044353	2.420460
176.929744	2554.389601	13.497639	-0.044391	2.420471
176.937973	2553.984914	13.502643	-0.044393	2.420284
176.886259	2553.692830	13.507648	-0.044380	2.420147
176.699159	2553.714428	13.512653	-0.044334	2.420146
176.608481	2553.712068	13.517658	-0.044311	2.420140
176.434261	2553.164588	13.522663	-0.044268	2.419877
176.224260	2553.076306	13.527667	-0.044217	2.419825
176.047605	2553.113890	13.532672	-0.044173	2.419832
175.881067	2553.280853	13.537677	-0.044133	2.419900
176.011288	2553.783485	13.542682	-0.044165	2.420139
176.090864	2553.805343	13.547687	-0.044184	2.420153
176.114719	2553.768014	13.552691	-0.044189	2.420137
176.242983	2553.775128	13.557696	-0.044221	2.420148
176.208845	2553.773309	13.562701	-0.044212	2.420145
176.428335	2553.448464	13.567706	-0.044265	2.420008
176.501071	2553.061360	13.572711	-0.044282	2.419833
176.424582	2553.044074	13.577715	-0.044264	2.419821
176.494363	2553.049528	13.582720	-0.044280	2.419827
176.497908	2553.044799	13.587725	-0.044281	2.419825
176.596777	2553.026397	13.592730	-0.044305	2.419822
176.544940	2553.038584	13.597735	-0.044292	2.419825
176.346420	2552.381823	13.602739	-0.044243	2.419510
176.304213	2552.422269	13.607744	-0.044232	2.419527
176.282702	2552.417557	13.612749	-0.044227	2.419523
176.154457	2552.422839	13.617754	-0.044195	2.419518
176.138492	2552.450606	13.622759	-0.044191	2.419530
175.993046	2552.438704	13.627763	-0.044156	2.419517
176.183995	2552.434427	13.632768	-0.044202	2.419525
176.266496	2552.421745	13.637773	-0.044222	2.419524
176.218627	2552.418223	13.642778	-0.044210	2.419520
176.450671	2552.415017	13.647783	-0.044267	2.419531
176.560737	2552.363442	13.652787	-0.044293	2.419514
176.482276	2552.406626	13.657792	-0.044274	2.419529
176.580855	2552.378108	13.662797	-0.044298	2.419521
176.507724	2552.270082	13.667802	-0.044280	2.419467
176.744053	2551.660091	13.672807	-0.044337	2.419199
176.559254	2551.662476	13.677811	-0.044291	2.419190
176.416767	2551.697918	13.682816	-0.044256	2.419198
176.247286	2551.716023	13.687821	-0.044215	2.419197
176.389079	2551.687976	13.692826	-0.044249	2.419192
176.381501	2551.711671	13.697831	-0.044247	2.419202
176.259372	2551.697265	13.702835	-0.044217	2.419189
176.216552	2551.725604	13.707840	-0.044206	2.419199
176.212511	2551.730937	13.712845	-0.044205	2.419202
176.177669	2551.720751	13.717850	-0.044197	2.419195
176.067590	2551.761367	13.722855	-0.044169	2.419207
176.123194	2551.715435	13.727859	-0.044183	2.419189
176.272526	2551.731460	13.732864	-0.044219	2.419205
176.240397	2551.718575	13.737869	-0.044211	2.419197
176.320004	2551.079093	13.742874	-0.044230	2.418907
176.471498	2551.027535	13.747879	-0.044267	2.418891
176.546751	2550.994427	13.752883	-0.044285	2.418880
176.596937	2551.006325	13.757888	-0.044297	2.418888
176.742635	2550.991668	13.762893	-0.044332	2.418890
176.720439	2550.699537	13.767898	-0.044326	2.418754
176.696162	2550.320081	13.772903	-0.044320	2.418577
176.472148	2550.326933	13.777907	-0.044265	2.418568
176.426782	2550.355240	13.782912	-0.044254	2.418578
176.038663	2550.397030	13.787917	-0.044159	2.418575
175.967213	2550.383545	13.792922	-0.044141	2.418565
175.998731	2550.409558	13.797927	-0.044149	2.418579
175.910072	2550.392427	13.802931	-0.044127	2.418566
175.732590	2550.439926	13.807936	-0.044083	2.418578
175.622728	2550.842736	13.812941	-0.044056	2.418757
175.804885	2551.088796	13.817946	-0.044101	2.418881
176.078136	2551.082567	13.822951	-0.044167	2.418894
176.216170	2551.039081	13.827955	-0.044201	2.418881
176.539851	2551.019925	13.832960	-0.044280	2.418891
176.797760	2550.627948	13.837965	-0.044342	2.418724
176.890340	2550.279195	13.842970	-0.044364	2.418569
176.942395	2550.297288	13.847975	-0.044377	2.418580
176.767757	2550.055954	13.852979	-0.044334	2.418459
176.767668	2549.651945	13.857984	-0.044333	2.418272
176.728436	2549.654477	13.862989	-0.044324	2.418271
176.584437	2549.653584	13.867994	-0.044288	2.418262
176.462278	2549.690938	13.872999	-0.044258	2.418273
176.227530	2549.482016	13.878003	-0.044200	2.418163
176.204589	2549.157949	13.883008	-0.044194	2.418012
176.238216	2548.993673	13.888013	-0.044202	2.417938
176.148401	2549.003405	13.893018	-0.044180	2.417937
176.145914	2549.023761	13.898023	-0.044179	2.417947
176.237594	2548.978506	13.903027	-0.044202	2.417931
176.347244	2548.984138	13.908032	-0.044228	2.417939
176.399693	2548.973096	13.913037	-0.044241	2.417937
176.436123	2548.953868	13.918042	-0.044249	2.417930
176.590027	2548.966600	13.923047	-0.044287	2.417945
176.395411	2548.963448	13.928051	-0.044239	2.417932
176.503263	2548.973357	13.933056	-0.044265	2.417943
176.513022	2548.967196	13.938061	-0.044267	2.417941
176.481977	2548.263804	13.943066	-0.044259	2.417614
176.259456	2548.320530	13.948071	-0.044205	2.417628
176.168130	2548.300698	13.953075	-0.044182	2.417613
176.180055	2548.328755	13.958080	-0.044185	2.417627
176.255759	2548.308783	13.963085	-0.044203	2.417622
176.063227	2548.320597	13.968090	-0.044156	2.417617
176.022365	2548.341249	13.973095	-0.044146	2.417624
176.130651	2548.298023	13.978099	-0.044172	2.417610
176.285213	2548.300525	13.983104	-0.044209	2.417620
176.401251	2548.286101	13.988109	-0.044238	2.417619
176.397311	2548.283982	13.993114	-0.044236	2.417618
176.530902	2548.278906	13.998119	-0.044269	2.417623
176.603240	2548.245823	14.003123	-0.044286	2.417612
176.612477	2548.202538	14.008128	-0.044288	2.417593
176.564407	2547.583470	14.013133	-0.044276	2.417304
176.522008	2547.569829	14.018138	-0.044265	2.417295
176.428907	2547.617826	14.023143	-0.044242	2.417312
176.326466	2547.606458	14.028147	-0.044217	2.417301
176.435459	2547.604724	14.033152	-0.044244	2.417306
176.352575	2547.613612	14.038157	-0.044223	2.417306
176.274353	2547.618888	14.043162	-0.044204	2.417304
176.190085	2547.650593	14.048167	-0.044183	2.417314
176.258367	2547.608205	14.053171	-0.044199	2.417298
176.265359	2547.637200	14.058176	-0.044201	2.417312
176.158157	2547.642639	14.063181	-0.044175	2.417308
176.129269	2547.620248	14.068186	-0.044167	2.417296
176.304361	2547.510714	14.073191	-0.044210	2.417255
176.174436	2546.969686	14.078195	-0.044177	2.416998
176.243103	2546.980655	14.083200	-0.044194	2.417007
176.210607	2546.980678	14.088205	-0.044186	2.417005
176.299096	2546.961508	14.093210	-0.044207	2.417001
176.462246	2546.976806	14.098215	-0.044247	2.417017
176.401076	2546.940453	14.103219	-0.044232	2.416997
176.429650	2546.962411	14.108224	-0.044239	2.417009
176.370460	2546.962656	14.113229	-0.044224	2.417005
176.230177	2546.964034	14.118234	-0.044189	2.416998
176.151486	2546.996746	14.123239	-0.044170	2.417009
175.990031	2546.994291	14.128243	-0.044130	2.416998
176.097183	2547.004609	14.133248	-0.044156	2.417009
176.039740	2547.008021	14.138253	-0.044142	2.417007
176.070612	2546.988125	14.143258	-0.044149	2.417000
176.208459	2547.002462	14.148263	-0.044183	2.417014
176.306674	2546.955063	14.153267	-0.044207	2.416998
176.507471	2546.955617	14.158272	-0.044256	2.417009
176.545540	2546.949712	14.163277	-0.044265	2.417009
176.642848	2546.543497	14.168282	-0.044288	2.416827
176.802050	2546.219631	14.173287	-0.044326	2.416686
176.741825	2546.211894	14.178291	-0.044311	2.416679
176.833413	2546.215663	14.183296	-0.044334	2.416686
176.805980	2545.712571	14.188301	-0.044326	2.416452
176.672000	2545.536800	14.193306	-0.044293	2.416363
176.431199	2545.594413	14.198311	-0.044234	2.416376
176.224663	2545.598500	14.203315	-0.044184	2.416366
175.958293	2545.650118	14.208320	-0.044118	2.416375
175.952029	2545.650988	14.213325	-0.044117	2.416375
175.819203	2545.649098	14.218330	-0.044084	2.416366
175.901404	2545.660768	14.223335	-0.044104	2.416376
175.769232	2545.663867	14.228339	-0.044071	2.416370
175.882554	2546.104248	14.233344	-0.044099	2.416580
176.060005	2546.303308	14.238349	-0.044142	2.416682
176.161138	2546.275494	14.243354	-0.044167	2.416675
176.336184	2546.274797	14.248359	-0.044209	2.416684
176.456938	2545.704585	14.253363	-0.044238	2.416428
176.531804	2545.570843	14.258368	-0.044256	2.416370
176.497439	2545.589005	14.263373	-0.044248	2.416377
176.611044	2545.546149	14.268378	-0.044275	2.416363
176.685197	2545.561846	14.273383	-0.044293	2.416375
176.568922	2545.477174	14.278387	-0.044265	2.416329
176.568811	2544.898516	14.283392	-0.044264	2.416061
176.367382	2544.921581	14.288397	-0.044214	2.416061
176.183567	2544.928976	14.293402	-0.044169	2.416054
176.264773	2544.943129	14.298407	-0.044189	2.416065
176.149147	2544.930693	14.303411	-0.044161	2.416052
176.130852	2544.945873	14.308416	-0.044156	2.416058
176.258053	2544.941222	14.313421	-0.044187	2.416063
176.104885	2544.938109	14.318426	-0.044149	2.416053
176.209733	2544.961532	14.323431	-0.044175	2.416070
176.258221	2544.929011	14.328435	-0.044186	2.416058
176.431155	2544.919776	14.333440	-0.044228	2.416063
176.497022	2544.918576	14.338445	-0.044244	2.416066
176.663025	2544.882824	14.343450	-0.044284	2.416059
176.578229	2544.542287	14.348455	-0.044263	2.415897
176.496750	2544.421287	14.353459	-0.044243	2.415836
176.499160	2544.435959	14.358464	-0.044243	2.415843
176.473227	2544.441602	14.363469	-0.044237	2.415844
176.272374	2544.444667	14.368474	-0.044188	2.415834
176.165152	2544.484581	14.373479	-0.044161	2.415847
176.114595	2544.461483	14.378483	-0.044149	2.415833
176.120806	2544.480757	14.383488	-0.044150	2.415842
176.172726	2544.476195	14.388493	-0.044162	2.415843
176.126283	2544.459349	14.393498	-0.044151	2.415832
176.244797	2544.479405	14.398503	-0.044180	2.415848
176.297505	2544.444343	14.403507	-0.044192	2.415835
176.634965	2544.413955	14.408512	-0.044275	2.415840
176.762211	2543.749904	14.413517	-0.044305	2.415540
176.876730	2543.649855	14.418522	-0.044333	2.415501
177.043191	2543.652552	14.423527	-0.044373	2.415511
176.883868	2543.100667	14.428531	-0.044334	2.415247
176.903720	2542.977430	14.433536	-0.044338	2.415191
176.854918	2542.978780	14.438541	-0.044326	2.415189
176.530879	2542.620725	14.443546	-0.044246	2.415005
176.422783	2542.355803	14.448551	-0.044220	2.414877
176.261360	2542.359802	14.453555	-0.044180	2.414869
175.958090	2542.392314	14.458560	-0.044106	2.414867
175.953953	2542.403055	14.463565	-0.044104	2.414872
175.745733	2542.602563	14.468570	-0.044054	2.414952
175.726246	2543.132212	14.473575	-0.044049	2.415196
175.771271	2543.102487	14.478579	-0.044060	2.415184
175.879399	2543.096444	14.483584	-0.044086	2.415188
175.967288	2543.088152	14.488589	-0.044107	2.415189
176.108689	2543.067904	14.493594	-0.044141	2.415187
176.449679	2543.049225	14.498599	-0.044225	2.415198
176.717299	2542.994949	14.503603	-0.044290	2.415188
176.848489	2542.936437	14.508608	-0.044322	2.415168
176.938582	2542.295680	14.513613	-0.044343	2.414877
177.095277	2542.250932	14.518618	-0.044381	2.414865
177.072892	2541.996800	14.523623	-0.044375	2.414747
176.921302	2541.621756	14.528627	-0.044338	2.414565
176.726112	2541.658595	14.533632	-0.044290	2.414571
176.496141	2541.685512	14.538637	-0.044233	2.414570
176.254257	2541.696331	14.543642	-0.044174	2.414561
176.236694	2541.170207	14.548647	-0.044169	2.414317
176.015158	2541.437825	14.553651	-0.044115	2.414428
175.984122	2541.736479	14.558656	-0.044107	2.414564
175.925540	2541.747471	14.563661	-0.044093	2.414566
175.979034	2541.720090	14.568666	-0.044106	2.414556
176.035950	2541.741584	14.573671	-0.044119	2.414569
176.077691	2541.708890	14.578675	-0.044129	2.414557
176.295004	2541.704325	14.583680	-0.044182	2.414567
176.426671	2541.684252	14.588685	-0.044214	2.414565
176.283105	2541.682017	14.593690	-0.044179	2.414556
176.566027	2541.456370	14.598695	-0.044248	2.414467
176.447438	2540.971669	14.603699	-0.044218	2.414236
176.493264	2540.965484	14.608704	-0.044229	2.414236
176.352487	2540.996336	14.613709	-0.044195	2.414242
176.307255	2540.974972	14.618714	-0.044183	2.414230
176.083854	2541.028773	14.623719	-0.044129	2.414242
176.011153	2541.016851	14.628723	-0.044111	2.414232
175.990415	2541.034686	14.633728	-0.044105	2.414239
175.907932	2541.052996	14.638733	-0.044085	2.414243
175.906070	2541.012817	14.643738	-0.044084	2.414224
176.155949	2541.017759	14.648743	-0.044145	2.414241
176.264277	2540.997842	14.653747	-0.044171	2.414238
176.352663	2540.986782	14.658752	-0.044193	2.414238
176.510655	2540.980361	14.663757	-0.044231	2.414244
176.675445	2540.935973	14.668762	-0.044271	2.414232
176.794459	2540.938379	14.673767	-0.044300	2.414240
176.830943	2540.497852	14.678771	-0.044308	2.414038
176.873967	2540.242888	14.683776	-0.044319	2.413923
176.691348	2540.275153	14.688781	-0.044274	2.413927
176.628104	2540.265452	14.693786	-0.044258	2.413919
176.505079	2539.764873	14.698791	-0.044228	2.413681
176.189796	2539.657465	14.703795	-0.044150	2.413613
176.110764	2539.670290	14.708800	-0.044131	2.413615
175.899530	2539.707414	14.713805	-0.044079	2.413620
175.849053	2540.200743	14.718810	-0.044067	2.413845
175.834336	2540.396736	14.723815	-0.044063	2.413935
175.727852	2540.381869	14.728819	-0.044037	2.413922
175.875863	2540.374978	14.733824	-0.044073	2.413927
176.082910	2540.351067	14.738829	-0.044123	2.413928
176.055292	2540.328225	14.743834	-0.044116	2.413915
176.313383	2540.327765	14.748839	-0.044179	2.413930
176.420542	2540.294150	14.753843	-0.044205	2.413920
176.533385	2540.283467	14.758848	-0.044232	2.413922
176.480756	2540.303520	14.763853	-0.044219	2.413928
176.597799	2540.032075	14.768858	-0.044247	2.413809
176.713284	2539.598824	14.773863	-0.044275	2.413615
176.493769	2539.607262	14.778867	-0.044221	2.413606
176.515212	2539.613176	14.783872	-0.044226	2.413610
176.369346	2539.650053	14.788877	-0.044191	2.413619
176.365933	2539.614461	14.793882	-0.044189	2.413602
176.262135	2539.661034	14.798887	-0.044164	2.413618
176.143629	2539.660808	14.803891	-0.044135	2.413611
176.087888	2539.666391	14.808896	-0.044121	2.413611
176.245485	2539.665073	14.813901	-0.044159	2.413619
176.190257	2539.648655	14.818906	-0.044146	2.413608
176.279340	2539.665857	14.823911	-0.044167	2.413621
176.244942	2539.440338	14.828915	-0.044158	2.413515
176.293236	2538.982302	14.833920	-0.044170	2.413306
176.477910	2538.980023	14.838925	-0.044215	2.413315
176.384115	2538.957874	14.843930	-0.044191	2.413299
176.401850	2538.979090	14.848935	-0.044196	2.413310
176.282918	2538.977907	14.853939	-0.044166	2.413303
176.379038	2538.971294	14.858944	-0.044190	2.413305
176.378318	2538.991396	14.863949	-0.044189	2.413314
176.410421	2538.949770	14.868954	-0.044197	2.413297
176.422471	2538.976069	14.873959	-0.044200	2.413310
176.421691	2538.755570	14.878963	-0.044199	2.413207
176.407068	2538.248277	14.883968	-0.044195	2.412972
176.340583	2538.271714	14.888973	-0.044178	2.412979
176.271076	2538.259754	14.893978	-0.044161	2.412969
176.496380	2538.260586	14.898983	-0.044216	2.412983
176.572842	2538.223649	14.903987	-0.044235	2.412970
176.608597	2538.227131	14.908992	-0.044243	2.412973
176.570220	2538.206970	14.913997	-0.044233	2.412962
176.466889	2537.545285	14.919002	-0.044208	2.412650
176.444661	2537.584888	14.924007	-0.044202	2.412667
176.372048	2537.576687	14.929011	-0.044184	2.412659
176.322514	2537.572404	14.934016	-0.044172	2.412654
176.288611	2537.596232	14.939021	-0.044163	2.412663
176.038778	2537.608407	14.944026	-0.044102	2.412654
176.039612	2537.636410	14.949031	-0.044102	2.412667
175.829279	2537.642056	14.954035	-0.044050	2.412658
175.796042	2537.649608	14.959040	-0.044042	2.412660
175.814203	2537.665366	14.964045	-0.044046	2.412668
176.008883	2538.236424	14.969050	-0.044094	2.412943
176.158799	2538.305880	14.974055	-0.044131	2.412984
176.145294	2538.283683	14.979059	-0.044127	2.412973
176.208471	2538.277393	14.984064	-0.044142	2.412973
176.425950	2538.029836	14.989069	-0.044195	2.412871
176.388932	2537.561459	14.994074	-0.044185	2.412652
176.682372	2537.553930	14.999079	-0.044257	2.412665
176.798329	2537.515865	15.004083	-0.044285	2.412654
176.763730	2537.524933	15.009088	-0.044276	2.412656
176.620405	2536.974834	15.014093	-0.044241	2.412394
176.564276	2536.866114	15.019098	-0.044227	2.412340
176.509736	2536.897867	15.024103	-0.044213	2.412352
176.373314	2536.893108	15.029107	-0.044180	2.412342
176.062559	2536.921530	15.034112	-0.044104	2.412337
176.002063	2536.955363	15.039117	-0.044089	2.412349
175.845718	2536.950011	15.044122	-0.044050	2.412338
175.945314	2536.970287	15.049127	-0.044074	2.412353
175.719122	2536.981258	15.054131	-0.044019	2.412345
175.872982	2536.957437	15.059136	-0.044056	2.412343
176.216233	2537.422483	15.064141	-0.044140	2.412577
176.309370	2536.898742	15.069146	-0.044162	2.412340
176.590017	2536.903229	15.074151	-0.044231	2.412358
176.645416	2536.869892	15.079155	-0.044244	2.412346
176.745597	2536.853665	15.084160	-0.044268	2.412344
176.810620	2536.774956	15.089165	-0.044284	2.412311
176.723896	2536.204172	15.094170	-0.044262	2.412042
176.620029	2536.243995	15.099175	-0.044237	2.412055
176.750537	2536.213929	15.104179	-0.044268	2.412048
176.543361	2536.235728	15.109184	-0.044217	2.412046
176.389685	2535.915713	15.114189	-0.044179	2.411889
176.123898	2535.570353	15.119194	-0.044114	2.411714
175.971911	2535.652162	15.124199	-0.044077	2.411744
175.965585	2536.308006	15.129203	-0.044075	2.412047
175.873997	2536.316305	15.134208	-0.044053	2.412045
175.947889	2536.329271	15.139213	-0.044071	2.412055
175.930688	2536.301129	15.144218	-0.044066	2.412041
176.030001	2536.312326	15.149223	-0.044090	2.412052
176.086913	2536.297356	15.154227	-0.044104	2.412048
176.327865	2536.258469	15.159232	-0.044163	2.412044

176.560685	2536.249586	15.164237	-0.044219	2.412053
176.496939	2535.727651	15.169242	-0.044203	2.411808
176.608774	2535.537994	15.174247	-0.044230	2.411726
176.615691	2535.227667	15.179251	-0.044231	2.411583
176.558296	2534.863540	15.184256	-0.044217	2.411411
176.592790	2534.375888	15.189261	-0.044225	2.411187
176.571362	2533.974033	15.194266	-0.044219	2.411000
176.471262	2533.609844	15.199271	-0.044194	2.410826
176.398578	2532.930856	15.204275	-0.044176	2.410507
176.225831	2532.360971	15.209280	-0.044133	2.410233
176.119320	2531.849416	15.214285	-0.044106	2.409990
175.987761	2531.283373	15.219290	-0.044074	2.409721
176.007566	2530.676914	15.224295	-0.044078	2.409441
176.027360	2529.977884	15.229299	-0.044082	2.409118
176.170416	2529.190378	15.234304	-0.044116	2.408761
176.217627	2528.431257	15.239309	-0.044127	2.408412
176.246599	2527.379855	15.244314	-0.044133	2.407926
176.292751	2526.476359	15.249319	-0.044143	2.407510
176.338560	2525.426306	15.254323	-0.044154	2.407025
176.227881	2524.396712	15.259328	-0.044126	2.406541
176.241744	2523.316017	15.264333	-0.044128	2.406041
176.065787	2522.293547	15.269338	-0.044084	2.405556
175.920860	2521.211316	15.274343	-0.044048	2.405046
175.690208	2520.006734	15.279347	-0.043990	2.404473
175.456214	2518.952795	15.284352	-0.043932	2.403970
175.420125	2517.888839	15.289357	-0.043923	2.403474
175.206716	2516.627877	15.294362	-0.043869	2.402876
175.131184	2515.547107	15.299367	-0.043850	2.402370
175.117511	2514.378344	15.304371	-0.043845	2.401826
175.181528	2513.125056	15.309376	-0.043860	2.401247
175.304554	2511.936959	15.314381	-0.043889	2.400701
175.460647	2510.423532	15.319386	-0.043926	2.400006
175.554880	2508.950704	15.324391	-0.043948	2.399326
175.736034	2507.353178	15.329395	-0.043991	2.398593
175.780242	2505.574540	15.334400	-0.044000	2.397768
175.860066	2503.896346	15.339405	-0.044018	2.396991
175.744980	2502.152311	15.344410	-0.043988	2.396172
175.737212	2500.437822	15.349415	-0.043985	2.395373
175.577059	2498.592084	15.354419	-0.043945	2.394503
175.442126	2496.721161	15.359424	-0.043910	2.393623
175.262450	2494.891952	15.364429	-0.043865	2.392759
175.088564	2492.976426	15.369434	-0.043821	2.391855
174.925557	2491.240840	15.374439	-0.043779	2.391035
174.790339	2489.419877	15.379443	-0.043745	2.390177
174.551888	2487.558605	15.384448	-0.043685	2.389294
174.280060	2485.757305	15.389453	-0.043617	2.388436
174.259759	2483.848350	15.394458	-0.043611	2.387542
174.075370	2482.015889	15.399463	-0.043564	2.386675
174.105663	2480.271205	15.404467	-0.043570	2.385860
174.179881	2478.281882	15.409472	-0.043586	2.384933
174.022383	2476.305803	15.414477	-0.043546	2.383999
174.015123	2474.226531	15.419482	-0.043543	2.383025
174.183827	2472.127207	15.424487	-0.043582	2.382051
174.272628	2470.038331	15.429491	-0.043602	2.381077
174.418861	2467.704861	15.434496	-0.043636	2.379991
174.422447	2465.427801	15.439501	-0.043635	2.378923
174.343798	2462.953891	15.444506	-0.043614	2.377757
174.408777	2460.577267	15.449511	-0.043628	2.376644
174.041721	2458.326446	15.454515	-0.043537	2.375565
173.774280	2455.907567	15.459520	-0.043469	2.374412
173.767763	2453.530964	15.464525	-0.043466	2.373294
173.503135	2451.085281	15.469530	-0.043399	2.372128
173.252322	2448.822454	15.474535	-0.043336	2.371048
172.933528	2446.524816	15.479539	-0.043257	2.369947
172.750423	2444.163613	15.484544	-0.043210	2.368823
172.838713	2441.824167	15.489549	-0.043230	2.367726
172.699392	2439.387275	15.494554	-0.043194	2.366568
172.770627	2437.070040	15.499559	-0.043209	2.365479
172.690708	2434.572840	15.504563	-0.043188	2.364295
172.613921	2432.021668	15.509568	-0.043167	2.363085
172.888951	2429.391594	15.514573	-0.043232	2.361859
172.829752	2426.813123	15.519578	-0.043216	2.360636
172.851161	2424.097530	15.524583	-0.043219	2.359353
172.696901	2421.332015	15.529587	-0.043179	2.358034
172.613699	2418.576261	15.534592	-0.043156	2.356724
172.531133	2415.972812	15.539597	-0.043134	2.355486
172.196282	2413.163950	15.544602	-0.043050	2.354134
172.028927	2410.400765	15.549607	-0.043007	2.352813
171.905339	2407.695121	15.554611	-0.042975	2.351521
171.654020	2404.987097	15.559616	-0.042911	2.350220
171.554337	2402.251924	15.564621	-0.042885	2.348914
171.309832	2399.455558	15.569626	-0.042823	2.347570
171.163082	2396.830199	15.574631	-0.042785	2.346312
171.096117	2394.089615	15.579635	-0.042766	2.345003
171.235968	2391.244068	15.584640	-0.042798	2.343656
171.316597	2388.303830	15.589645	-0.042816	2.342260
171.325229	2385.467745	15.594650	-0.042816	2.340908
171.397880	2382.421385	15.599655	-0.042831	2.339459
171.588440	2379.260242	15.604659	-0.042875	2.337962
171.512464	2376.122908	15.609664	-0.042854	2.336458
171.261077	2373.021704	15.614669	-0.042790	2.334960
171.118935	2369.822508	15.619674	-0.042753	2.333421
171.051447	2366.667126	15.624679	-0.042734	2.331907
170.791725	2363.531178	15.629683	-0.042668	2.330389
170.453731	2360.380966	15.634688	-0.042583	2.328858
170.180124	2357.310587	15.639693	-0.042514	2.327369
169.832087	2354.363298	15.644698	-0.042427	2.325933
169.602542	2351.338084	15.649703	-0.042368	2.324466
169.384641	2348.297434	15.654707	-0.042313	2.322992
169.082668	2345.400666	15.659712	-0.042237	2.321580
169.149426	2342.438339	15.664717	-0.042251	2.320159
169.099983	2339.335506	15.669722	-0.042236	2.318662
169.282839	2336.197733	15.674727	-0.042278	2.317162
169.199143	2333.168067	15.679731	-0.042256	2.315697
169.173597	2329.900574	15.684736	-0.042247	2.314119
169.383889	2326.578780	15.689741	-0.042296	2.312529
169.587086	2323.235572	15.694746	-0.042343	2.310926
169.513683	2319.765305	15.699751	-0.042322	2.309244
169.228100	2316.290762	15.704755	-0.042250	2.307546
168.984298	2313.021715	15.709760	-0.042188	2.305948
168.930824	2309.591251	15.714765	-0.042172	2.304283
168.402996	2306.170209	15.719770	-0.042040	2.302591
167.968482	2303.046633	15.724775	-0.041932	2.301049
167.696874	2299.803241	15.729779	-0.041863	2.299457
167.566124	2296.514046	15.734784	-0.041828	2.297851
167.412330	2293.422458	15.739789	-0.041788	2.296339
167.244569	2290.169232	15.744794	-0.041745	2.294745
167.114420	2286.910543	15.749799	-0.041711	2.293151
167.080120	2283.687511	15.754803	-0.041700	2.291579
167.219473	2280.294305	15.759808	-0.041731	2.289933
167.343756	2276.875711	15.764813	-0.041759	2.288274
167.496057	2273.368648	15.769818	-0.041793	2.286571
167.512933	2269.827185	15.774823	-0.041795	2.284842
167.534033	2266.144546	15.779827	-0.041797	2.283043
167.406998	2262.558766	15.784832	-0.041763	2.281280
167.157000	2258.958084	15.789837	-0.041699	2.279501
166.912585	2255.287285	15.794842	-0.041637	2.277686
166.824778	2251.823610	15.799847	-0.041613	2.275982
166.494634	2248.203863	15.804851	-0.041529	2.274184
166.197052	2244.639993	15.809856	-0.041454	2.272414
165.863859	2241.204278	15.814861	-0.041370	2.270703
165.506050	2237.712953	15.819866	-0.041280	2.268963
165.285715	2234.293193	15.824871	-0.041223	2.267264
165.081186	2230.975324	15.829875	-0.041171	2.265616
165.042353	2227.456799	15.834880	-0.041159	2.263879
165.153084	2224.019320	15.839885	-0.041183	2.262190
165.137768	2220.453111	15.844890	-0.041177	2.260427
165.153093	2216.830396	15.849895	-0.041178	2.258638
165.121606	2213.226190	15.854899	-0.041167	2.256853
165.401272	2209.441587	15.859904	-0.041233	2.254998
165.343277	2205.618349	15.864909	-0.041215	2.253100
165.201007	2201.847264	15.869914	-0.041178	2.251220
165.084183	2197.997088	15.874919	-0.041146	2.249302
165.004084	2194.164217	15.879923	-0.041124	2.247393
164.710146	2190.379629	15.884928	-0.041049	2.245492
164.292412	2186.612896	15.889933	-0.040944	2.243590
163.944639	2182.931069	15.894938	-0.040856	2.241734
163.784587	2179.257501	15.899943	-0.040814	2.239892
163.348570	2175.605585	15.904947	-0.040705	2.238042
163.229353	2172.098429	15.909952	-0.040673	2.236283
163.153852	2168.428960	15.914957	-0.040652	2.234445
162.965990	2164.757863	15.919962	-0.040603	2.232596
162.942760	2161.129003	15.924967	-0.040595	2.230779
162.704847	2157.416208	15.929971	-0.040534	2.228903
162.748173	2153.741851	15.934976	-0.040542	2.227064
162.831249	2150.012947	15.939981	-0.040559	2.225199
162.760743	2146.115044	15.944986	-0.040539	2.223237
162.825843	2142.354253	15.949991	-0.040552	2.221351
162.787108	2138.426608	15.954995	-0.040540	2.219373
162.583214	2134.528371	15.960000	-0.040487	2.217397
162.495717	2130.713103	15.965005	-0.040462	2.215468
162.180558	2126.748961	15.970010	-0.040382	2.213447
161.959385	2122.960428	15.975015	-0.040326	2.211520
161.674871	2119.103820	15.980019	-0.040253	2.209552
161.380964	2115.315572	15.985024	-0.040178	2.207616
161.172552	2111.598129	15.990029	-0.040125	2.205720
160.876641	2107.802441	15.995034	-0.040049	2.203777
160.835223	2104.080131	16.000039	-0.040036	2.201887
160.760811	2100.293546	16.005043	-0.040015	2.199960
160.625979	2096.456427	16.010048	-0.039980	2.198002
160.767374	2092.727461	16.015053	-0.040011	2.196116
160.745975	2088.718599	16.020058	-0.040003	2.194075
160.929181	2084.774864	16.025063	-0.040045	2.192079
160.946897	2080.706538	16.030067	-0.040046	2.190006
160.923903	2076.583070	16.035072	-0.040037	2.187900
160.717102	2072.578706	16.040077	-0.039984	2.185841
160.368219	2068.474543	16.045082	-0.039895	2.183718
160.072512	2064.559949	16.050087	-0.039820	2.181694
159.659914	2060.608986	16.055091	-0.039716	2.179642
159.309515	2056.700269	16.060096	-0.039628	2.177613
158.957846	2052.933227	16.065101	-0.039539	2.175656
158.417361	2049.123215	16.070106	-0.039404	2.173661
158.340685	2045.431876	16.075111	-0.039382	2.171757
158.065535	2041.681526	16.080115	-0.039312	2.169808
157.936985	2037.933330	16.085120	-0.039278	2.167869
158.076595	2034.207142	16.090125	-0.039309	2.165958
158.060019	2030.269752	16.095130	-0.039302	2.163925
158.125279	2026.457157	16.100135	-0.039315	2.161961
158.191820	2022.447400	16.105139	-0.039328	2.159893
158.410392	2018.404856	16.110144	-0.039379	2.157816
158.402260	2014.371740	16.115149	-0.039374	2.155727
158.138935	2010.220312	16.120154	-0.039306	2.153556
158.148447	2006.178640	16.125159	-0.039305	2.151459
157.903916	2002.024901	16.130163	-0.039243	2.149284
157.784737	1997.940050	16.135168	-0.039210	2.147151
157.453298	1993.879070	16.140173	-0.039126	2.145014
157.198391	1989.840116	16.145178	-0.039061	2.142891
157.142320	1985.811213	16.150183	-0.039044	2.140786
156.712612	1981.770566	16.155187	-0.038936	2.138645
156.398355	1977.918737	16.160192	-0.038856	2.136609
156.249637	1973.916752	16.165197	-0.038817	2.134505
156.053703	1969.982842	16.170202	-0.038766	2.132431
155.946644	1966.004444	16.175207	-0.038737	2.130338
155.744948	1962.057449	16.180211	-0.038685	2.128252
155.553778	1958.139965	16.185216	-0.038635	2.126181
155.621447	1954.123186	16.190221	-0.038648	2.124075
155.479342	1950.147359	16.195226	-0.038611	2.121972
155.370917	1946.089063	16.200231	-0.038581	2.119826
155.373244	1942.094890	16.205235	-0.038579	2.117721
155.139226	1938.054101	16.210240	-0.038518	2.115571
155.078560	1933.995296	16.215245	-0.038501	2.113422
154.838540	1929.962537	16.220250	-0.038439	2.111271
154.742698	1925.850977	16.225255	-0.038412	2.109087
154.566142	1921.892533	16.230259	-0.038366	2.106976
154.327219	1917.791301	16.235264	-0.038305	2.104783
154.172622	1913.816549	16.240269	-0.038264	2.102661
153.916663	1909.778835	16.245274	-0.038198	2.100495
153.750151	1905.775294	16.250279	-0.038155	2.098352
153.521319	1901.832727	16.255283	-0.038096	2.096235
153.345879	1897.774921	16.260288	-0.038050	2.094058
153.251111	1893.847387	16.265293	-0.038023	2.091954
153.192318	1889.734794	16.270298	-0.038006	2.089752
153.120170	1885.735205	16.275303	-0.037985	2.087607
153.067017	1881.656933	16.280307	-0.037969	2.085420
152.882097	1877.550109	16.285312	-0.037921	2.083204
152.815216	1873.503388	16.290317	-0.037902	2.081028
152.652202	1869.370874	16.295322	-0.037859	2.078796
152.710436	1865.299349	16.300327	-0.037870	2.076611
152.658739	1861.090912	16.305331	-0.037854	2.074341
152.412879	1856.975526	16.310336	-0.037791	2.072105
152.301454	1852.785092	16.315341	-0.037760	2.069835
151.870834	1848.697368	16.320346	-0.037652	2.067595
151.567119	1844.632213	16.325351	-0.037575	2.065373
151.455801	1840.610957	16.330355	-0.037544	2.063188
151.101009	1836.557955	16.335360	-0.037455	2.060965
150.914549	1832.568810	16.340365	-0.037406	2.058786
150.814679	1828.589954	16.345370	-0.037379	2.056618
150.631596	1824.517317	16.350375	-0.037331	2.054390
150.442152	1820.572510	16.355379	-0.037282	2.052229
150.268787	1816.487849	16.360384	-0.037236	2.049990
150.478741	1812.463401	16.365389	-0.037284	2.047812
150.439362	1808.286356	16.370394	-0.037272	2.045529
150.541431	1804.111347	16.375399	-0.037293	2.043255
150.379702	1799.944981	16.380403	-0.037251	2.040962
150.371212	1795.694636	16.385408	-0.037245	2.038634
150.264404	1791.536727	16.390413	-0.037216	2.036345
150.218957	1787.217815	16.395418	-0.037202	2.033970
150.080630	1782.975283	16.400423	-0.037165	2.031627
149.724845	1778.727742	16.405427	-0.037075	2.029262
149.475492	1774.567033	16.410432	-0.037010	2.026950
149.191576	1770.369789	16.415437	-0.036938	2.024612
148.753610	1766.340248	16.420442	-0.036828	2.022352
148.374902	1762.248656	16.425447	-0.036732	2.020059
148.264006	1758.254067	16.430451	-0.036702	2.017840
148.010112	1754.182756	16.435456	-0.036637	2.015563
147.727739	1750.210570	16.440461	-0.036565	2.013337
147.427218	1746.207318	16.445466	-0.036488	2.011090
147.363554	1742.221877	16.450471	-0.036470	2.008869
147.240686	1738.273323	16.455475	-0.036437	2.006661
147.168190	1734.180409	16.460480	-0.036416	2.004375
147.357306	1730.174555	16.465485	-0.036459	2.002156
147.346967	1725.955791	16.470490	-0.036454	1.999799
147.286035	1721.923246	16.475495	-0.036436	1.997539
147.380036	1717.649079	16.480499	-0.036455	1.995155
147.198346	1713.471298	16.485504	-0.036408	1.992799
147.054349	1709.239065	16.490509	-0.036369	1.990412
146.868352	1705.042012	16.495514	-0.036321	1.988039
146.638728	1700.845911	16.500519	-0.036261	1.985660
146.556285	1696.699248	16.505523	-0.036238	1.983318
146.315208	1692.462957	16.510528	-0.036176	1.980910
145.890299	1688.430058	16.515533	-0.036069	1.978598
145.561141	1684.329139	16.520538	-0.035986	1.976253
145.310558	1680.279544	16.525543	-0.035921	1.973941
145.102887	1676.251875	16.530547	-0.035868	1.971642
144.946747	1672.196345	16.535552	-0.035826	1.969329
145.040067	1668.153571	16.540557	-0.035846	1.967042
145.116796	1663.935409	16.545562	-0.035862	1.964650
145.031937	1659.799166	16.550567	-0.035838	1.962289
144.905443	1655.610039	16.555571	-0.035804	1.959891
144.938527	1651.467788	16.560576	-0.035809	1.957530
144.951202	1647.171867	16.565581	-0.035808	1.955077
144.823294	1642.930299	16.570586	-0.035774	1.952641
144.461279	1638.658859	16.575591	-0.035682	1.950164
144.257549	1634.552834	16.580595	-0.035629	1.947792
143.933731	1630.321402	16.585600	-0.035547	1.945335
143.540256	1626.295804	16.590605	-0.035448	1.942987
143.094812	1622.204645	16.595610	-0.035336	1.940594
142.984623	1618.217869	16.600615	-0.035306	1.938287
142.864305	1614.119768	16.605619	-0.035273	1.935913
142.624727	1610.082377	16.610624	-0.035212	1.933560
142.344001	1606.048330	16.615629	-0.035140	1.931202
142.350797	1602.037986	16.620634	-0.035139	1.928881
142.252452	1597.953227	16.625639	-0.035112	1.926504
142.237364	1593.878269	16.630643	-0.035105	1.924137
142.068392	1589.772631	16.635648	-0.035060	1.921736
142.095259	1585.670939	16.640653	-0.035064	1.919351
142.052227	1581.537980	16.645658	-0.035050	1.916940
141.830053	1577.378883	16.650663	-0.034993	1.914494
141.669845	1573.270083	16.655667	-0.034951	1.912079
141.502088	1569.103664	16.660672	-0.034906	1.909628
141.483650	1564.996076	16.665677	-0.034899	1.907220
141.147108	1560.835784	16.670682	-0.034813	1.904751
140.894130	1556.775491	16.675687	-0.034749	1.902345
140.779024	1552.659541	16.680691	-0.034717	1.899915
140.455884	1548.645556	16.685696	-0.034635	1.897523
140.325674	1544.560988	16.690701	-0.034600	1.895104
140.300211	1540.455779	16.695706	-0.034591	1.892679
140.281692	1536.279813	16.700711	-0.034583	1.890210
140.185044	1532.222669	16.705715	-0.034557	1.887800
140.072507	1528.002528	16.710720	-0.034526	1.885290
140.022848	1523.896573	16.715725	-0.034511	1.882850
139.800103	1519.676261	16.720730	-0.034453	1.880322
139.599820	1515.627464	16.725735	-0.034401	1.877896
139.474263	1511.439022	16.730739	-0.034367	1.875390
139.190236	1507.338715	16.735744	-0.034295	1.872919
138.905554	1503.226540	16.740749	-0.034222	1.870437
138.634283	1499.219381	16.745754	-0.034153	1.868016
138.244143	1495.159353	16.750759	-0.034054	1.865549
137.875776	1491.284712	16.755763	-0.033961	1.863193
137.617753	1487.274030	16.760768	-0.033895	1.860761
137.752376	1483.364040	16.765773	-0.033925	1.858423
137.723806	1479.263078	16.770778	-0.033915	1.855952
137.790933	1475.206237	16.775783	-0.033928	1.853514
137.854758	1471.041468	16.780787	-0.033941	1.851006
137.648324	1466.948599	16.785792	-0.033887	1.848514
137.697804	1462.770190	16.790797	-0.033896	1.845990
137.657031	1458.609035	16.795802	-0.033883	1.843465
137.625601	1454.348297	16.800807	-0.033872	1.840876
137.339414	1450.279915	16.805811	-0.033799	1.838378
136.920464	1446.095884	16.810816	-0.033694	1.835792
136.639794	1442.073761	16.815821	-0.033622	1.833315
136.270126	1437.969694	16.820826	-0.033529	1.830776
135.708040	1434.103939	16.825831	-0.033388	1.828361
135.430999	1430.148456	16.830835	-0.033318	1.825915
135.280751	1426.274769	16.835840	-0.033278	1.823528
135.216476	1422.303896	16.840845	-0.033259	1.821086
135.061616	1418.454000	16.845850	-0.033218	1.818706
135.048213	1414.414294	16.850855	-0.033212	1.816220
135.073821	1410.457141	16.855859	-0.033215	1.813785
135.011145	1406.354849	16.860864	-0.033197	1.811249
135.094037	1402.338247	16.865869	-0.033214	1.808776
134.973599	1398.205626	16.870874	-0.033182	1.806209
135.080349	1394.110057	16.875879	-0.033205	1.803682
135.144549	1389.888474	16.880883	-0.033217	1.801070
134.904608	1385.794241	16.885888	-0.033155	1.798504
134.569145	1381.647135	16.890893	-0.033070	1.795892
134.367657	1377.576947	16.895898	-0.033018	1.793337
134.177044	1373.419179	16.900903	-0.032968	1.790724
133.816116	1369.426787	16.905907	-0.032877	1.788195
133.404174	1365.397575	16.910912	-0.032773	1.785634
133.303050	1361.458851	16.915917	-0.032745	1.783156
133.023665	1357.433743	16.920922	-0.032674	1.780603
132.889997	1353.502159	16.925927	-0.032639	1.778120
132.615148	1349.527377	16.930931	-0.032568	1.775592
132.562821	1345.522433	16.935936	-0.032553	1.773063
132.684689	1341.480758	16.940941	-0.032579	1.770525
132.740524	1337.403368	16.945946	-0.032590	1.767954
132.555851	1333.317981	16.950951	-0.032542	1.765350
132.507327	1329.230298	16.955955	-0.032527	1.762755
132.244359	1325.172638	16.960960	-0.032459	1.760153
132.071146	1321.156261	16.965965	-0.032414	1.757583
132.002429	1317.050676	16.970970	-0.032394	1.754962
131.726281	1312.990639	16.975975	-0.032323	1.752346
131.507965	1308.995076	16.980979	-0.032267	1.749773
131.179515	1304.953150	16.985984	-0.032184	1.747155
130.858183	1301.069276	16.990989	-0.032102	1.744635
130.638817	1297.095215	16.995994	-0.032046	1.742064
130.542776	1293.176050	17.000999	-0.032019	1.739537
130.298058	1289.245233	17.006003	-0.031956	1.736984
130.309187	1285.276036	17.011008	-0.031956	1.734428
130.339483	1281.244832	17.016013	-0.031960	1.731831
130.229039	1277.256290	17.021018	-0.031930	1.729243
130.185855	1273.183027	17.026023	-0.031917	1.726602
130.232701	1269.165936	17.031027	-0.031925	1.724004
130.033349	1265.043916	17.036032	-0.031873	1.721308
129.969997	1261.040405	17.041037	-0.031855	1.718699
129.753483	1256.950293	17.046042	-0.031799	1.716014
129.621899	1252.877994	17.051047	-0.031764	1.713344
129.307297	1248.873127	17.056051	-0.031684	1.710696
128.756354	1244.927449	17.061056	-0.031546	1.708057
128.502173	1241.037517	17.066061	-0.031481	1.705482
128.058455	1237.173960	17.071066	-0.031370	1.702901
127.654962	1233.370787	17.076071	-0.031268	1.700359
127.664204	1229.539258	17.081075	-0.031267	1.697839
127.421219	1225.692374	17.086080	-0.031205	1.695277
127.370801	1221.841506	17.091085	-0.031190	1.692730
127.306139	1218.003935	17.096090	-0.031171	1.690186
127.436590	1214.042059	17.101095	-0.031200	1.687577
127.487487	1210.121871	17.106099	-0.031209	1.684983
127.480418	1206.083864	17.111104	-0.031205	1.682301
127.667473	1202.100255	17.116109	-0.031247	1.679671
127.640405	1197.977303	17.121114	-0.031238	1.676921
127.439427	1193.941092	17.126119	-0.031185	1.674206
127.285819	1189.866302	17.131123	-0.031145	1.671465
127.042812	1185.854656	17.136128	-0.031082	1.668753
126.916181	1181.809651	17.141133	-0.031048	1.666027
126.337780	1177.865848	17.146138	-0.030904	1.663315
126.112084	1173.960624	17.151143	-0.030846	1.660662
125.765280	1170.089252	17.156147	-0.030758	1.658016
125.413350	1166.243777	17.161152	-0.030669	1.655381
125.257545	1162.375739	17.166157	-0.030628	1.652749
125.095601	1158.562614	17.171162	-0.030586	1.650149
124.955513	1154.655425	17.176167	-0.030549	1.647484
124.868960	1150.865770	17.181171	-0.030525	1.644900
124.738444	1146.927874	17.186176	-0.030490	1.642206
124.721028	1143.142630	17.191181	-0.030483	1.639625
124.735280	1139.163496	17.196186	-0.030483	1.636910
124.556546	1135.288143	17.201191	-0.030436	1.634240
124.553467	1131.340645	17.206195	-0.030433	1.631537
124.422127	1127.401320	17.211200	-0.030398	1.628820
124.448009	1123.429076	17.216205	-0.030401	1.626093
124.215211	1119.470452	17.221210	-0.030341	1.623342
123.985181	1115.534713	17.226215	-0.030282	1.620602
123.672011	1111.631785	17.231219	-0.030202	1.617871
123.560993	1107.710344	17.236224	-0.030172	1.615146
123.449337	1103.764618	17.241229	-0.030142	1.612399
123.155430	1099.921203	17.246234	-0.030067	1.609697
123.016698	1095.997425	17.251239	-0.030030	1.606953
122.828516	1092.157738	17.256243	-0.029981	1.604257
122.597024	1088.265104	17.261248	-0.029922	1.601515
122.406036	1084.470775	17.266253	-0.029872	1.598841
122.201519	1080.625850	17.271258	-0.029819	1.596125
122.087555	1076.753064	17.276263	-0.029789	1.593396
122.038597	1072.921758	17.281267	-0.029774	1.590699
121.905701	1069.023275	17.286272	-0.029738	1.587941
121.861264	1065.182289	17.291277	-0.029724	1.585228
121.803531	1061.237886	17.296282	-0.029707	1.582436
121.581186	1057.430007	17.301287	-0.029650	1.579716
121.554562	1053.505269	17.306291	-0.029641	1.576932
121.396943	1049.587858	17.311296	-0.029599	1.574133
121.248332	1045.700564	17.316301	-0.029560	1.571351
120.920596	1041.845996	17.321306	-0.029477	1.568566
120.579524	1038.042831	17.326311	-0.029391	1.565812
120.416815	1034.211450	17.331315	-0.029348	1.563053
120.269824	1030.446800	17.336320	-0.029309	1.560340
120.173508	1026.605339	17.341325	-0.029283	1.557572
120.053851	1022.816517	17.346330	-0.029251	1.554835
119.780209	1018.972985	17.351335	-0.029181	1.552035
119.719030	1015.204696	17.356339	-0.029163	1.549309
119.493929	1011.376719	17.361344	-0.029105	1.546516
119.610733	1007.535130	17.366349	-0.029131	1.543749
119.436832	1003.704167	17.371354	-0.029085	1.540950
119.068524	999.888477	17.376359	-0.028992	1.538133
118.938276	996.119661	17.381363	-0.028958	1.535374
118.682365	992.293147	17.386368	-0.028892	1.532553
118.651077	988.541033	17.391373	-0.028882	1.529808
118.519745	984.722700	17.396378	-0.028847	1.526998
118.216118	980.964381	17.401383	-0.028770	1.524205
118.136690	977.220299	17.406387	-0.028747	1.521445
117.960162	973.437879	17.411392	-0.028701	1.518640
117.851391	969.674638	17.416397	-0.028672	1.515852
117.827361	965.839724	17.421402	-0.028663	1.513017
117.731091	962.082327	17.426407	-0.028637	1.510225
117.688262	958.241095	17.431411	-0.028623	1.507372
117.439863	954.436521	17.436416	-0.028560	1.504515
117.356590	950.655278	17.441421	-0.028537	1.501690
117.119131	946.872043	17.446426	-0.028476	1.498840
116.974557	943.082961	17.451431	-0.028437	1.495991
116.817130	939.288751	17.456435	-0.028396	1.493132
116.575141	935.556316	17.461440	-0.028334	1.490302
116.244095	931.813766	17.466445	-0.028250	1.487448
116.055831	928.113051	17.471450	-0.028201	1.484639
115.715597	924.454467	17.476455	-0.028116	1.481836
115.673721	920.773496	17.481459	-0.028102	1.479049
115.477099	917.080178	17.486464	-0.028052	1.476228
115.455634	913.345398	17.491469	-0.028044	1.473393
115.300268	909.684043	17.496474	-0.028003	1.470590
115.215939	905.943124	17.501479	-0.027979	1.467731
115.256895	902.222387	17.506483	-0.027986	1.464898
114.942429	898.497635	17.511488	-0.027907	1.462010
114.653408	894.842055	17.516493	-0.027833	1.459172
114.761840	891.095997	17.521498	-0.027857	1.456312
114.465399	887.365558	17.526503	-0.027782	1.453404
114.286454	883.735054	17.531507	-0.027735	1.450584
114.085158	880.011676	17.536512	-0.027683	1.447683
113.912866	876.362286	17.541517	-0.027638	1.444837
113.666234	872.733473	17.546522	-0.027575	1.441992
113.680917	869.042999	17.551527	-0.027576	1.439128
113.766882	865.330031	17.556531	-0.027594	1.436251
113.634495	861.569203	17.561536	-0.027559	1.433301
113.626518	857.874925	17.566541	-0.027554	1.430413
113.487892	854.110489	17.571546	-0.027517	1.427448
113.369971	850.380216	17.576551	-0.027486	1.424505
113.046812	846.720485	17.581555	-0.027404	1.421585
112.879548	842.992998	17.586560	-0.027360	1.418626
112.722841	839.339715	17.591565	-0.027319	1.415720
112.437079	835.651529	17.596570	-0.027247	1.412764
112.192937	832.024653	17.601575	-0.027184	1.409856
112.101314	828.368942	17.606579	-0.027159	1.406939
111.769860	824.743141	17.611584	-0.027075	1.404008
111.690197	821.173020	17.616589	-0.027053	1.401149
111.502027	817.539568	17.621594	-0.027004	1.398219
111.456456	813.903840	17.626599	-0.026990	1.395300
111.341721	810.283010	17.631603	-0.026960	1.392378
111.084460	806.666921	17.636608	-0.026894	1.389434
111.148014	803.033193	17.641613	-0.026907	1.386514
111.033520	799.373958	17.646618	-0.026876	1.383542
110.915417	795.734056	17.651623	-0.026844	1.380579
110.861201	792.067135	17.656627	-0.026828	1.377596
110.488568	788.428040	17.661632	-0.026734	1.374585
110.382361	784.830378	17.666637	-0.026706	1.371639
110.081664	781.218465	17.671642	-0.026629	1.368647
109.784989	777.682328	17.676647	-0.026554	1.365711
109.603464	774.146515	17.681651	-0.026507	1.362785
109.431430	770.597580	17.686656	-0.026462	1.359844
109.390780	767.040962	17.691661	-0.026450	1.356909
109.030268	763.504239	17.696666	-0.026359	1.353937
108.902392	760.015862	17.701671	-0.026325	1.351033
109.071070	756.407047	17.706675	-0.026364	1.348065
108.912520	752.824802	17.711680	-0.026322	1.345066
108.765506	749.298618	17.716685	-0.026283	1.342108
108.703251	745.708703	17.721690	-0.026265	1.339103
108.552170	742.142751	17.726695	-0.026226	1.336098
108.280116	738.598592	17.731699	-0.026157	1.333087
108.222808	735.023861	17.736704	-0.026140	1.330075
107.997303	731.510549	17.741709	-0.026082	1.327083
107.943676	727.929771	17.746714	-0.026066	1.324052
107.753407	724.445274	17.751719	-0.026017	1.321076
107.674696	720.887589	17.756723	-0.025995	1.318048
107.466180	717.327022	17.761728	-0.025941	1.314990
107.316991	713.838213	17.766733	-0.025902	1.311996
107.230978	710.282356	17.771738	-0.025879	1.308947
107.156684	706.740514	17.776743	-0.025858	1.305905
107.054313	703.228253	17.781747	-0.025830	1.302876
106.718422	699.724456	17.786752	-0.025745	1.299813
106.611241	696.225527	17.791757	-0.025716	1.296781
106.587382	692.655110	17.796762	-0.025708	1.293693
106.271844	689.162316	17.801767	-0.025628	1.290620
106.093396	685.694469	17.806771	-0.025582	1.287583
105.865348	682.183708	17.811776	-0.025523	1.284493
105.701194	678.778234	17.816781	-0.025481	1.281498
105.606318	675.273526	17.821786	-0.025455	1.278419
105.302568	671.822554	17.826791	-0.025378	1.275348
105.158619	668.413520	17.831795	-0.025340	1.272331
105.061330	664.935345	17.836800	-0.025314	1.269253
105.038791	661.487940	17.841805	-0.025305	1.266206
104.768528	658.069948	17.846810	-0.025237	1.263140
104.544565	654.640967	17.851815	-0.025179	1.260063
104.483504	651.224420	17.856819	-0.025162	1.257015
104.206733	647.795652	17.861824	-0.025092	1.253916
104.163529	644.386883	17.866829	-0.025078	1.250863
103.877458	641.015021	17.871834	-0.025006	1.247797
103.790880	637.585284	17.876839	-0.024982	1.244704
103.853429	634.211583	17.881843	-0.024995	1.241677
103.550209	630.791429	17.886848	-0.024918	1.238542
103.641376	627.343148	17.891853	-0.024938	1.235437
103.496891	623.939816	17.896858	-0.024900	1.232327
103.183956	620.540859	17.901863	-0.024821	1.229186
103.001640	617.181387	17.906867	-0.024774	1.226094
102.641723	613.838698	17.911872	-0.024683	1.222980
102.633823	610.448680	17.916877	-0.024679	1.219873
102.343337	607.136477	17.921882	-0.024605	1.216783
102.063718	603.808324	17.926887	-0.024534	1.213672
102.133156	600.448385	17.931891	-0.024549	1.210581
102.093527	597.094064	17.936896	-0.024536	1.207470
101.882770	593.757001	17.941901	-0.024482	1.204338
101.766545	590.443751	17.946906	-0.024451	1.201236
101.830044	587.043942	17.951911	-0.024464	1.198075
101.754151	583.660771	17.956915	-0.024443	1.194897
101.400051	580.355283	17.961920	-0.024354	1.191738
101.259206	577.023860	17.966925	-0.024317	1.188581
101.025216	573.710475	17.971930	-0.024257	1.185418
100.995577	570.411942	17.976935	-0.024247	1.182294
100.841013	567.081661	17.981939	-0.024207	1.179111
100.451212	563.801181	17.986944	-0.024109	1.175927
100.269928	560.560969	17.991949	-0.024063	1.172808
100.083093	557.296387	17.996954	-0.024014	1.169656
100.009117	554.023739	18.001959	-0.023994	1.166508
100.176603	550.729463	18.006963	-0.024032	1.163372
99.951277	547.424989	18.011968	-0.023975	1.160149
99.931041	544.137163	18.016973	-0.023967	1.156970
99.955060	540.798897	18.021978	-0.023970	1.153740
99.727756	537.489388	18.026983	-0.023912	1.150485
99.617597	534.225366	18.031987	-0.023883	1.147286
99.300441	530.949822	18.036992	-0.023803	1.144030
99.154410	527.694331	18.041997	-0.023765	1.140815
98.820966	524.475811	18.047002	-0.023681	1.137593
98.504946	521.252637	18.052007	-0.023601	1.134361
98.289244	518.083646	18.057011	-0.023546	1.131192
98.002851	514.934983	18.062016	-0.023473	1.128020
97.580904	511.824081	18.067021	-0.023368	1.124853
97.355939	508.756359	18.072026	-0.023311	1.121756
97.266822	505.621904	18.077031	-0.023286	1.118608
97.290740	502.464607	18.082035	-0.023290	1.115448
97.088556	499.370854	18.087040	-0.023238	1.112303
97.192098	496.200972	18.092045	-0.023261	1.109127
97.122727	493.031871	18.097050	-0.023241	1.105911
97.210907	489.861519	18.102055	-0.023261	1.102714
97.247906	486.637374	18.107059	-0.023267	1.099444
97.332910	483.371160	18.112064	-0.023285	1.096129
97.338530	480.143304	18.117069	-0.023284	1.092829
97.294864	476.888346	18.122074	-0.023271	1.089482
97.121629	473.643323	18.127079	-0.023226	1.086110
97.002974	470.462262	18.132083	-0.023195	1.082805
96.725127	467.246195	18.137088	-0.023124	1.079423
96.408763	464.076249	18.142093	-0.023045	1.076070
95.934911	461.013470	18.147098	-0.022926	1.072789
95.526837	457.936218	18.152103	-0.022824	1.069496
95.443765	454.847889	18.157107	-0.022802	1.066242
94.949658	451.845343	18.162112	-0.022679	1.062990
94.638620	448.838702	18.167117	-0.022600	1.059759
94.470524	445.828824	18.172122	-0.022557	1.056543
94.359180	442.825461	18.177127	-0.022527	1.053334
94.312743	439.806532	18.182131	-0.022514	1.050112
94.328300	436.752671	18.187136	-0.022515	1.046854
94.313424	433.731919	18.192141	-0.022509	1.043616
94.260641	430.668884	18.197146	-0.022494	1.040315
94.295697	427.583339	18.202151	-0.022500	1.036997
94.340510	424.515133	18.207155	-0.022509	1.033688
94.300919	421.398791	18.212160	-0.022496	1.030300
94.227148	418.315112	18.217165	-0.022476	1.026929
94.246709	415.230062	18.222170	-0.022478	1.023565
94.106944	412.116593	18.227175	-0.022442	1.020126
94.031406	409.015924	18.232179	-0.022421	1.016702
93.670915	405.988211	18.237184	-0.022331	1.013290
93.492703	402.936094	18.242189	-0.022285	1.009876
93.335143	399.893630	18.247194	-0.022244	1.006465
92.944900	396.946559	18.252199	-0.022146	1.003102
92.805258	393.952315	18.257203	-0.022110	0.999726
92.419927	390.994625	18.262208	-0.022013	0.996328
92.277816	388.067101	18.267213	-0.021976	0.993004
91.962606	385.163606	18.272218	-0.021897	0.989659
91.770817	382.218518	18.277223	-0.021848	0.986282
91.678447	379.321110	18.282227	-0.021823	0.982968
91.368542	376.428313	18.287232	-0.021745	0.979602
91.351999	373.493395	18.292237	-0.021739	0.976239
91.322847	370.589780	18.297242	-0.021729	0.972897
91.282632	367.652908	18.302247	-0.021717	0.969503
91.327408	364.700468	18.307251	-0.021726	0.966097
91.304118	361.767053	18.312256	-0.021718	0.962687
91.296429	358.803416	18.317261	-0.021714	0.959233
91.165254	355.858448	18.322266	-0.021679	0.955761
91.119219	352.893713	18.327271	-0.021666	0.952272
90.922026	349.992900	18.332275	-0.021615	0.948812
90.622207	347.097184	18.337280	-0.021540	0.945323
90.528520	344.191048	18.342285	-0.021515	0.941854
90.171766	341.358254	18.347290	-0.021425	0.938402
89.824703	338.522957	18.352295	-0.021338	0.934935
89.661198	335.695618	18.357299	-0.021296	0.931507
89.419809	332.895783	18.362304	-0.021235	0.928081
89.398568	330.078440	18.367309	-0.021228	0.924672
89.106441	327.297551	18.372314	-0.021154	0.921232
89.049274	324.477796	18.377319	-0.021138	0.917786
89.029041	321.679614	18.382323	-0.021131	0.914361
89.045473	318.831845	18.387328	-0.021132	0.910871
88.899512	316.023531	18.392333	-0.021095	0.907379
88.929941	313.194355	18.397338	-0.021100	0.903889
88.662043	310.387291	18.402343	-0.021032	0.900342
88.553569	307.583492	18.407347	-0.021004	0.896824
88.388416	304.806613	18.412352	-0.020961	0.893311
88.421030	301.989662	18.417357	-0.020967	0.889781
88.006367	299.263624	18.422362	-0.020863	0.886246
87.782422	296.539712	18.427367	-0.020806	0.882745
87.623846	293.817961	18.432371	-0.020766	0.879248
87.471173	291.079982	18.437376	-0.020726	0.875718
87.269234	288.376817	18.442381	-0.020675	0.872206
87.109413	285.695867	18.447386	-0.020633	0.868719
86.975780	283.001343	18.452391	-0.020599	0.865207
86.917949	280.303856	18.457395	-0.020582	0.861695
86.589098	277.641246	18.462400	-0.020500	0.858147
86.485157	274.985281	18.467405	-0.020473	0.854649
86.534456	272.284139	18.472410	-0.020482	0.851115
86.374889	269.604921	18.477415	-0.020441	0.847543
86.382090	266.952318	18.482419	-0.020441	0.844033
86.190688	264.279874	18.487424	-0.020392	0.840433
86.133858	261.610889	18.492429	-0.020376	0.836855
85.966085	258.969675	18.497434	-0.020333	0.833271
85.761944	256.347687	18.502439	-0.020281	0.829688
85.630087	253.722463	18.507443	-0.020247	0.826104
85.459739	251.101436	18.512448	-0.020203	0.822500
85.318002	248.492743	18.517453	-0.020167	0.818904
85.202098	245.884204	18.522458	-0.020136	0.815299
84.969614	243.295855	18.527463	-0.020077	0.811676
84.933536	240.697850	18.532467	-0.020066	0.808074
84.737805	238.150268	18.537472	-0.020017	0.804485
84.713781	235.552538	18.542477	-0.020009	0.800854
84.532983	232.980754	18.547482	-0.019963	0.797202
84.400251	230.426633	18.552487	-0.019928	0.793571
84.313548	227.883132	18.557491	-0.019905	0.789951
84.203920	225.324346	18.562496	-0.019876	0.786285
84.021229	222.796171	18.567501	-0.019829	0.782627
83.788381	220.295191	18.572506	-0.019771	0.778977
83.705021	217.767731	18.577511	-0.019748	0.775312
83.527375	215.276412	18.582515	-0.019703	0.771657
83.257187	212.795890	18.587520	-0.019635	0.767974
83.055253	210.369911	18.592525	-0.019584	0.764372
83.074194	207.874022	18.597530	-0.019586	0.760712
82.644932	205.464367	18.602535	-0.019479	0.757035
82.666132	203.006865	18.607539	-0.019483	0.753397
82.455186	200.593686	18.612544	-0.019429	0.749742
82.371900	198.162875	18.617549	-0.019407	0.746078
82.277064	195.735548	18.622554	-0.019382	0.742399
82.135008	193.308724	18.627559	-0.019345	0.738688
82.083066	190.902614	18.632563	-0.019331	0.735016
82.029217	188.472419	18.637568	-0.019316	0.731288
81.973444	186.051510	18.642573	-0.019300	0.727555
81.775169	183.688900	18.647578	-0.019250	0.723851
81.464031	181.338420	18.652583	-0.019172	0.720113
81.467122	178.953323	18.657587	-0.019171	0.716395
81.213776	176.615522	18.662592	-0.019107	0.712655
81.018189	174.286380	18.667597	-0.019057	0.708927
80.842699	171.991252	18.672602	-0.019012	0.705238
80.653242	169.679086	18.677607	-0.018964	0.701499
80.656725	167.344975	18.682611	-0.018963	0.697764
80.483805	165.044776	18.687616	-0.018919	0.694009
80.273584	162.777318	18.692621	-0.018866	0.690275
80.177631	160.501043	18.697626	-0.018841	0.686542
80.019093	158.232886	18.702631	-0.018800	0.682782
80.008188	155.951442	18.707635	-0.018796	0.679026
79.805143	153.715431	18.712640	-0.018744	0.675264
79.730638	151.454678	18.717645	-0.018724	0.671480
79.727209	149.188860	18.722650	-0.018722	0.667689
79.591333	146.939022	18.727655	-0.018687	0.663860
79.433281	144.716803	18.732659	-0.018646	0.660049
79.336156	142.483146	18.737664	-0.018621	0.656216
79.216956	140.261174	18.742669	-0.018590	0.652374
79.059108	138.062944	18.747674	-0.018550	0.648536
78.823832	135.907315	18.752679	-0.018490	0.644724
78.726205	133.728055	18.757683	-0.018465	0.640895
78.470364	131.581042	18.762688	-0.018400	0.637045
78.421684	129.416372	18.767693	-0.018387	0.633211
78.483870	127.229999	18.772698	-0.018400	0.629354
78.240297	125.121363	18.777703	-0.018339	0.625506
78.160650	122.976015	18.782707	-0.018318	0.621625
77.974750	120.857587	18.787712	-0.018271	0.617731
77.806338	118.751511	18.792717	-0.018228	0.613842
77.729242	116.657569	18.797722	-0.018207	0.609982
77.588259	114.569908	18.802727	-0.018171	0.606086
77.428240	112.504520	18.807731	-0.018130	0.602200
77.248298	110.436404	18.812736	-0.018085	0.598276
77.026759	108.411207	18.817741	-0.018029	0.594392
76.884609	106.388612	18.822746	-0.017993	0.590516
76.560345	104.400513	18.827751	-0.017912	0.586614
76.398831	102.411746	18.832755	-0.017871	0.582744
76.164692	100.433411	18.837760	-0.017812	0.578841
75.979746	98.479693	18.842765	-0.017765	0.574979
75.834043	96.532569	18.847770	-0.017728	0.571118
75.590800	94.605868	18.852775	-0.017667	0.567233
75.509762	92.680440	18.857779	-0.017646	0.563387
75.518067	90.717944	18.862784	-0.017646	0.559475
75.417508	88.805991	18.867789	-0.017620	0.555595
75.490403	86.852799	18.872794	-0.017636	0.551672
75.276533	84.957595	18.877799	-0.017582	0.547725
75.290573	83.037909	18.882803	-0.017584	0.543791
75.277045	81.110035	18.887808	-0.017579	0.539800
75.145367	79.228331	18.892813	-0.017546	0.535827
75.074258	77.338745	18.897818	-0.017527	0.531833
74.944752	75.465533	18.902823	-0.017494	0.527820
74.926055	73.591964	18.907827	-0.017487	0.523821
74.695990	71.752863	18.912832	-0.017430	0.519777
74.424952	69.956392	18.917837	-0.017362	0.515777
74.296336	68.144777	18.922842	-0.017329	0.511773
74.004723	66.370890	18.927847	-0.017256	0.507750
73.814852	64.607799	18.932851	-0.017209	0.503764
73.508064	62.865486	18.937856	-0.017132	0.499741
73.225637	61.159830	18.942861	-0.017062	0.495779
73.135224	59.427546	18.947866	-0.017038	0.491809
72.874608	57.736101	18.952871	-0.016973	0.487825
72.871870	56.018578	18.957875	-0.016971	0.483863
72.734617	54.319173	18.962880	-0.016936	0.479851
72.798815	52.604471	18.967885	-0.016950	0.475860
72.736722	50.913510	18.972890	-0.016934	0.471834
72.598924	49.240776	18.977895	-0.016899	0.467781
72.652622	47.549350	18.982899	-0.016910	0.463738
72.470700	45.895379	18.987904	-0.016865	0.459639
72.436070	44.235611	18.992909	-0.016855	0.455559
72.295833	42.610053	18.997914	-0.016819	0.451477
72.136120	40.994847	19.002919	-0.016779	0.447373
72.093595	39.374120	19.007923	-0.016767	0.443275
71.723744	37.821783	19.012928	-0.016675	0.439150
71.531551	36.263969	19.017933	-0.016627	0.435062
71.361437	34.727961	19.022938	-0.016584	0.431002
71.119615	33.201038	19.027943	-0.016524	0.426891
70.857528	31.708514	19.032947	-0.016459	0.422820
70.582073	30.226994	19.037952	-0.016390	0.418733
70.406220	28.752282	19.042957	-0.016346	0.414676
70.296586	27.279750	19.047962	-0.016318	0.410620
70.051658	25.851651	19.052967	-0.016257	0.406573
69.833992	24.432279	19.057971	-0.016202	0.402524
69.740337	22.996843	19.062976	-0.016178	0.398457
69.635452	21.578526	19.067981	-0.016151	0.394391
69.359418	20.210431	19.072986	-0.016083	0.390330
69.093913	18.865811	19.077991	-0.016017	0.386301
68.962124	17.504563	19.082995	-0.015983	0.382257
68.751025	16.169985	19.088000	-0.015931	0.378203
68.490137	14.861425	19.093005	-0.015866	0.374154
68.256691	13.572107	19.098010	-0.015808	0.370134
68.194363	12.263700	19.103015	-0.015791	0.366115
68.065837	10.978565	19.108019	-0.015759	0.362083
67.852901	9.719832	19.113024	-0.015706	0.358036
67.743239	8.458056	19.118029	-0.015678	0.353998
67.527391	7.227553	19.123034	-0.015624	0.349946
67.417774	5.986887	19.128039	-0.015596	0.345881
67.146563	4.799173	19.133043	-0.015529	0.341838
66.833566	3.633071	19.138048	-0.015451	0.337791
66.621253	2.465913	19.143053	-0.015398	0.333757
66.427683	1.319272	19.148058	-0.015350	0.329756
66.229092	0.184405	19.153063	-0.015300	0.325743
65.705114	-0.863369	19.158067	-0.015171	0.321761
65.353183	-1.925613	19.163072	-0.015084	0.317797
64.779933	-2.915768	19.168077	-0.014943	0.313885
64.091278	-3.852613	19.173082	-0.014774	0.310035
60.807454	-4.232556	19.178087	-0.013972	0.306310
54.387439	-3.776546	19.183091	-0.012403	0.303355
50.138734	-3.596361	19.188096	-0.011365	0.300929
47.094782	-3.483770	19.193101	-0.010621	0.299117
43.833600	-3.222134	19.198106	-0.009824	0.297695
42.172023	-3.211823	19.203111	-0.009418	0.296503
40.662602	-3.159594	19.208115	-0.009049	0.295578
38.656617	-2.965522	19.213120	-0.008559	0.294818
37.914707	-2.969348	19.218125	-0.008377	0.294249
37.008042	-2.900902	19.223130	-0.008156	0.293830
35.873777	-2.784891	19.228135	-0.007878	0.293422
34.838747	-2.630814	19.233139	-0.007625	0.293234
35.095380	-2.751648	19.238144	-0.007688	0.292964
35.386572	-2.871190	19.243149	-0.007759	0.292724
34.713418	-2.816027	19.248154	-0.007594	0.292429
34.283198	-2.783317	19.253159	-0.007489	0.292230
34.370813	-2.866672	19.258163	-0.007510	0.291975
34.184016	-2.889260	19.263168	-0.007464	0.291747
33.629183	-2.823417	19.268173	-0.007328	0.291580
33.559483	-2.866186	19.273178	-0.007311	0.291362
34.005790	-3.023480	19.278183	-0.007420	0.291094
33.684774	-3.027157	19.283187	-0.007341	0.290836
32.735526	-2.898593	19.288192	-0.007109	0.290612
32.279037	-2.866856	19.293197	-0.006997	0.290388
32.056827	-2.821126	19.298202	-0.006943	0.290396
31.867156	-2.843156	19.303207	-0.006896	0.290166
31.937114	-2.874898	19.308211	-0.006913	0.290096
32.259684	-2.983360	19.313216	-0.006992	0.289921
31.518226	-2.879816	19.318221	-0.006810	0.289757
30.858908	-2.791775	19.323226	-0.006649	0.289596
29.766067	-2.593360	19.328231	-0.006382	0.289533
30.055540	-2.589261	19.333235	-0.006453	0.289768
29.878398	-2.621939	19.338240	-0.006409	0.289506
29.481094	-2.545864	19.343245	-0.006312	0.289498
29.498368	-2.479192	19.348250	-0.006316	0.289769
29.443053	-2.540041	19.353255	-0.006302	0.289491
29.929293	-2.643587	19.358259	-0.006421	0.289459
30.224557	-2.703707	19.363264	-0.006493	0.289450
31.108793	-2.949363	19.368269	-0.006708	0.289170
31.400776	-3.068865	19.373274	-0.006779	0.288928
31.187845	-3.136568	19.378279	-0.006727	0.288502
30.833764	-3.157048	19.383283	-0.006640	0.288151
30.570957	-3.193472	19.388288	-0.006576	0.287808
29.777439	-3.123681	19.393293	-0.006382	0.287472
28.593712	-2.925545	19.398298	-0.006093	0.287337
28.106284	-2.867223	19.403303	-0.005973	0.287191
27.639323	-2.816809	19.408307	-0.005859	0.287029
26.951686	-2.683796	19.413312	-0.005691	0.287020
26.156693	-2.492339	19.418317	-0.005497	0.287158
26.280898	-2.469335	19.423322	-0.005527	0.287342
26.008918	-2.419330	19.428327	-0.005460	0.287328
25.763691	-2.367571	19.433331	-0.005400	0.287341
25.676478	-2.274036	19.438336	-0.005379	0.287639
26.743449	-2.478364	19.443341	-0.005639	0.287659
27.230046	-2.649359	19.448346	-0.005758	0.287364
26.959850	-2.607069	19.453351	-0.005691	0.287321
26.886153	-2.667190	19.458355	-0.005673	0.287029
27.462572	-2.815054	19.463360	-0.005814	0.286893
27.631914	-2.928220	19.468365	-0.005855	0.286579
27.699286	-3.028621	19.473370	-0.005871	0.286237
27.418152	-3.068173	19.478375	-0.005802	0.285865
27.112591	-3.086372	19.483379	-0.005727	0.285558
26.775667	-3.105611	19.488384	-0.005645	0.285221
26.411094	-3.111169	19.493389	-0.005555	0.284917
25.338558	-2.937237	19.498394	-0.005293	0.284772
24.455053	-2.832301	19.503399	-0.005077	0.284501
24.249742	-2.789429	19.508403	-0.005027	0.284510
23.217267	-2.587762	19.513408	-0.004774	0.284505
22.564091	-2.457693	19.518413	-0.004615	0.284512
22.162019	-2.300202	19.523418	-0.004516	0.284821
21.730677	-2.205884	19.528423	-0.004411	0.284858
22.184001	-2.221933	19.533427	-0.004521	0.285144
22.352822	-2.255818	19.538432	-0.004562	0.285141
23.271370	-2.436721	19.543437	-0.004787	0.285138
23.928840	-2.580791	19.548442	-0.004947	0.285079
23.726347	-2.609296	19.553447	-0.004897	0.284809
24.694067	-2.858132	19.558451	-0.005133	0.284577
24.488379	-2.907252	19.563456	-0.005083	0.284223
24.350040	-2.959930	19.568461	-0.005049	0.283907
24.384898	-3.059269	19.573466	-0.005057	0.283541
24.320032	-3.146598	19.578471	-0.005041	0.283144
23.711337	-3.116442	19.583475	-0.004892	0.282789
22.524111	-2.961636	19.588480	-0.004602	0.282478
21.524010	-2.796159	19.593485	-0.004357	0.282354
20.962614	-2.683878	19.598490	-0.004220	0.282361
19.947615	-2.487405	19.603495	-0.003972	0.282349
19.927326	-2.480720	19.608499	-0.003967	0.282359
19.796775	-2.455650	19.613504	-0.003935	0.282356
19.639280	-2.425774	19.618509	-0.003896	0.282352
19.323946	-2.316746	19.623514	-0.003819	0.282538
19.919735	-2.421243	19.628519	-0.003964	0.282587
19.764613	-2.447588	19.633523	-0.003926	0.282361
19.632449	-2.422211	19.638528	-0.003893	0.282358
20.200082	-2.534324	19.643533	-0.004032	0.282355
20.966411	-2.732269	19.648538	-0.004219	0.282165
20.784542	-2.770028	19.653543	-0.004174	0.281872
20.689108	-2.817461	19.658547	-0.004151	0.281608
20.679355	-2.890605	19.663552	-0.004148	0.281308
20.710467	-2.981319	19.668557	-0.004155	0.280970
20.270981	-2.969340	19.673562	-0.004048	0.280673
19.898742	-2.974283	19.678567	-0.003957	0.280360
19.633603	-2.983303	19.683571	-0.003892	0.280115
18.376529	-2.806171	19.688576	-0.003584	0.279834
17.698014	-2.673344	19.693581	-0.003418	0.279832
16.899890	-2.513136	19.698586	-0.003223	0.279845
16.156833	-2.370387	19.703591	-0.003042	0.279831
15.668380	-2.226891	19.708595	-0.002922	0.280021
16.012200	-2.259682	19.713600	-0.003006	0.280160
16.244509	-2.306022	19.718605	-0.003062	0.280156
16.317374	-2.317435	19.723610	-0.003080	0.280167
16.691365	-2.394123	19.728615	-0.003171	0.280154
17.470411	-2.561673	19.733619	-0.003361	0.280095
17.559074	-2.643035	19.738624	-0.003383	0.279838
17.824264	-2.764472	19.743629	-0.003447	0.279559
17.425973	-2.754352	19.748634	-0.003350	0.279285
17.012476	-2.726656	19.753639	-0.003248	0.279069
17.111601	-2.796303	19.758643	-0.003272	0.278867
17.022767	-2.851026	19.763648	-0.003250	0.278575
16.918156	-2.910323	19.768653	-0.003225	0.278253
16.301349	-2.843861	19.773658	-0.003074	0.278032
16.008936	-2.863288	19.778663	-0.003002	0.277721
15.823814	-2.866115	19.783667	-0.002957	0.277562
14.775276	-2.702361	19.788672	-0.002700	0.277390
14.411062	-2.651891	19.793677	-0.002611	0.277304
13.818813	-2.552112	19.798682	-0.002466	0.277237
13.222403	-2.465786	19.803687	-0.002320	0.277111
13.381988	-2.426594	19.808691	-0.002359	0.277396
12.624852	-2.279363	19.813696	-0.002174	0.277389
12.599457	-2.274469	19.818701	-0.002168	0.277388
12.235716	-2.200342	19.823706	-0.002079	0.277398
12.213543	-2.199824	19.828711	-0.002073	0.277382
13.048172	-2.361010	19.833715	-0.002277	0.277393
13.343835	-2.419067	19.838720	-0.002349	0.277392
13.496987	-2.505922	19.843725	-0.002386	0.277162
13.580304	-2.549619	19.848730	-0.002406	0.277050
13.602993	-2.625491	19.853735	-0.002411	0.276760
13.872551	-2.743808	19.858739	-0.002477	0.276495
13.629415	-2.777187	19.863744	-0.002417	0.276164
13.769041	-2.881587	19.868749	-0.002451	0.275851
13.429456	-2.896072	19.873754	-0.002368	0.275520
12.756097	-2.843509	19.878759	-0.002203	0.275194
12.655100	-2.881392	19.883763	-0.002178	0.274958
11.988484	-2.805205	19.888768	-0.002015	0.274734
11.140318	-2.680835	19.893773	-0.001808	0.274560
10.974149	-2.647876	19.898778	-0.001767	0.274561
10.352136	-2.602017	19.903783	-0.001615	0.274248
9.792146	-2.490271	19.908787	-0.001478	0.274254
9.055644	-2.332350	19.913792	-0.001298	0.274308
9.217141	-2.303070	19.918797	-0.001337	0.274557
8.865971	-2.230912	19.923802	-0.001251	0.274569
8.635043	-2.187932	19.928807	-0.001195	0.274559
8.869334	-2.232123	19.933811	-0.001252	0.274565
9.041962	-2.267274	19.938816	-0.001294	0.274560
9.749305	-2.407274	19.943821	-0.001466	0.274555
10.134424	-2.549198	19.948826	-0.001560	0.274283
10.341140	-2.631567	19.953831	-0.001610	0.274111
10.403029	-2.710442	19.958835	-0.001625	0.273838
10.472301	-2.807737	19.963840	-0.001642	0.273494
10.354932	-2.871023	19.968845	-0.001613	0.273139
10.178914	-2.915534	19.973850	-0.001570	0.272813
9.621779	-2.898066	19.978855	-0.001433	0.272433
9.068835	-2.860658	19.983859	-0.001298	0.272139
8.000173	-2.690877	19.988864	-0.001037	0.271973
7.168929	-2.570509	19.993869	-0.000833	0.271795
6.626094	-2.460943	19.998874	-0.000701	0.271806
5.767292	-2.296290	20.003879	-0.000491	0.271788
5.607000	-2.201763	20.008883	-0.000452	0.272048
5.632804	-2.190919	20.013888	-0.000458	0.272113
5.593781	-2.185465	20.018893	-0.000448	0.272103
5.660501	-2.195011	20.023898	-0.000464	0.272117
6.070983	-2.278266	20.028903	-0.000564	0.272106
6.756974	-2.410765	20.033907	-0.000731	0.272114
6.747743	-2.485007	20.038912	-0.000729	0.271800
7.178494	-2.610891	20.043917	-0.000834	0.271629
7.169250	-2.676226	20.048922	-0.000831	0.271351
6.915699	-2.711877	20.053927	-0.000769	0.270996
7.087128	-2.814997	20.058931	-0.000811	0.270708
6.968733	-2.871585	20.063936	-0.000781	0.270376
6.666853	-2.901717	20.068941	-0.000707	0.270004
5.930419	-2.822650	20.073946	-0.000527	0.269730
5.046886	-2.685698	20.078951	-0.000311	0.269577
4.743136	-2.695334	20.083955	-0.000237	0.269287
3.784732	-2.506487	20.088960	-0.000003	0.269289
2.779892	-2.311165	20.093965	0.000243	0.269279
2.481733	-2.249351	20.098970	0.000316	0.269292
2.355056	-2.189191	20.103975	0.000347	0.269438
2.407385	-2.161660	20.108979	0.000334	0.269595
2.386161	-2.156925	20.113984	0.000340	0.269597
2.829096	-2.246140	20.118989	0.000232	0.269587
3.519593	-2.397930	20.123994	0.000063	0.269519
3.306468	-2.413419	20.128999	0.000116	0.269279
3.891629	-2.560349	20.134003	-0.000027	0.269146
3.616851	-2.554274	20.139008	0.000040	0.268945
3.512969	-2.605011	20.144013	0.000066	0.268647
3.751481	-2.720662	20.149018	0.000008	0.268359
3.410587	-2.725504	20.154023	0.000092	0.268058
3.332500	-2.776888	20.159027	0.000111	0.267777
