Sun Feb 26 13:28:06 2017

Number of Points = 3584
Depth (nm)	Load (µN)	Time (s)	Depth (V)	Load (V)
1.671200	-0.036605	0.000000	-0.000044	0.278362

1.721476	-0.048183	0.005005	-0.000056	0.278354
1.668857	-0.036965	0.010010	-0.000043	0.278357
1.602523	-0.021916	0.015014	-0.000027	0.278364
1.605559	-0.025057	0.020019	-0.000027	0.278353
1.627723	-0.082024	0.025024	-0.000032	0.278140
1.388220	-0.060140	0.030029	0.000026	0.278038
1.454356	-0.073749	0.035034	0.000010	0.278034
1.421559	-0.086274	0.040038	0.000019	0.277957
1.259959	-0.111302	0.045043	0.000058	0.277727
1.317172	-0.118937	0.050048	0.000045	0.277741
1.162258	-0.116644	0.055053	0.000083	0.277626
1.234463	-0.185545	0.060058	0.000065	0.277404
1.372989	-0.222428	0.065062	0.000032	0.277364
1.279415	-0.272909	0.070067	0.000055	0.277085
1.370941	-0.315381	0.075072	0.000033	0.276985
1.364705	-0.364608	0.080077	0.000035	0.276779
1.265721	-0.404338	0.085082	0.000059	0.276538
1.339135	-0.458230	0.090086	0.000042	0.276377
1.281520	-0.504992	0.095091	0.000056	0.276141
1.248825	-0.573183	0.100096	0.000064	0.275836
1.150085	-0.613538	0.105101	0.000089	0.275592
1.024864	-0.642702	0.110106	0.000119	0.275372
1.077764	-0.707781	0.115110	0.000107	0.275149
0.862889	-0.731140	0.120115	0.000160	0.274880
0.886360	-0.805254	0.125120	0.000154	0.274596
0.928317	-0.876542	0.130125	0.000144	0.274337
0.708551	-0.888686	0.135130	0.000198	0.274110
0.694128	-0.940601	0.140134	0.000202	0.273885
0.627619	-1.001940	0.145139	0.000218	0.273579
0.656394	-1.076019	0.150144	0.000212	0.273297
0.508173	-1.120802	0.155149	0.000248	0.272993
0.433899	-1.178580	0.160154	0.000267	0.272694
0.523029	-1.270646	0.165158	0.000245	0.272386
0.429473	-1.335928	0.170163	0.000268	0.272040
0.385348	-1.400944	0.175168	0.000279	0.271735
0.280466	-1.461728	0.180173	0.000305	0.271398
0.091795	-1.507056	0.185178	0.000352	0.271056
0.200787	-1.607597	0.190182	0.000325	0.270728
-0.013051	-1.646749	0.195187	0.000378	0.270390
-0.163872	-1.693876	0.200192	0.000415	0.270071
-0.307998	-1.744529	0.205197	0.000450	0.269741
-0.297292	-1.825504	0.210202	0.000448	0.269412
-0.368719	-1.875035	0.215206	0.000466	0.269146
-0.625677	-1.903160	0.220211	0.000529	0.268817
-0.611082	-1.983428	0.225216	0.000526	0.268493
-0.828200	-2.021389	0.230221	0.000579	0.268155
-0.986054	-2.065409	0.235226	0.000618	0.267840
-1.155643	-2.105675	0.240230	0.000659	0.267531
-1.407236	-2.130721	0.245235	0.000721	0.267217
-1.339574	-2.206625	0.250240	0.000705	0.266953
-1.542059	-2.238193	0.255245	0.000755	0.266652
-1.722726	-2.270711	0.260250	0.000799	0.266365
-1.713433	-2.338635	0.265254	0.000797	0.266085
-1.972152	-2.357632	0.270259	0.000861	0.265790
-2.135351	-2.383553	0.275264	0.000901	0.265544
-2.288798	-2.416127	0.280269	0.000939	0.265278
-2.362160	-2.472266	0.285274	0.000957	0.264978
-2.478827	-2.503797	0.290278	0.000985	0.264746
-2.914767	-2.472107	0.295283	0.001092	0.264517
-3.136642	-2.469859	0.300288	0.001147	0.264340
-3.665260	-2.415357	0.305293	0.001276	0.264130
-4.254908	-2.310636	0.310298	0.001420	0.264081
-4.115412	-2.336112	0.315302	0.001386	0.264089
-4.244721	-2.373970	0.320307	0.001418	0.263819
-4.188876	-2.398955	0.325312	0.001405	0.263758
-4.370500	-2.364927	0.330317	0.001450	0.263750
-4.446623	-2.420820	0.335322	0.001468	0.263448
-4.446951	-2.422535	0.340326	0.001469	0.263439
-4.367833	-2.476753	0.345331	0.001450	0.263274
-4.479422	-2.490937	0.350336	0.001477	0.263119
-4.558407	-2.503101	0.355341	0.001497	0.263000
-6.054468	-2.254291	0.360346	0.001862	0.262806
-6.477404	-2.127547	0.365350	0.001966	0.262991
-6.399694	-2.116826	0.370355	0.001947	0.263102
-6.284188	-2.136488	0.375360	0.001919	0.263114
-6.337894	-2.126493	0.380365	0.001932	0.263110
-5.976855	-2.198339	0.385370	0.001845	0.263106
-5.837103	-2.223411	0.390374	0.001811	0.263115
-5.773632	-2.286770	0.395379	0.001795	0.262897
-6.190602	-2.224430	0.400384	0.001898	0.262813
-6.338220	-2.195748	0.405389	0.001934	0.262810
-6.170912	-2.229779	0.410394	0.001893	0.262805
-6.316833	-2.212885	0.415398	0.001929	0.262753
-6.517322	-2.238917	0.420403	0.001978	0.262473
-6.511043	-2.237594	0.425408	0.001977	0.262483
-7.077420	-2.127479	0.430413	0.002116	0.262477
-7.443584	-2.056167	0.435418	0.002205	0.262473
-7.480294	-2.045514	0.440422	0.002214	0.262487
-7.303149	-2.083821	0.445427	0.002171	0.262472
-6.859940	-2.168431	0.450432	0.002063	0.262481
-6.867342	-2.206723	0.455437	0.002066	0.262310
-7.141854	-2.187455	0.460442	0.002133	0.262161
-6.906945	-2.230596	0.465446	0.002076	0.262173
-7.369056	-2.201925	0.470451	0.002189	0.261906
-7.395484	-2.207669	0.475456	0.002196	0.261858
-6.893629	-2.311727	0.480461	0.002073	0.261834
-6.364780	-2.482035	0.485466	0.001944	0.261549
-6.425100	-2.530769	0.490470	0.001959	0.261288
-6.816753	-2.518583	0.495475	0.002055	0.261008
-7.154829	-2.486741	0.500480	0.002138	0.260859
-7.901472	-2.402819	0.505485	0.002321	0.260587
-8.228811	-2.339394	0.510490	0.002401	0.260582
-8.778981	-2.228467	0.515494	0.002536	0.260594
-9.268538	-2.134983	0.520499	0.002655	0.260581
-9.848199	-2.018712	0.525504	0.002797	0.260590
-10.839793	-1.796738	0.530509	0.003039	0.260706
-10.879611	-1.743680	0.535514	0.003049	0.260900
-11.171050	-1.614887	0.540518	0.003121	0.261207
-11.076695	-1.594796	0.545523	0.003098	0.261372
-10.286315	-1.707709	0.550528	0.002905	0.261553
-10.210092	-1.723309	0.555533	0.002887	0.261550
-9.375985	-1.887315	0.560538	0.002683	0.261549
-8.731937	-2.011819	0.565542	0.002526	0.261557
-8.272068	-2.145529	0.570547	0.002414	0.261370
-7.818410	-2.296479	0.575552	0.002304	0.261103
-7.432885	-2.452292	0.580557	0.002210	0.260758
-6.795596	-2.670243	0.585562	0.002055	0.260358
-6.887185	-2.770031	0.590566	0.002077	0.259849
-7.154611	-2.818277	0.595571	0.002143	0.259412
-7.863828	-2.764049	0.600576	0.002316	0.259042
-9.000369	-2.605137	0.605581	0.002594	0.258762
-9.724924	-2.533800	0.610586	0.002771	0.258452
-10.512403	-2.375763	0.615590	0.002964	0.258466
-11.388528	-2.207690	0.620595	0.003178	0.258447
-12.105355	-2.064345	0.625600	0.003353	0.258456
-13.138840	-1.805643	0.630605	0.003606	0.258697
-13.580867	-1.661632	0.635610	0.003714	0.258944
-13.676499	-1.570255	0.640614	0.003738	0.259258
-13.612105	-1.526003	0.645619	0.003722	0.259503
-12.822984	-1.644588	0.650624	0.003530	0.259660
-12.587842	-1.621622	0.655629	0.003472	0.259958
-12.119709	-1.714174	0.660634	0.003358	0.259955
-11.510996	-1.830623	0.665638	0.003210	0.259968
-11.147874	-1.904883	0.670643	0.003122	0.259955
-10.864694	-2.023368	0.675648	0.003053	0.259683
-10.674578	-2.076421	0.680653	0.003007	0.259614
-10.087205	-2.260882	0.685658	0.002863	0.259314
-9.530181	-2.433637	0.690662	0.002728	0.259040
-9.912488	-2.450038	0.695667	0.002821	0.258642
-10.079135	-2.495398	0.700672	0.002862	0.258301
-10.585619	-2.469288	0.705677	0.002986	0.257981
-11.015808	-2.446748	0.710682	0.003092	0.257710
-11.766275	-2.342824	0.715686	0.003275	0.257519
-12.091372	-2.322698	0.720691	0.003355	0.257327
-12.477238	-2.276676	0.725696	0.003449	0.257196
-12.693698	-2.233819	0.730701	0.003502	0.257197
-12.696760	-2.238130	0.735706	0.003503	0.257175
-13.558923	-2.124004	0.740710	0.003714	0.256932
-13.768765	-2.023950	0.745715	0.003766	0.257188
-13.957527	-1.983614	0.750720	0.003812	0.257201
-14.387076	-1.900389	0.755725	0.003917	0.257195
-14.621078	-1.855406	0.760730	0.003974	0.257190
-14.821199	-1.763280	0.765734	0.004024	0.257419
-14.795493	-1.749157	0.770739	0.004018	0.257502
-14.684940	-1.769132	0.775744	0.003991	0.257509
-14.814139	-1.718966	0.780749	0.004023	0.257616
-14.030485	-1.840406	0.785754	0.003831	0.257757
-14.251460	-1.852170	0.790758	0.003886	0.257516
-13.797221	-1.944507	0.795763	0.003775	0.257502
-13.460052	-2.007472	0.800768	0.003693	0.257515
-13.611216	-2.035586	0.805773	0.003730	0.257262
-13.372894	-2.098607	0.810778	0.003672	0.257191
-13.239227	-2.192608	0.815782	0.003640	0.256894
-13.136553	-2.259759	0.820787	0.003615	0.256688
-13.111670	-2.322360	0.825792	0.003609	0.256434
-13.224300	-2.365176	0.830797	0.003637	0.256149
-13.215253	-2.435911	0.835802	0.003635	0.255846
-13.927099	-2.346776	0.840806	0.003809	0.255622
-14.121624	-2.364157	0.845811	0.003857	0.255376
-14.324196	-2.340684	0.850816	0.003907	0.255304
-14.990912	-2.280135	0.855821	0.004070	0.254992
-15.390857	-2.203079	0.860826	0.004168	0.254985
-16.118445	-2.057415	0.865830	0.004346	0.254995
-16.836153	-1.920047	0.870835	0.004521	0.254978
-17.342901	-1.778128	0.875840	0.004645	0.255163
-17.649710	-1.682970	0.880845	0.004720	0.255316
-17.437014	-1.669675	0.885850	0.004668	0.255557
-17.034733	-1.734157	0.890854	0.004570	0.255621
-17.015950	-1.740719	0.895859	0.004566	0.255607
-16.866935	-1.767145	0.900864	0.004530	0.255619
-16.537536	-1.832216	0.905869	0.004450	0.255617
-15.933992	-1.952709	0.910874	0.004303	0.255608
-15.621640	-2.012759	0.915878	0.004227	0.255613
-15.654336	-2.075604	0.920883	0.004235	0.255307
-15.471388	-2.142531	0.925888	0.004190	0.255170
-16.178954	-2.043831	0.930893	0.004363	0.254992
-15.773911	-2.176859	0.935898	0.004265	0.254755
-15.907306	-2.176608	0.940902	0.004298	0.254640
-16.298369	-2.162244	0.945907	0.004393	0.254363
-15.952044	-2.257477	0.950912	0.004309	0.254243
-16.757181	-2.122741	0.955917	0.004506	0.254138
-16.716065	-2.190656	0.960922	0.004496	0.253872
-17.180733	-2.112808	0.965926	0.004610	0.253812
-17.487318	-2.054399	0.970931	0.004685	0.253803
-17.404343	-2.126653	0.975936	0.004665	0.253554
-17.612434	-2.101008	0.980941	0.004716	0.253486
-17.513870	-2.120865	0.985946	0.004692	0.253483
-17.657631	-2.138967	0.990950	0.004728	0.253276
-18.401540	-2.019215	0.995955	0.004910	0.253158
-18.578743	-1.982073	1.000960	0.004953	0.253167

-19.189785	-1.816872	1.010957	0.005103	0.253365
-19.110416	-1.802641	1.020954	0.005084	0.253496
-18.751327	-1.804039	1.030950	0.004997	0.253801
-18.295443	-1.892720	1.040947	0.004886	0.253803
-17.808899	-1.987207	1.050944	0.004767	0.253806
-17.655958	-2.079446	1.060941	0.004731	0.253529
-17.529344	-2.114838	1.070938	0.004700	0.253481
-17.650578	-2.138539	1.080934	0.004730	0.253269
-17.975710	-2.097814	1.090931	0.004810	0.253164
-18.022270	-2.088108	1.100928	0.004822	0.253165
-18.403182	-1.991753	1.110925	0.004916	0.253258
-18.156175	-1.990396	1.120922	0.004856	0.253478
-18.852683	-1.837408	1.130918	0.005026	0.253547
-18.360461	-1.876892	1.140915	0.004907	0.253799
-18.223628	-1.866905	1.150912	0.004874	0.253961
-17.389367	-2.002152	1.160909	0.004670	0.254086
-17.336344	-2.077360	1.170906	0.004658	0.253798
-17.429373	-2.059146	1.180902	0.004681	0.253796
-17.309580	-2.082167	1.190899	0.004652	0.253797
-17.809214	-1.982752	1.200896	0.004775	0.253800
-18.081693	-1.908202	1.210893	0.004842	0.253891
-17.724205	-1.924244	1.220890	0.004755	0.254129
-17.249539	-2.016540	1.230886	0.004640	0.254132
-17.248235	-2.016858	1.240883	0.004640	0.254130
-16.912225	-2.082063	1.250880	0.004558	0.254132
-16.993553	-2.121132	1.260877	0.004579	0.253887
-17.084792	-2.094652	1.270874	0.004601	0.253923
-17.342576	-2.017934	1.280870	0.004665	0.254036
-17.275861	-2.008873	1.290867	0.004649	0.254133
-17.671196	-1.930277	1.300864	0.004746	0.254135
-17.732264	-1.869936	1.310861	0.004761	0.254347
-17.543765	-1.859820	1.320858	0.004716	0.254553
-16.732337	-1.990398	1.330854	0.004518	0.254679
-16.349615	-2.099684	1.340851	0.004425	0.254527
-15.975783	-2.207938	1.350848	0.004334	0.254372
-15.841730	-2.277766	1.360845	0.004302	0.254178
-16.212318	-2.214642	1.370842	0.004393	0.254134
-16.965876	-2.066412	1.380838	0.004578	0.254132
-17.687949	-1.906667	1.390835	0.004754	0.254209
-17.901525	-1.800054	1.400832	0.004807	0.254493
-17.312301	-1.833762	1.410829	0.004663	0.254853
-16.857602	-1.891456	1.420826	0.004553	0.254991
-16.459648	-1.969576	1.430822	0.004456	0.254990
-15.583210	-2.141451	1.440819	0.004243	0.254990
-15.497097	-2.195860	1.450816	0.004222	0.254823
-15.596357	-2.208118	1.460813	0.004247	0.254682
-15.981478	-2.132496	1.470810	0.004341	0.254679
-16.628964	-2.004817	1.480806	0.004500	0.254679
-17.280297	-1.836535	1.490803	0.004659	0.254855
-17.209987	-1.774816	1.500800	0.004643	0.255186
-16.387202	-1.868878	1.510797	0.004442	0.255482
-15.510947	-2.041420	1.520794	0.004229	0.255479
-15.198880	-2.140553	1.530790	0.004153	0.255311
-15.094984	-2.206545	1.540787	0.004128	0.255109
-15.085422	-2.235042	1.550784	0.004126	0.254990
-15.604107	-2.133542	1.560781	0.004254	0.254986
-16.223376	-2.011215	1.570778	0.004405	0.254987
-16.555813	-1.915610	1.580774	0.004487	0.255119
-16.477705	-1.875775	1.590771	0.004468	0.255360
-16.169443	-1.877718	1.600768	0.004393	0.255616
-15.561753	-1.997024	1.610765	0.004246	0.255615
-15.437479	-2.021693	1.620762	0.004216	0.255612
-15.140878	-2.065365	1.630758	0.004144	0.255675
-14.986600	-2.108427	1.640755	0.004107	0.255617
-14.875830	-2.129471	1.650752	0.004080	0.255619
-14.969469	-2.111261	1.660749	0.004103	0.255616
-15.115660	-2.108019	1.670746	0.004140	0.255502
-15.296333	-2.046547	1.680742	0.004184	0.255615
-15.452058	-2.015393	1.690739	0.004223	0.255615
-15.260178	-2.052779	1.700736	0.004176	0.255615
-15.298103	-2.016403	1.710733	0.004186	0.255740
-15.104007	-2.011404	1.720730	0.004139	0.255928
-15.212667	-1.989423	1.730726	0.004166	0.255929
-15.335660	-1.934868	1.740723	0.004197	0.256061
-14.831394	-1.989974	1.750720	0.004074	0.256252
-14.591595	-2.037100	1.760717	0.004016	0.256250
-14.119190	-2.151277	1.770714	0.003901	0.256155
-14.296205	-2.167739	1.780710	0.003945	0.255929
-14.183564	-2.188678	1.790707	0.003918	0.255932
-14.422344	-2.141385	1.800704	0.003976	0.255932
-14.823218	-2.061977	1.810701	0.004075	0.255933
-14.870182	-2.052783	1.820698	0.004087	0.255931
-15.066534	-1.945904	1.830694	0.004135	0.256229
-15.376100	-1.838708	1.840691	0.004211	0.256430
-14.971781	-1.861608	1.850688	0.004113	0.256676
-14.288977	-1.948293	1.860685	0.003947	0.256882
-14.078795	-1.989226	1.870682	0.003896	0.256882
-13.658077	-2.086024	1.880678	0.003794	0.256819
-13.468914	-2.177248	1.890675	0.003748	0.256581
-13.247027	-2.245128	1.900672	0.003694	0.256473
-13.489082	-2.248032	1.910669	0.003754	0.256250
-13.937204	-2.160300	1.920666	0.003864	0.256247
-14.345139	-2.079148	1.930662	0.003964	0.256249
-14.426230	-1.996765	1.940659	0.003984	0.256539
-14.563241	-1.945215	1.950656	0.004018	0.256645
-14.469623	-1.907986	1.960653	0.003996	0.256886
-14.437590	-1.855669	1.970650	0.003988	0.257141
-14.300223	-1.838736	1.980646	0.003955	0.257331
-13.554504	-1.943919	1.990643	0.003773	0.257510
-13.114936	-2.036434	2.000640	0.003667	0.257481
-12.598215	-2.202781	2.010637	0.003541	0.257197
-12.207255	-2.332033	2.020634	0.003446	0.256966
-12.390416	-2.365150	2.030630	0.003491	0.256663
-13.170373	-2.230290	2.040627	0.003682	0.256580
-14.344694	-1.985869	2.050624	0.003969	0.256638
-14.579039	-1.857922	2.060621	0.004027	0.256994
-14.539408	-1.778843	2.070618	0.004018	0.257372
-13.951870	-1.807125	2.080614	0.003875	0.257750
-13.400510	-1.894673	2.090611	0.003741	0.257839
-12.238796	-2.122770	2.100608	0.003457	0.257839
-12.186045	-2.192272	2.110605	0.003445	0.257579
-11.829628	-2.297453	2.120602	0.003359	0.257425
-12.521974	-2.213671	2.130598	0.003528	0.257195
-12.865194	-2.144976	2.140595	0.003612	0.257198
-13.538984	-2.002510	2.150592	0.003777	0.257240
-13.534699	-1.940409	2.160589	0.003777	0.257513
-13.465144	-1.889888	2.170586	0.003760	0.257791
-12.973596	-1.975259	2.180582	0.003641	0.257839
-12.495880	-2.058788	2.190579	0.003525	0.257882
-11.825072	-2.199876	2.200576	0.003361	0.257840
-11.737488	-2.249835	2.210573	0.003340	0.257696
-12.153879	-2.209688	2.220570	0.003443	0.257512
-12.836679	-2.071006	2.230566	0.003610	0.257530
-13.135663	-1.940382	2.240563	0.003683	0.257842
-13.411586	-1.832708	2.250560	0.003751	0.258072
-12.948636	-1.850521	2.260557	0.003638	0.258389
-12.360132	-1.949927	2.270554	0.003495	0.258458
-11.413303	-2.136490	2.280550	0.003264	0.258454
-11.240931	-2.216242	2.290547	0.003223	0.258253
-11.232801	-2.271238	2.300544	0.003221	0.258019
-11.321190	-2.295128	2.310541	0.003243	0.257838
-11.441039	-2.287652	2.320538	0.003273	0.257766
-12.437760	-2.087232	2.330534	0.003517	0.257784
-13.509216	-1.824124	2.340531	0.003779	0.258011
-13.158837	-1.782815	2.350528	0.003694	0.258488
-12.448985	-1.855525	2.360525	0.003521	0.258777
-11.533683	-2.001917	2.370522	0.003298	0.258921
-10.787028	-2.182614	2.380518	0.003116	0.258772
-10.497611	-2.295445	2.390515	0.003046	0.258527
-10.876102	-2.287835	2.400512	0.003139	0.258235
-11.783270	-2.127527	2.410509	0.003361	0.258155
-12.145727	-1.987535	2.420506	0.003450	0.258452
-12.374613	-1.889719	2.430502	0.003506	0.258680
-11.931477	-1.923774	2.440499	0.003399	0.258909
-10.846920	-2.095979	2.450496	0.003134	0.259085
-10.269622	-2.279465	2.460493	0.002994	0.258779
-10.444077	-2.304814	2.470490	0.003037	0.258519
-10.852960	-2.238324	2.480486	0.003137	0.258457
-11.726774	-2.066707	2.490483	0.003351	0.258454
-12.425312	-1.857126	2.500480	0.003522	0.258766
-12.480548	-1.748467	2.510477	0.003536	0.259189
-11.623148	-1.850134	2.520474	0.003327	0.259477
-10.430676	-2.062508	2.530470	0.003036	0.259570
-9.879198	-2.224296	2.540467	0.002902	0.259338
-9.353916	-2.374442	2.550464	0.002774	0.259133
-9.332382	-2.473489	2.560461	0.002770	0.258720
-10.733865	-2.258882	2.570458	0.003113	0.258454
-11.259929	-2.102987	2.580454	0.003241	0.258680
-11.546871	-1.999925	2.590451	0.003312	0.258881
-11.218434	-2.010908	2.600448	0.003232	0.259111
-11.044685	-1.996217	2.610445	0.003190	0.259321
-10.852286	-2.029684	2.620442	0.003144	0.259339
-10.398949	-2.078070	2.630438	0.003033	0.259513
-10.732858	-1.984921	2.640435	0.003115	0.259630
-10.342180	-2.057140	2.650432	0.003021	0.259649
-9.938434	-2.135831	2.660429	0.002922	0.259650
-9.774926	-2.168128	2.670426	0.002883	0.259647
-9.818257	-2.220122	2.680422	0.002894	0.259384
-9.249506	-2.342887	2.690419	0.002756	0.259335
-9.539222	-2.325674	2.700416	0.002827	0.259161
-10.092920	-2.228659	2.710413	0.002963	0.259108
-10.437596	-2.121066	2.720410	0.003047	0.259279
-10.686133	-2.052692	2.730406	0.003108	0.259362
-10.921380	-1.934526	2.740403	0.003166	0.259671
-10.446650	-1.961151	2.750400	0.003051	0.259958
-10.180117	-1.974870	2.760397	0.002986	0.260123
-9.664998	-2.038671	2.770394	0.002861	0.260283
-9.214472	-2.133498	2.780390	0.002751	0.260254
-8.946349	-2.255146	2.790387	0.002686	0.259955
-9.096585	-2.224929	2.800384	0.002724	0.259956
-9.040776	-2.281958	2.810381	0.002710	0.259756
-9.356043	-2.244049	2.820378	0.002788	0.259650
-9.623943	-2.190387	2.830374	0.002854	0.259653
-9.955758	-2.054348	2.840371	0.002935	0.259957
-9.786223	-2.076090	2.850368	0.002894	0.260005
-9.512376	-2.064954	2.860365	0.002828	0.260284
-9.496563	-2.068832	2.870362	0.002825	0.260279
-9.289518	-2.108804	2.880358	0.002774	0.260280
-9.096682	-2.122395	2.890355	0.002728	0.260384
-8.687617	-2.221691	2.900352	0.002628	0.260300
-9.374502	-2.060876	2.910349	0.002797	0.260410
-9.175000	-2.058558	2.920346	0.002748	0.260587
-9.311477	-2.032741	2.930342	0.002782	0.260581
-9.020700	-2.067274	2.940339	0.002712	0.260677
-8.273745	-2.218582	2.950336	0.002530	0.260656
-7.975188	-2.293039	2.960333	0.002457	0.260586
-8.020244	-2.342249	2.970330	0.002469	0.260334
-8.195371	-2.319601	2.980326	0.002512	0.260282
-8.794342	-2.201513	2.990323	0.002659	0.260282
-9.480033	-2.048288	3.000320	0.002827	0.260360
-9.743615	-1.914210	3.010317	0.002892	0.260713
-9.389984	-1.906006	3.020314	0.002806	0.261045
-8.995320	-1.943706	3.030310	0.002710	0.261215
-8.249763	-2.043910	3.040307	0.002528	0.261413
-7.768582	-2.183065	3.050304	0.002411	0.261219
-6.952267	-2.372808	3.060301	0.002212	0.261092
-7.291015	-2.370653	3.070298	0.002296	0.260813
-7.842845	-2.315465	3.080294	0.002431	0.260582
-8.403989	-2.203852	3.090291	0.002568	0.260586
-8.360432	-2.147127	3.100288	0.002558	0.260865
-8.466700	-2.116849	3.110285	0.002585	0.260904
-8.232791	-2.137177	3.120282	0.002528	0.261013
-7.862511	-2.162334	3.130278	0.002438	0.261216
-8.384225	-2.058585	3.140275	0.002566	0.261219
-8.616470	-1.972757	3.150272	0.002623	0.261390
-8.307306	-1.995483	3.160269	0.002548	0.261552
-7.838728	-2.023852	3.170266	0.002434	0.261824
-7.172747	-2.167894	3.180262	0.002272	0.261766
-6.648756	-2.320667	3.190259	0.002144	0.261550
-6.339189	-2.448582	3.200256	0.002069	0.261261
-6.969541	-2.395023	3.210253	0.002224	0.260957
-7.683890	-2.266421	3.220250	0.002399	0.260904
-8.309091	-2.071835	3.230246	0.002552	0.261211
-8.877304	-1.883777	3.240243	0.002691	0.261537
-8.854123	-1.784625	3.250240	0.002686	0.261980
-7.601962	-1.957058	3.260237	0.002380	0.262294
-6.598214	-2.176469	3.270234	0.002136	0.262198
-6.095267	-2.296993	3.280230	0.002013	0.262103
-5.903761	-2.406834	3.290227	0.001967	0.261792
-6.605110	-2.325297	3.300224	0.002139	0.261549
-7.691019	-2.101904	3.310221	0.002405	0.261590
-7.916086	-1.995740	3.320218	0.002460	0.261854
-7.821887	-1.941708	3.330214	0.002438	0.262163
-7.305710	-1.979040	3.340211	0.002312	0.262436
-6.553550	-2.116296	3.350208	0.002129	0.262480
-5.996157	-2.260364	3.360205	0.001993	0.262330
-5.866868	-2.323722	3.370202	0.001962	0.262166
-5.769249	-2.409049	3.380198	0.001939	0.261881
-6.008587	-2.395632	3.390195	0.001998	0.261735
-7.200919	-2.149754	3.400192	0.002289	0.261783
-8.159138	-1.900209	3.410189	0.002524	0.262044
-8.324173	-1.733366	3.420186	0.002564	0.262617
-7.545461	-1.788602	3.430182	0.002375	0.263034
-6.458294	-1.985327	3.440179	0.002110	0.263104
-5.528179	-2.166173	3.450176	0.001883	0.263111
-4.791289	-2.356072	3.460173	0.001704	0.262917
-4.885822	-2.423334	3.470170	0.001727	0.262548
-5.205633	-2.437055	3.480166	0.001806	0.262219
-5.856188	-2.321412	3.490163	0.001965	0.262165
-7.070170	-2.075621	3.500160	0.002262	0.262194
-7.728552	-1.847758	3.510157	0.002423	0.262614
-7.223516	-1.850176	3.520154	0.002300	0.263026
-6.476589	-1.911577	3.530150	0.002118	0.263388
-5.896186	-2.016411	3.540147	0.001977	0.263426
-5.488195	-2.095660	3.550144	0.001878	0.263428
-4.918824	-2.223051	3.560141	0.001740	0.263361
-4.748091	-2.314833	3.570138	0.001698	0.263111
-4.964020	-2.335264	3.580134	0.001752	0.262841
-5.325876	-2.271386	3.590131	0.001840	0.262808
-6.098905	-2.118080	3.600128	0.002030	0.262812
-6.372134	-2.003485	3.610125	0.002097	0.263071
-6.194447	-1.980757	3.620122	0.002054	0.263315
-5.940907	-2.003715	3.630118	0.001992	0.263428
-5.382028	-2.044305	3.640115	0.001856	0.263721
-5.011021	-2.147450	3.650112	0.001766	0.263591
-4.748284	-2.236403	3.660109	0.001703	0.263430
-4.615797	-2.261575	3.670106	0.001671	0.263432
-4.893169	-2.231760	3.680102	0.001739	0.263325
-5.341193	-2.130880	3.690099	0.001849	0.263378
-5.327604	-2.120951	3.700096	0.001846	0.263430
-5.564115	-2.061599	3.710093	0.001904	0.263484
-5.358578	-2.039961	3.720090	0.001855	0.263746
-5.203940	-2.070670	3.730086	0.001817	0.263743
-4.935288	-2.100071	3.740083	0.001752	0.263841
-4.696151	-2.090558	3.750080	0.001694	0.264080
-4.650849	-2.098650	3.760077	0.001684	0.264081
-4.616183	-2.105662	3.770074	0.001676	0.264079
-4.645259	-2.099637	3.780070	0.001683	0.264079
-4.826992	-2.063524	3.790067	0.001728	0.264079
-4.693839	-2.088435	3.800064	0.001696	0.264082
-4.793471	-2.068842	3.810061	0.001721	0.264081
-4.582741	-2.074962	3.820058	0.001670	0.264229
-4.475498	-2.073347	3.830054	0.001644	0.264324
-4.366250	-2.094268	3.840051	0.001618	0.264325
-4.632583	-2.040847	3.850048	0.001683	0.264327
-4.742986	-1.990887	3.860045	0.001711	0.264446
-4.511496	-1.990510	3.870042	0.001655	0.264639
-4.552687	-1.983132	3.880038	0.001665	0.264634
-4.285857	-1.977180	3.890035	0.001601	0.264880
-3.903777	-2.035867	3.900032	0.001508	0.264948
-3.731610	-2.075169	3.910029	0.001466	0.264923
-3.831339	-2.123235	3.920026	0.001491	0.264635
-3.862288	-2.091612	3.930022	0.001499	0.264741
-3.945881	-2.030280	3.940019	0.001520	0.264930
-4.149222	-1.985554	3.950016	0.001570	0.264948
-4.358729	-1.933479	3.960013	0.001622	0.264993
-4.309993	-1.876495	3.970010	0.001610	0.265273
-4.227227	-1.850304	3.980006	0.001591	0.265451
-4.032440	-1.858968	3.990003	0.001543	0.265575
-3.932516	-1.847759	4.000000	0.001520	0.265703
-3.823327	-1.823819	4.009997	0.001493	0.265894
-3.750514	-1.838206	4.019994	0.001476	0.265892
-3.654351	-1.810011	4.029990	0.001453	0.266089
-3.469187	-1.818524	4.039987	0.001408	0.266205
-3.438014	-1.823751	4.049984	0.001401	0.266207
-3.587361	-1.793990	4.059981	0.001438	0.266207
-3.518729	-1.760390	4.069978	0.001422	0.266404
-3.614623	-1.710534	4.079974	0.001446	0.266533
-3.578579	-1.685316	4.089971	0.001437	0.266667
-3.207922	-1.716800	4.099968	0.001347	0.266840
-2.991521	-1.758402	4.109965	0.001295	0.266842
-2.736273	-1.808772	4.119962	0.001233	0.266839
-2.792272	-1.797193	4.129958	0.001247	0.266840
-2.845494	-1.786833	4.139955	0.001261	0.266838
-2.877892	-1.779177	4.149952	0.001269	0.266842
-3.021052	-1.750498	4.159949	0.001305	0.266842
-2.980533	-1.713518	4.169946	0.001295	0.267030
-2.957122	-1.688607	4.179942	0.001290	0.267152
-3.032504	-1.673266	4.189939	0.001309	0.267153
-2.867428	-1.632583	4.199936	0.001269	0.267458
-2.961373	-1.610652	4.209933	0.001292	0.267471
-2.907369	-1.571787	4.219930	0.001280	0.267677
-2.716033	-1.581612	4.229926	0.001233	0.267792
-2.730561	-1.568319	4.239923	0.001237	0.267834
-2.670152	-1.517508	4.249920	0.001223	0.268095
-2.538341	-1.542600	4.259917	0.001191	0.268097
-2.512510	-1.521582	4.269914	0.001185	0.268204
-2.498235	-1.473971	4.279910	0.001182	0.268414
-2.447417	-1.483526	4.289907	0.001170	0.268414
-2.331711	-1.457556	4.299904	0.001143	0.268616
-2.283037	-1.437772	4.309901	0.001131	0.268737
-2.371436	-1.420346	4.319898	0.001153	0.268735
-2.360046	-1.352664	4.329894	0.001151	0.269026
-2.302602	-1.353200	4.339891	0.001137	0.269069
-2.138758	-1.346088	4.349888	0.001098	0.269231
-2.081183	-1.339972	4.359885	0.001084	0.269302
-2.157115	-1.310596	4.369882	0.001103	0.269361
-2.040649	-1.274305	4.379878	0.001075	0.269606
-2.018599	-1.278179	4.389875	0.001070	0.269606
-1.867726	-1.243794	4.399872	0.001034	0.269871
-1.958055	-1.214016	4.409869	0.001056	0.269919
-1.965794	-1.165229	4.419866	0.001059	0.270114
-1.843826	-1.158518	4.429862	0.001030	0.270240
-1.864439	-1.118385	4.439859	0.001035	0.270388
-1.842529	-1.084110	4.449856	0.001030	0.270547
-1.736928	-1.057502	4.459853	0.001005	0.270742
-1.683190	-1.039082	4.469850	0.000992	0.270860
-1.432401	-1.038634	4.479846	0.000931	0.271065
-1.494956	-0.999072	4.489843	0.000947	0.271176
-1.490875	-0.994586	4.499840	0.000947	0.271196
-1.420248	-0.932759	4.509837	0.000930	0.271508
-1.454295	-0.925350	4.519834	0.000939	0.271509
-1.331227	-0.880447	4.529830	0.000909	0.271793
-1.381323	-0.865779	4.539827	0.000922	0.271811
-1.339327	-0.804056	4.549824	0.000912	0.272099
-1.139392	-0.836007	4.559821	0.000863	0.272127
-1.039153	-0.794019	4.569818	0.000839	0.272380
-1.041618	-0.779420	4.579814	0.000840	0.272436
-0.985592	-0.773204	4.589811	0.000827	0.272506
-1.087346	-0.689327	4.599808	0.000853	0.272767
-1.047793	-0.667525	4.609805	0.000843	0.272887
-1.029071	-0.626709	4.619802	0.000839	0.273069
-1.001135	-0.582771	4.629798	0.000833	0.273270
-0.770549	-0.599978	4.639795	0.000777	0.273384
-0.617030	-0.589564	4.649792	0.000740	0.273549
-0.511567	-0.571381	4.659789	0.000715	0.273707
-0.524240	-0.568793	4.669786	0.000718	0.273706
-0.629698	-0.490175	4.679782	0.000744	0.273942
-0.562915	-0.479720	4.689779	0.000729	0.274036
-0.595333	-0.434489	4.699776	0.000737	0.274194
-0.608805	-0.413121	4.709773	0.000741	0.274269
-0.380825	-0.386803	4.719770	0.000686	0.274558
-0.467311	-0.365802	4.729766	0.000707	0.274573
-0.287593	-0.327757	4.739763	0.000664	0.274871
-0.295286	-0.322249	4.749760	0.000666	0.274886
-0.248442	-0.258520	4.759757	0.000655	0.275182
-0.311512	-0.233881	4.769754	0.000671	0.275230
-0.432994	-0.141309	4.779750	0.000701	0.275509
-0.276341	-0.115648	4.789747	0.000663	0.275737
-0.119303	-0.116755	4.799744	0.000625	0.275857
-0.144078	-0.039608	4.809741	0.000632	0.276149
0.018743	-0.034733	4.819738	0.000592	0.276297
-0.118466	0.036165	4.829734	0.000626	0.276474
0.000000	0.072528	4.839731	0.000598	0.276715

0.006032	0.087066	4.844736	0.000597	0.276778
-0.021155	0.125129	4.849741	0.000604	0.276909
0.156493	0.134003	4.854746	0.000560	0.277086
0.205651	0.160926	4.859750	0.000549	0.277233
0.161833	0.211524	4.864755	0.000560	0.277403
0.201072	0.270545	4.869760	0.000550	0.277672
0.262820	0.310765	4.874765	0.000535	0.277882
0.296871	0.358747	4.879770	0.000527	0.278102
0.418036	0.399991	4.884774	0.000498	0.278364
0.417415	0.477900	4.889779	0.000498	0.278677
0.554739	0.526021	4.894784	0.000465	0.278978
0.639623	0.566670	4.899789	0.000444	0.279208
0.707353	0.623114	4.904794	0.000428	0.279488
0.826919	0.681057	4.909798	0.000399	0.279814
0.803440	0.772825	4.914803	0.000405	0.280162
0.808752	0.864392	4.919808	0.000404	0.280532
0.890673	0.945604	4.924813	0.000384	0.280920
0.987090	1.022305	4.929818	0.000360	0.281302
1.036483	1.116162	4.934822	0.000349	0.281714
1.207367	1.195001	4.939827	0.000307	0.282160
1.300768	1.275673	4.944832	0.000284	0.282553
1.362084	1.379412	4.949837	0.000270	0.283012
1.417816	1.482814	4.954842	0.000256	0.283464
1.669970	1.550035	4.959846	0.000195	0.283926
1.815859	1.625785	4.964851	0.000159	0.284337
1.908296	1.712530	4.969856	0.000137	0.284750
2.054206	1.816226	4.974861	0.000101	0.285271
2.151255	1.906294	4.979866	0.000078	0.285699
2.119897	2.047349	4.984870	0.000086	0.286228
2.300210	2.141268	4.989875	0.000042	0.286734
2.359666	2.253178	4.994880	0.000027	0.287216
2.432479	2.389330	4.999885	0.000010	0.287803
2.506677	2.507286	5.004890	-0.000008	0.288318
2.554634	2.642161	5.009894	-0.000020	0.288879
2.702489	2.738583	5.014899	-0.000056	0.289365
2.618064	2.905837	5.019904	-0.000035	0.289948
2.883378	3.012635	5.024909	-0.000100	0.290562
3.007454	3.145177	5.029914	-0.000130	0.291167
3.192881	3.266620	5.034918	-0.000175	0.291774
3.270303	3.408982	5.039923	-0.000194	0.292378
3.346406	3.553132	5.044928	-0.000212	0.292988
3.530767	3.689653	5.049933	-0.000257	0.293648
3.728062	3.796077	5.054938	-0.000305	0.294202
3.879142	3.928285	5.059942	-0.000342	0.294818
4.113154	4.047500	5.064947	-0.000399	0.295445
4.130777	4.207971	5.069952	-0.000403	0.296066
4.249024	4.358396	5.074957	-0.000432	0.296723
4.296379	4.519999	5.079962	-0.000443	0.297368
4.453359	4.666015	5.084966	-0.000482	0.298034
4.703901	4.800456	5.089971	-0.000543	0.298724
4.563377	4.987020	5.094976	-0.000508	0.299320
4.866648	5.115041	5.099981	-0.000582	0.300022
4.867498	5.295031	5.104986	-0.000582	0.300694
5.069678	5.446984	5.109990	-0.000631	0.301408
5.148369	5.629915	5.114995	-0.000651	0.302145
5.322101	5.785191	5.120000	-0.000693	0.302847
5.417769	5.964229	5.125005	-0.000716	0.303578
5.514968	6.131789	5.130010	-0.000740	0.304267
5.598429	6.314770	5.135014	-0.000760	0.305000
5.967708	6.441875	5.140019	-0.000850	0.305733
6.025833	6.634168	5.145024	-0.000864	0.306479
6.283869	6.786439	5.150029	-0.000927	0.307221
6.434817	6.950508	5.155034	-0.000964	0.307927
6.711173	7.104912	5.160038	-0.001031	0.308685
6.860485	7.251639	5.165043	-0.001068	0.309324
6.914948	7.433789	5.170048	-0.001081	0.310022
7.114222	7.606782	5.175053	-0.001129	0.310788
7.088480	7.817880	5.180058	-0.001123	0.311531
7.107705	8.024035	5.185062	-0.001128	0.312285
7.289902	8.213620	5.190067	-0.001172	0.313093
7.348299	8.412019	5.195072	-0.001186	0.313844
7.397646	8.620764	5.200077	-0.001198	0.314623
7.574494	8.811760	5.205082	-0.001241	0.315427
7.505004	9.058744	5.210086	-0.001224	0.316255
7.686295	9.269903	5.215091	-0.001268	0.317129
7.755808	9.492954	5.220096	-0.001285	0.317964
7.965346	9.692625	5.225101	-0.001336	0.318812
8.117746	9.889740	5.230106	-0.001374	0.319610
8.314245	10.099546	5.235110	-0.001421	0.320480
8.355102	10.342843	5.240115	-0.001431	0.321358
8.532280	10.554817	5.245120	-0.001475	0.322218
8.802221	10.754499	5.250125	-0.001540	0.323096
8.851508	10.990809	5.255130	-0.001552	0.323948
9.176622	11.170104	5.260134	-0.001632	0.324788
9.162334	11.424115	5.265139	-0.001628	0.325655
9.254611	11.664005	5.270144	-0.001651	0.326542
9.495207	11.880962	5.275149	-0.001709	0.327447
9.610595	12.123434	5.280154	-0.001737	0.328354
9.696147	12.344004	5.285158	-0.001758	0.329163
9.818442	12.588475	5.290163	-0.001788	0.330077
9.848562	12.851430	5.295168	-0.001795	0.330989
10.110874	13.079606	5.300173	-0.001859	0.331935
10.185753	13.337113	5.305178	-0.001878	0.332853
10.203676	13.609966	5.310182	-0.001882	0.333783
10.210323	13.885620	5.315187	-0.001884	0.334712
10.423403	14.134122	5.320192	-0.001936	0.335683
10.610808	14.395473	5.325197	-0.001981	0.336677
10.725523	14.664079	5.330202	-0.002009	0.337645
10.862922	14.933864	5.335206	-0.002043	0.338630
11.201725	15.150305	5.340211	-0.002125	0.339565
11.456919	15.385263	5.345216	-0.002188	0.340505
11.584267	15.656375	5.350221	-0.002219	0.341478
11.697897	15.926342	5.355226	-0.002247	0.342436
11.931796	16.177316	5.360230	-0.002304	0.343407
12.053959	16.437137	5.365235	-0.002333	0.344332
12.091192	16.724219	5.370240	-0.002342	0.345290
12.323851	16.988156	5.375245	-0.002399	0.346293
12.336863	17.285995	5.380250	-0.002402	0.347265
12.320362	17.610889	5.385254	-0.002398	0.348302
12.725119	17.831182	5.390259	-0.002497	0.349265
12.879721	18.106119	5.395264	-0.002535	0.350244
13.062448	18.386605	5.400269	-0.002579	0.351255
13.143084	18.680586	5.405274	-0.002599	0.352242
13.296757	18.978084	5.410278	-0.002637	0.353284
13.366484	19.262629	5.415283	-0.002654	0.354229
13.493259	19.555702	5.420288	-0.002685	0.355234
13.667266	19.857096	5.425293	-0.002727	0.356291
13.668077	20.189876	5.430298	-0.002727	0.357338
13.823562	20.492028	5.435302	-0.002765	0.358380
13.940060	20.791940	5.440307	-0.002794	0.359388
14.040878	21.114471	5.445312	-0.002818	0.360455
14.130314	21.447689	5.450317	-0.002840	0.361544
14.022484	21.829447	5.455322	-0.002814	0.362661
14.359471	22.115002	5.460326	-0.002896	0.363746
14.627901	22.412354	5.465331	-0.002962	0.364824
14.626159	22.769985	5.470336	-0.002961	0.365920
14.849558	23.095248	5.475341	-0.003016	0.367049
14.963487	23.438017	5.480346	-0.003044	0.368163
15.149670	23.738692	5.485350	-0.003089	0.369188
15.434182	24.055569	5.490355	-0.003159	0.370318
15.678502	24.364698	5.495360	-0.003218	0.371397
15.844472	24.705669	5.500365	-0.003259	0.372523
16.055427	25.012386	5.505370	-0.003310	0.373569
16.277847	25.322373	5.510374	-0.003365	0.374629
16.453326	25.652453	5.515379	-0.003408	0.375718
16.626631	25.977886	5.520384	-0.003450	0.376789
16.770186	26.323321	5.525389	-0.003485	0.377899
16.816615	26.658879	5.530394	-0.003496	0.378920
16.995441	26.996938	5.535398	-0.003540	0.380023
17.098693	27.358633	5.540403	-0.003565	0.381148
17.272520	27.698895	5.545408	-0.003608	0.382247
17.237506	28.094411	5.550413	-0.003599	0.383386
17.326633	28.450063	5.555418	-0.003621	0.384475
17.514623	28.813479	5.560422	-0.003667	0.385641
17.651210	29.189506	5.565427	-0.003700	0.386810
17.639147	29.590930	5.570432	-0.003697	0.387965
17.884235	29.925137	5.575437	-0.003757	0.389068
17.943475	30.329312	5.580442	-0.003772	0.390265
18.202980	30.691072	5.585446	-0.003835	0.391448
18.288790	31.093076	5.590451	-0.003856	0.392646
18.516059	31.439426	5.595456	-0.003912	0.393760
18.682566	31.823628	5.600461	-0.003952	0.394945
18.823868	32.215884	5.605466	-0.003987	0.396136
18.889793	32.625324	5.610470	-0.004003	0.397329
19.068675	33.008905	5.615475	-0.004047	0.398509
19.088279	33.418372	5.620480	-0.004052	0.399670
19.392511	33.799371	5.625485	-0.004126	0.400904
19.647900	34.181162	5.630490	-0.004189	0.402110
19.627932	34.613106	5.635494	-0.004184	0.403302
19.794663	35.010313	5.640499	-0.004225	0.404495
19.998918	35.411991	5.645504	-0.004274	0.405717
20.227950	35.812956	5.650509	-0.004330	0.406947
20.400981	36.209970	5.655514	-0.004373	0.408132
20.668740	36.573410	5.660518	-0.004438	0.409273
20.749372	37.004413	5.665523	-0.004458	0.410495
20.824391	37.434823	5.670528	-0.004476	0.411709
21.120839	37.830528	5.675533	-0.004549	0.412943
21.004942	38.278853	5.680538	-0.004521	0.414097
21.338708	38.676208	5.685542	-0.004602	0.415348
21.397003	39.127275	5.690547	-0.004617	0.416594
21.299321	39.607746	5.695552	-0.004593	0.417834
21.378158	40.056402	5.700557	-0.004612	0.419078
21.455442	40.524903	5.705562	-0.004631	0.420370
21.660988	40.977404	5.710566	-0.004681	0.421682
21.836423	41.438705	5.715571	-0.004724	0.422997
22.036617	41.870552	5.720576	-0.004773	0.424244
22.315464	42.313359	5.725581	-0.004841	0.425556
22.534974	42.756722	5.730586	-0.004895	0.426835
22.861180	43.173944	5.735590	-0.004975	0.428097
23.066662	43.596755	5.740595	-0.005025	0.429307
23.232525	44.045367	5.745600	-0.005066	0.430562
23.422917	44.496041	5.750605	-0.005112	0.431830
23.707100	44.916318	5.755610	-0.005182	0.433064
23.775537	45.362505	5.760614	-0.005199	0.434252
23.742558	45.866227	5.765619	-0.005191	0.435534
23.947938	46.320820	5.770624	-0.005241	0.436806
24.162392	46.773642	5.775629	-0.005293	0.438073
24.155365	47.255050	5.780634	-0.005292	0.439300
24.229466	47.755092	5.785638	-0.005310	0.440612
24.468961	48.230210	5.790643	-0.005369	0.441938
24.679021	48.686518	5.795648	-0.005420	0.443197
24.703167	49.190285	5.800653	-0.005426	0.444482
24.773995	49.702587	5.805658	-0.005444	0.445807
25.006440	50.187530	5.810662	-0.005500	0.447139
25.357153	50.630827	5.815667	-0.005586	0.448420
25.436201	51.122598	5.820672	-0.005606	0.449686
25.737979	51.593308	5.825677	-0.005679	0.451005
25.887986	52.090705	5.830682	-0.005716	0.452312
26.180254	52.529110	5.835686	-0.005788	0.453538
26.414815	53.005311	5.840691	-0.005845	0.454827
26.549523	53.494306	5.845696	-0.005878	0.456095
26.853703	53.962746	5.850701	-0.005953	0.457390
27.000580	54.424898	5.855706	-0.005988	0.458592
27.144748	54.913219	5.860710	-0.006024	0.459852
27.203072	55.436170	5.865715	-0.006038	0.461153
27.284722	55.950120	5.870720	-0.006058	0.462440
27.356308	56.458520	5.875725	-0.006076	0.463704
27.394449	56.996345	5.880730	-0.006085	0.465021
27.542346	57.522125	5.885734	-0.006122	0.466356
27.703805	58.052524	5.890739	-0.006161	0.467705
27.746183	58.573176	5.895744	-0.006172	0.468971
28.094871	59.072650	5.900749	-0.006257	0.470325
28.146781	59.627414	5.905754	-0.006270	0.471670
28.333798	60.151630	5.910758	-0.006316	0.473001
28.626918	60.644956	5.915763	-0.006387	0.474304
28.973181	61.138866	5.920768	-0.006472	0.475628
29.204588	61.652959	5.925773	-0.006529	0.476945
29.313669	62.168135	5.930778	-0.006556	0.478204
29.628507	62.653270	5.935782	-0.006633	0.479483
29.888152	63.163121	5.940787	-0.006696	0.480792
29.973174	63.694942	5.945792	-0.006717	0.482068
30.189730	64.194908	5.950797	-0.006770	0.483328
30.304124	64.724184	5.955802	-0.006798	0.484605
30.427125	65.261851	5.960806	-0.006828	0.485903
30.489355	65.826789	5.965811	-0.006844	0.487232
30.662472	66.325873	5.970816	-0.006886	0.488456
30.734486	66.895607	5.975821	-0.006904	0.489794
30.921354	67.441133	5.980826	-0.006950	0.491124
30.952240	68.017526	5.985830	-0.006957	0.492452
31.280804	68.528819	5.990835	-0.007038	0.493760
31.393939	69.091927	5.995840	-0.007066	0.495086
31.656481	69.635426	6.000845	-0.007130	0.496431
31.966763	70.149482	6.005850	-0.007206	0.497726
32.340181	70.635069	6.010854	-0.007297	0.498982
32.434048	71.199435	6.015859	-0.007320	0.500289
32.606581	71.737850	6.020864	-0.007362	0.501569
33.041275	72.225230	6.025869	-0.007469	0.502845
33.178916	72.748408	6.030874	-0.007503	0.504070
33.216832	73.314553	6.035878	-0.007512	0.505343
33.530763	73.832156	6.040883	-0.007589	0.506625
33.411522	74.416554	6.045888	-0.007560	0.507866
33.476719	74.984007	6.050893	-0.007576	0.509145
33.606712	75.560931	6.055898	-0.007608	0.510469
33.829903	76.123118	6.060902	-0.007663	0.511797
33.969298	76.679326	6.065907	-0.007697	0.513073
34.082938	77.250437	6.070912	-0.007725	0.514367
34.466797	77.787002	6.075917	-0.007819	0.515697
34.731782	78.336813	6.080922	-0.007884	0.517002
35.058914	78.827092	6.085926	-0.007964	0.518202
35.287565	79.375929	6.090931	-0.008020	0.519483
35.530491	79.909986	6.095936	-0.008079	0.520736
35.751949	80.457752	6.100941	-0.008133	0.522006
36.036952	80.950720	6.105946	-0.008203	0.523182
36.080500	81.519947	6.110950	-0.008214	0.524418
36.226105	82.084215	6.115955	-0.008250	0.525683
36.403214	82.634875	6.120960	-0.008293	0.526929
36.400737	83.195456	6.125965	-0.008293	0.528119
36.522248	83.772819	6.130970	-0.008322	0.529393
36.706942	84.344394	6.135974	-0.008368	0.530678
36.838434	84.939347	6.140979	-0.008400	0.531986
36.979452	85.486662	6.145984	-0.008435	0.533196
37.373995	86.026617	6.150989	-0.008531	0.534490
37.651603	86.574382	6.155994	-0.008599	0.535750
37.725332	87.157989	6.160998	-0.008617	0.537000
37.937034	87.697548	6.166003	-0.008669	0.538210
38.217141	88.241055	6.171008	-0.008738	0.539454
38.593796	88.767589	6.176013	-0.008830	0.540698
38.821132	89.312854	6.181018	-0.008886	0.541918
39.023405	89.836331	6.186022	-0.008935	0.543081
39.200939	90.391100	6.191027	-0.008979	0.544295
39.394193	90.934237	6.196032	-0.009026	0.545489
39.609069	91.483332	6.201037	-0.009079	0.546702
39.572553	92.049269	6.206042	-0.009070	0.547846
39.776444	92.596227	6.211046	-0.009120	0.549045
39.883651	93.189656	6.216051	-0.009146	0.550297
39.880913	93.797358	6.221056	-0.009146	0.551532
40.090131	94.355841	6.226061	-0.009197	0.552748
40.260999	94.930880	6.231066	-0.009239	0.553980
40.311157	95.547563	6.236070	-0.009251	0.555246
40.476436	96.154447	6.241075	-0.009292	0.556534
40.743669	96.696013	6.246080	-0.009357	0.557728
41.088723	97.246278	6.251085	-0.009442	0.558966
41.378157	97.808486	6.256090	-0.009513	0.560204
41.633471	98.368430	6.261094	-0.009575	0.561422
41.932032	98.906380	6.266099	-0.009648	0.562610
41.987754	99.478032	6.271104	-0.009662	0.563769
42.340564	100.019128	6.276109	-0.009748	0.564979
42.483844	100.588273	6.281114	-0.009784	0.566162
42.573450	101.161304	6.286118	-0.009806	0.567329
42.504122	101.765820	6.291123	-0.009789	0.568496
42.433861	102.409505	6.296128	-0.009772	0.569737
42.559475	103.038432	6.301133	-0.009803	0.571020
42.557630	103.682247	6.306138	-0.009803	0.572282
42.643140	104.314996	6.311142	-0.009824	0.573552
42.973922	104.927094	6.316147	-0.009905	0.574871
43.219808	105.534233	6.321152	-0.009965	0.576146
43.511751	106.121111	6.326157	-0.010037	0.577396
43.980298	106.655041	6.331162	-0.010151	0.578607
44.352878	107.208445	6.336166	-0.010242	0.579817
44.631645	107.781932	6.341171	-0.010311	0.581028
44.829081	108.346824	6.346176	-0.010359	0.582190
45.192822	108.871273	6.351181	-0.010448	0.583334
45.382641	109.435361	6.356186	-0.010495	0.584487
45.589466	109.996686	6.361190	-0.010545	0.585638
45.655645	110.597359	6.366195	-0.010562	0.586811
45.689234	111.158374	6.371200	-0.010570	0.587894
45.731628	111.781115	6.376205	-0.010581	0.589095
45.730832	112.422932	6.381210	-0.010581	0.590315
45.580417	113.104994	6.386214	-0.010544	0.591553
45.621856	113.747298	6.391219	-0.010554	0.592784
45.665324	114.416185	6.396224	-0.010565	0.594063
45.742039	115.106692	6.401229	-0.010584	0.595392
46.057545	115.741255	6.406234	-0.010662	0.596700
46.268330	116.351608	6.411238	-0.010713	0.597921
46.801680	116.936373	6.416243	-0.010844	0.599208
47.279008	117.495706	6.421248	-0.010960	0.600425
47.643384	118.072478	6.426253	-0.011050	0.601632
48.030068	118.596525	6.431258	-0.011144	0.602746
48.293675	119.157421	6.436262	-0.011209	0.603882
48.754125	119.680590	6.441267	-0.011321	0.605016
48.883845	120.254440	6.446272	-0.011353	0.606124
48.983735	120.808015	6.451277	-0.011378	0.607182
48.888668	121.423135	6.456282	-0.011355	0.608283
48.969323	122.033101	6.461286	-0.011375	0.609434
48.835357	122.707963	6.466291	-0.011342	0.610626
48.765627	123.378445	6.471296	-0.011325	0.611831
48.959860	123.994381	6.476301	-0.011373	0.613026
49.019622	124.670240	6.481306	-0.011388	0.614281
49.152958	125.331731	6.486310	-0.011421	0.615534
49.482975	125.958193	6.491315	-0.011502	0.616789
49.569065	126.588154	6.496320	-0.011523	0.617962
49.938031	127.208779	6.501325	-0.011613	0.619215
50.187596	127.841706	6.506330	-0.011674	0.620446
50.669997	128.410682	6.511334	-0.011792	0.621640
50.921412	128.984985	6.516339	-0.011854	0.622762
51.051977	129.599315	6.521344	-0.011886	0.623911
51.340282	130.207351	6.526349	-0.011957	0.625102
51.391629	130.844416	6.531354	-0.011969	0.626260
51.562354	131.420439	6.536358	-0.012011	0.627349
51.660629	132.060413	6.541363	-0.012036	0.628524
51.774572	132.702644	6.546368	-0.012064	0.629707
51.912085	133.348141	6.551373	-0.012097	0.630902
52.164069	133.955956	6.556378	-0.012159	0.632066
52.107153	134.615725	6.561382	-0.012145	0.633215
52.424758	135.252549	6.566387	-0.012223	0.634449
52.476625	135.916978	6.571392	-0.012236	0.635639
52.735906	136.551536	6.576397	-0.012300	0.636844
52.942427	137.164152	6.581402	-0.012350	0.637991
53.317713	137.760312	6.586406	-0.012442	0.639163
53.518583	138.403518	6.591411	-0.012492	0.640358
53.734509	139.025006	6.596416	-0.012545	0.641517
53.962334	139.615205	6.601421	-0.012600	0.642623
54.231035	140.224205	6.606426	-0.012666	0.643774
54.343372	140.864323	6.611430	-0.012694	0.644924
54.507350	141.499329	6.616435	-0.012734	0.646081
54.746865	142.075482	6.621440	-0.012793	0.647159
54.910177	142.698037	6.626445	-0.012833	0.648290
54.925223	143.362220	6.631450	-0.012837	0.649442
54.895328	144.046161	6.636454	-0.012830	0.650611
55.223369	144.679170	6.641459	-0.012910	0.651808
55.168893	145.344315	6.646464	-0.012897	0.652933
55.444207	145.995820	6.651469	-0.012965	0.654140
55.585306	146.666182	6.656474	-0.012999	0.655334
55.934912	147.289736	6.661478	-0.013085	0.656513
56.306721	147.873208	6.666483	-0.013176	0.657630
56.455171	148.509769	6.671488	-0.013212	0.658762
56.890673	149.104012	6.676493	-0.013319	0.659914
57.101700	149.721409	6.681498	-0.013371	0.661029
57.387650	150.294817	6.686502	-0.013441	0.662093
57.724516	150.869018	6.691507	-0.013523	0.663173
57.779272	151.499161	6.696512	-0.013537	0.664255
57.915634	152.114192	6.701517	-0.013570	0.665335
57.992774	152.766550	6.706522	-0.013589	0.666458
58.145387	153.347147	6.711526	-0.013627	0.667482
58.145764	154.027579	6.716531	-0.013627	0.668623
58.239342	154.686246	6.721536	-0.013650	0.669756
58.322265	155.355907	6.726541	-0.013671	0.670902
58.376645	156.024608	6.731546	-0.013684	0.672035
58.512259	156.680507	6.736550	-0.013718	0.673170
58.706384	157.360168	6.741555	-0.013765	0.674362
58.896720	158.022869	6.746560	-0.013812	0.675523
59.228850	158.660867	6.751565	-0.013893	0.676685
59.416962	159.284990	6.756570	-0.013940	0.677777
59.688608	159.920619	6.761574	-0.014006	0.678913
60.027006	160.564047	6.766579	-0.014089	0.680081
60.239528	161.186618	6.771584	-0.014141	0.681172
60.458424	161.791623	6.776589	-0.014195	0.682235
60.788549	162.387702	6.781594	-0.014276	0.683317
60.838767	163.052746	6.786598	-0.014288	0.684422
60.986640	163.696990	6.791603	-0.014324	0.685522
61.046289	164.352868	6.796608	-0.014339	0.686611
61.218860	164.964917	6.801613	-0.014382	0.687663
61.376366	165.631194	6.806618	-0.014420	0.688797
61.384538	166.325081	6.811622	-0.014423	0.689927
61.669367	166.980178	6.816627	-0.014492	0.691078
61.771866	167.623758	6.821632	-0.014518	0.692152
61.912420	168.295621	6.826637	-0.014552	0.693282
62.122587	168.972971	6.831642	-0.014604	0.694440
62.288652	169.650706	6.836646	-0.014645	0.695584
62.505306	170.298345	6.841651	-0.014698	0.696693
62.627143	170.953407	6.846656	-0.014728	0.697782
62.865576	171.631499	6.851661	-0.014786	0.698943
63.113078	172.280638	6.856666	-0.014847	0.700058
63.399448	172.936314	6.861670	-0.014917	0.701194
63.669795	173.540640	6.866675	-0.014983	0.702241
63.848805	174.198292	6.871680	-0.015027	0.703344
64.104797	174.826772	6.876685	-0.015090	0.704422
64.316220	175.485014	6.881690	-0.015142	0.705532
64.226971	176.154942	6.886694	-0.015120	0.706568
64.564535	176.781908	6.891699	-0.015203	0.707663
64.668459	177.438388	6.896704	-0.015229	0.708733
64.815686	178.126788	6.901709	-0.015265	0.709864
64.830643	178.825051	6.906714	-0.015269	0.710970
64.889118	179.494915	6.911718	-0.015283	0.712042
65.290933	180.143431	6.916723	-0.015382	0.713182
65.453634	180.819512	6.921728	-0.015422	0.714291
65.656684	181.498914	6.926733	-0.015472	0.715417
65.792651	182.161310	6.931738	-0.015505	0.716493
65.857815	182.848056	6.936742	-0.015521	0.717586
66.077066	183.536358	6.941747	-0.015575	0.718724
66.266161	184.222805	6.946752	-0.015621	0.719849
66.551951	184.890787	6.951757	-0.015692	0.720973
66.713490	185.538989	6.956762	-0.015731	0.722027
66.953947	186.202305	6.961766	-0.015790	0.723126
67.159835	186.884352	6.966771	-0.015841	0.724242
67.338003	187.560678	6.971776	-0.015885	0.725340
67.494829	188.214068	6.976781	-0.015923	0.726394
67.672468	188.869658	6.981786	-0.015967	0.727457
67.925387	189.531909	6.986790	-0.016029	0.728550
68.123866	190.212935	6.991795	-0.016077	0.729654
68.185325	190.910684	6.996800	-0.016093	0.730742
68.418416	191.547773	7.001805	-0.016150	0.731786
68.439408	192.263278	7.006810	-0.016155	0.732886
68.453443	192.997554	7.011814	-0.016159	0.734011
68.799192	193.672943	7.016819	-0.016244	0.735142
69.080333	194.345122	7.021824	-0.016313	0.736246
69.206914	195.001247	7.026829	-0.016344	0.737280
69.372020	195.722400	7.031834	-0.016384	0.738423
69.457668	196.419460	7.036838	-0.016406	0.739504
69.726713	197.130326	7.041843	-0.016472	0.740657
70.054587	197.751190	7.046848	-0.016552	0.741690
70.048399	198.480911	7.051853	-0.016551	0.742789
70.320863	199.164165	7.056858	-0.016617	0.743896
70.492796	199.859820	7.061862	-0.016660	0.744992
70.633436	200.561262	7.066867	-0.016694	0.746086
70.768818	201.237552	7.071872	-0.016728	0.747139
70.959750	201.937529	7.076877	-0.016775	0.748242
71.197669	202.641514	7.081882	-0.016833	0.749363
71.336317	203.344910	7.086886	-0.016867	0.750452
71.531980	204.026118	7.091891	-0.016915	0.751524
71.611634	204.728113	7.096896	-0.016935	0.752592
71.817715	205.445215	7.101901	-0.016985	0.753716
71.916637	206.181410	7.106906	-0.017010	0.754837
72.001888	206.906951	7.111910	-0.017031	0.755937
72.285104	207.588348	7.116915	-0.017100	0.757025
72.441156	208.296991	7.121920	-0.017139	0.758116
72.637623	209.033146	7.126925	-0.017187	0.759258
72.738398	209.770590	7.131930	-0.017212	0.760373
72.990340	210.460052	7.136934	-0.017274	0.761458
73.372906	211.130064	7.141939	-0.017368	0.762550
73.815781	211.780015	7.146944	-0.017476	0.763627
74.040381	212.446529	7.151949	-0.017531	0.764666
74.273197	213.130598	7.156954	-0.017588	0.765732
74.382957	213.754214	7.161958	-0.017615	0.766674
74.412221	214.465860	7.166963	-0.017623	0.767721
74.583192	215.177993	7.171968	-0.017665	0.768806
74.714109	215.881137	7.176973	-0.017697	0.769866
74.672853	216.631509	7.181978	-0.017687	0.770945
74.643011	217.361385	7.186982	-0.017680	0.771996
74.622228	218.163903	7.191987	-0.017675	0.773154
74.549615	218.978205	7.196992	-0.017658	0.774312
74.669255	219.788678	7.201997	-0.017687	0.775516
74.943312	220.528401	7.207002	-0.017755	0.776658
75.213339	221.284321	7.212006	-0.017821	0.777821
75.526168	222.038337	7.217011	-0.017898	0.778991
75.967905	222.746747	7.222016	-0.018006	0.780129
76.411375	223.418439	7.227021	-0.018114	0.781213
76.849047	224.062206	7.232026	-0.018222	0.782254
77.017907	224.750166	7.237030	-0.018263	0.783284
77.297483	225.444222	7.242035	-0.018332	0.784351
77.579622	226.105980	7.247040	-0.018401	0.785372
77.672305	226.754276	7.252045	-0.018424	0.786320
77.770264	227.447260	7.257050	-0.018448	0.787333
77.723329	228.205592	7.262054	-0.018437	0.788398
77.888819	228.926727	7.267059	-0.018477	0.789466
77.800484	229.706555	7.272064	-0.018456	0.790547
77.878494	230.433133	7.277069	-0.018475	0.791597
77.757559	231.261959	7.282074	-0.018446	0.792736
77.861486	232.060368	7.287078	-0.018472	0.793891
78.214365	232.824695	7.292083	-0.018559	0.795062
78.266058	233.605777	7.297088	-0.018571	0.796175
78.481832	234.360575	7.302093	-0.018624	0.797293
78.930463	235.101420	7.307098	-0.018734	0.798452
79.285713	235.822483	7.312102	-0.018821	0.799557
79.839246	236.493071	7.317107	-0.018957	0.800642
79.924788	237.177011	7.322112	-0.018978	0.801620
80.293876	237.864669	7.327117	-0.019068	0.802677
80.385468	238.591546	7.332122	-0.019091	0.803715
80.432466	239.323840	7.337126	-0.019103	0.804746
80.523549	240.072505	7.342131	-0.019125	0.805811
80.541672	240.791165	7.347136	-0.019130	0.806814
80.712784	241.556290	7.352141	-0.019172	0.807920
80.727834	242.346716	7.357146	-0.019176	0.809018
80.715873	243.160379	7.362150	-0.019174	0.810140
80.945512	243.905361	7.367155	-0.019230	0.811229
81.042689	244.706224	7.372160	-0.019254	0.812359
81.245039	245.491195	7.377165	-0.019304	0.813493
81.329021	246.308486	7.382170	-0.019325	0.814639
81.634149	247.074035	7.387174	-0.019400	0.815769
82.008649	247.783854	7.392179	-0.019491	0.816840
82.079815	248.590082	7.397184	-0.019509	0.817963
82.443064	249.329097	7.402189	-0.019598	0.819067
82.683471	250.094127	7.407194	-0.019657	0.820174
82.795646	250.831695	7.412198	-0.019685	0.821209
83.236303	251.547420	7.417203	-0.019793	0.822298
83.448184	252.273085	7.422208	-0.019845	0.823339
83.706172	252.998152	7.427213	-0.019908	0.824391
83.983177	253.724714	7.432218	-0.019976	0.825448
83.898735	254.441159	7.437222	-0.019956	0.826397
83.926561	255.235385	7.442227	-0.019963	0.827479
83.893120	256.051514	7.447232	-0.019955	0.828574
83.748770	256.918315	7.452237	-0.019920	0.829708
83.838867	257.738685	7.457242	-0.019942	0.830837
84.019615	258.533941	7.462246	-0.019987	0.831954
84.251344	259.374017	7.467251	-0.020044	0.833142
84.281272	260.224970	7.472256	-0.020052	0.834292
84.566693	261.035646	7.477261	-0.020122	0.835452
84.982287	261.783059	7.482266	-0.020223	0.836557
85.228602	262.559161	7.487270	-0.020284	0.837657
85.628073	263.338019	7.492275	-0.020382	0.838798
86.168131	264.023309	7.497280	-0.020514	0.839848
86.381560	264.747159	7.502285	-0.020566	0.840865
86.644541	265.454396	7.507290	-0.020631	0.841872
86.660533	266.217348	7.512294	-0.020635	0.842890
86.952889	266.955188	7.517299	-0.020707	0.843942
87.009351	267.730376	7.522304	-0.020721	0.844984
87.032757	268.465638	7.527309	-0.020727	0.845963
87.075630	269.258730	7.532314	-0.020738	0.847023
87.073810	270.083112	7.537318	-0.020738	0.848111
87.182088	270.911453	7.542323	-0.020765	0.849231
87.198430	271.751816	7.547328	-0.020769	0.850342
87.189231	272.597554	7.552333	-0.020767	0.851452
87.302709	273.464226	7.557338	-0.020795	0.852619
87.666019	274.268107	7.562342	-0.020884	0.853763
87.797251	275.148348	7.567347	-0.020917	0.854949
88.168547	275.889048	7.572352	-0.021008	0.856009
88.492676	276.670468	7.577357	-0.021087	0.857110
88.657803	277.502920	7.582362	-0.021128	0.858237
88.919688	278.288494	7.587366	-0.021192	0.859325
89.304846	279.047471	7.592371	-0.021287	0.860407
89.584063	279.780697	7.597376	-0.021355	0.861429
89.825671	280.529210	7.602381	-0.021414	0.862460
90.049343	281.306193	7.607386	-0.021469	0.863522
90.011552	282.119628	7.612390	-0.021460	0.864567
90.152509	282.890868	7.617395	-0.021495	0.865599
90.058314	283.720580	7.622400	-0.021472	0.866648
90.208442	284.539390	7.627405	-0.021509	0.867742
90.413853	285.386026	7.632410	-0.021560	0.868883
90.511385	286.212420	7.637414	-0.021584	0.869970
90.806145	286.990161	7.642419	-0.021657	0.871041
90.931057	287.803617	7.647424	-0.021687	0.872116
91.350938	288.595996	7.652429	-0.021790	0.873233
91.726948	289.349466	7.657434	-0.021882	0.874289
91.937448	290.109186	7.662438	-0.021934	0.875311
92.216861	290.836638	7.667443	-0.022003	0.876308
92.281332	291.626348	7.672448	-0.022019	0.877332
92.411936	292.415065	7.677453	-0.022051	0.878368
92.553223	293.234199	7.682458	-0.022086	0.879445
92.588603	294.028007	7.687462	-0.022095	0.880463
92.773985	294.825843	7.692467	-0.022140	0.881521
92.903087	295.647298	7.697472	-0.022172	0.882594
92.938103	296.488715	7.702477	-0.022181	0.883669
93.109175	297.350454	7.707482	-0.022223	0.884800
93.153569	298.132268	7.712486	-0.022235	0.885799
93.383634	298.973063	7.717491	-0.022291	0.886915
93.623752	299.806475	7.722496	-0.022350	0.888023
93.865476	300.628668	7.727501	-0.022410	0.889115
94.082614	301.445309	7.732506	-0.022463	0.890194
94.364151	302.206511	7.737510	-0.022532	0.891217
94.610727	303.012720	7.742515	-0.022593	0.892286
94.712143	303.850875	7.747520	-0.022618	0.893361
94.828082	304.677869	7.752525	-0.022646	0.894423
95.126919	305.457911	7.757530	-0.022720	0.895469
95.245457	306.255555	7.762534	-0.022749	0.896493
95.432658	307.080346	7.767539	-0.022795	0.897566
95.551283	307.927712	7.772544	-0.022824	0.898649
95.871883	308.721290	7.777549	-0.022903	0.899711
95.961056	309.526201	7.782554	-0.022925	0.900733
95.900409	310.400372	7.787558	-0.022911	0.901804
96.007447	311.277452	7.792563	-0.022937	0.902917
96.054836	312.172657	7.797568	-0.022949	0.904037
96.130139	313.055184	7.802573	-0.022968	0.905146
96.215139	313.926006	7.807578	-0.022989	0.906242
96.393674	314.833445	7.812582	-0.023033	0.907403
96.588728	315.733564	7.817587	-0.023081	0.908557
96.729289	316.637706	7.822592	-0.023116	0.909702
96.788815	317.518025	7.827597	-0.023131	0.910798
97.126892	318.400492	7.832602	-0.023214	0.911959
97.113480	319.333966	7.837606	-0.023211	0.913101
97.503707	320.229895	7.842611	-0.023307	0.914288
97.563800	321.117753	7.847616	-0.023322	0.915388
97.615062	322.019910	7.852621	-0.023335	0.916502
97.890933	322.951967	7.857626	-0.023403	0.917702
98.021302	323.869868	7.862630	-0.023435	0.918850
98.205658	324.795946	7.867635	-0.023480	0.920019
98.395729	325.677547	7.872640	-0.023527	0.921134
98.372221	326.651878	7.877645	-0.023522	0.922311
98.407697	327.648194	7.882650	-0.023531	0.923527
98.394867	328.641171	7.887654	-0.023528	0.924727
98.605489	329.570270	7.892659	-0.023580	0.925898
98.719945	330.560943	7.897664	-0.023609	0.927121
98.823787	331.574292	7.902669	-0.023634	0.928366
98.889262	332.620234	7.907674	-0.023651	0.929641
98.851184	333.627401	7.912678	-0.023642	0.930844
99.136720	334.648304	7.917683	-0.023712	0.932134
99.153718	335.715328	7.922688	-0.023717	0.933418
99.390549	336.751295	7.927693	-0.023775	0.934712
99.728871	337.714069	7.932698	-0.023859	0.935939
99.656175	338.792961	7.937702	-0.023841	0.937212
99.863959	339.854074	7.942707	-0.023893	0.938525
99.908526	340.941084	7.947712	-0.023904	0.939830
99.887135	342.020235	7.952717	-0.023899	0.941109
100.220697	343.089160	7.957722	-0.023981	0.942453
100.117020	344.223085	7.962726	-0.023957	0.943775
100.138181	345.367380	7.967731	-0.023962	0.945136
100.074937	346.503811	7.972736	-0.023947	0.946467
100.355088	347.653332	7.977741	-0.024016	0.947886
100.442820	348.834878	7.982746	-0.024038	0.949299
100.607283	349.942895	7.987750	-0.024079	0.950641
100.859401	351.094601	7.992755	-0.024141	0.952050
101.056312	352.250776	7.997760	-0.024190	0.953451
101.107596	353.417455	8.002765	-0.024203	0.954831
101.329831	354.543489	8.007770	-0.024258	0.956198
101.461955	355.723533	8.012774	-0.024291	0.957606
101.575490	356.925062	8.017779	-0.024319	0.959034
101.742123	358.083200	8.022784	-0.024360	0.960421
101.807375	359.285088	8.027789	-0.024377	0.961834
101.824550	360.535238	8.032794	-0.024382	0.963291
101.788824	361.790036	8.037798	-0.024374	0.964740
101.801755	363.035661	8.042803	-0.024378	0.966186
101.989312	364.305844	8.047808	-0.024424	0.967696
102.045604	365.602617	8.052813	-0.024439	0.969207
102.126398	366.877056	8.057818	-0.024459	0.970694
102.448713	368.142893	8.062822	-0.024538	0.972221
102.603882	369.447036	8.067827	-0.024577	0.973754
102.609785	370.739246	8.072832	-0.024579	0.975239
102.744276	372.037745	8.077837	-0.024613	0.976757
102.997044	373.361443	8.082842	-0.024675	0.978325
103.182521	374.642960	8.087846	-0.024721	0.979829
103.410637	375.928545	8.092851	-0.024777	0.981344
103.619271	377.242150	8.097856	-0.024829	0.982885
103.737471	378.552448	8.102861	-0.024859	0.984401
103.874969	379.848310	8.107866	-0.024893	0.985901
103.823413	381.221100	8.112870	-0.024881	0.987447
103.963089	382.602535	8.117875	-0.024916	0.989041
103.943432	383.932383	8.122880	-0.024912	0.990540
103.917772	385.366784	8.127885	-0.024906	0.992154
103.965513	386.822107	8.132890	-0.024919	0.993804
103.984767	388.221260	8.137894	-0.024924	0.995382
103.909042	389.728491	8.142899	-0.024907	0.997059
104.252311	391.190191	8.147904	-0.024991	0.998769
104.415565	392.603267	8.152909	-0.025032	1.000384
104.646498	394.065534	8.157914	-0.025089	1.002066
104.875946	395.513120	8.162918	-0.025146	1.003729
105.068460	396.905288	8.167923	-0.025194	1.005319
105.289873	398.345671	8.172928	-0.025249	1.006966
105.516001	399.805567	8.177933	-0.025305	1.008633
105.736755	401.215123	8.182938	-0.025359	1.010241
105.897388	402.643803	8.187942	-0.025399	1.011855
105.997624	404.128085	8.192947	-0.025425	1.013515
106.012034	405.596592	8.197952	-0.025429	1.015138
106.081458	407.089873	8.202957	-0.025447	1.016796
106.082420	408.648733	8.207962	-0.025448	1.018511
105.992092	410.196569	8.212966	-0.025427	1.020191
106.108005	411.779243	8.217971	-0.025456	1.021949
106.142067	413.387032	8.222976	-0.025465	1.023715
106.153792	414.948506	8.227981	-0.025469	1.025422
106.365350	416.568688	8.232986	-0.025521	1.027231
106.575830	418.161581	8.237990	-0.025574	1.029007
106.691511	419.751658	8.242995	-0.025603	1.030757
106.996549	421.357436	8.248000	-0.025678	1.032560
107.268127	422.910754	8.253005	-0.025745	1.034295
107.412974	424.498811	8.258010	-0.025782	1.036040
107.560521	426.109303	8.263014	-0.025819	1.037807
107.925016	427.659716	8.268019	-0.025909	1.039550
107.988030	429.266752	8.273024	-0.025925	1.041290
108.053979	430.897936	8.278029	-0.025942	1.043054
108.120531	432.513869	8.283034	-0.025959	1.044799
108.116602	434.169034	8.288038	-0.025959	1.046570
108.234352	435.868458	8.293043	-0.025989	1.048408
108.210326	437.541445	8.298048	-0.025984	1.050187
108.223075	439.279865	8.303053	-0.025988	1.052040
108.438235	441.007505	8.308058	-0.026042	1.053917
108.540426	442.698914	8.313062	-0.026067	1.055731
108.729178	444.451934	8.318067	-0.026115	1.057624
108.872016	446.188865	8.323072	-0.026150	1.059487
109.108359	447.898923	8.328077	-0.026209	1.061337
109.313852	449.665765	8.333082	-0.026260	1.063238
109.394117	451.365369	8.338086	-0.026281	1.065040
109.568542	453.132830	8.343091	-0.026325	1.066929
109.790360	454.884321	8.348096	-0.026380	1.068806
109.866308	456.602832	8.353101	-0.026399	1.070618
110.108298	458.389936	8.358106	-0.026459	1.072530
110.126517	460.159894	8.363110	-0.026465	1.074378
110.322444	461.923884	8.368115	-0.026514	1.076251
110.503591	463.727871	8.373120	-0.026559	1.078159
110.664939	465.477868	8.378125	-0.026600	1.080003
110.828137	467.299038	8.383130	-0.026640	1.081919
110.732992	469.137807	8.388134	-0.026618	1.083801
110.992375	470.920623	8.393139	-0.026683	1.085688
110.993018	472.806161	8.398144	-0.026684	1.087630
111.036583	474.661937	8.403149	-0.026696	1.089545
111.161854	476.549514	8.408154	-0.026727	1.091505
111.231794	478.463734	8.413158	-0.026746	1.093478
111.601217	480.287186	8.418163	-0.026837	1.095411
111.722787	482.201305	8.423168	-0.026868	1.097386
111.775350	484.107630	8.428173	-0.026882	1.099338
112.125086	485.983215	8.433178	-0.026968	1.101309
112.384242	487.868161	8.438182	-0.027033	1.103270
112.622261	489.675451	8.443187	-0.027092	1.105145
112.703141	491.593161	8.448192	-0.027113	1.107100
112.856735	493.466192	8.453197	-0.027151	1.109019
112.967067	495.383251	8.458202	-0.027179	1.110971
113.107571	497.308888	8.463206	-0.027215	1.112934
113.191037	499.205871	8.468211	-0.027236	1.114854
113.264096	501.193987	8.473216	-0.027255	1.116861
113.400487	503.140502	8.478221	-0.027290	1.118833
113.423698	505.133945	8.483226	-0.027297	1.120829
113.411464	507.184298	8.488230	-0.027295	1.122871
113.695380	509.109691	8.493235	-0.027365	1.124839
113.845640	511.140854	8.498240	-0.027403	1.126884
113.927748	513.158580	8.503245	-0.027424	1.128900
114.229981	515.153277	8.508250	-0.027499	1.130929
114.364683	517.186355	8.513254	-0.027534	1.132963
114.561996	519.174523	8.518259	-0.027583	1.134959
114.738313	521.215368	8.523264	-0.027627	1.137000
114.848316	523.245644	8.528269	-0.027655	1.139015
115.269097	525.232232	8.533274	-0.027759	1.141039
115.281758	527.293717	8.538278	-0.027764	1.143061
115.367059	529.298124	8.543283	-0.027786	1.145036
115.677761	531.356721	8.548288	-0.027863	1.147100
115.593035	533.417100	8.553293	-0.027843	1.149092
115.861715	535.484231	8.558298	-0.027910	1.151150
116.030249	537.547980	8.563303	-0.027953	1.153183
116.138606	539.584707	8.568307	-0.027980	1.155176
116.411236	541.677175	8.573312	-0.028048	1.157248
116.494516	543.734677	8.578317	-0.028070	1.159249
116.882494	545.803839	8.583322	-0.028166	1.161311
116.799427	547.911349	8.588327	-0.028147	1.163325
117.132837	549.943437	8.593331	-0.028229	1.165335
117.182188	552.079572	8.598336	-0.028243	1.167392
117.372415	554.146340	8.603341	-0.028290	1.169403
117.541480	556.278586	8.608346	-0.028333	1.171470
117.602396	558.398905	8.613351	-0.028349	1.173503
117.595403	560.563347	8.618355	-0.028349	1.175564
117.867693	562.728083	8.623360	-0.028416	1.177668
117.941178	564.858678	8.628365	-0.028436	1.179702
118.307142	567.028046	8.633370	-0.028526	1.181820
118.324811	569.170051	8.638375	-0.028532	1.183848
118.439511	571.350128	8.643379	-0.028561	1.185925
118.568114	573.575769	8.648384	-0.028594	1.188044
118.880399	575.683991	8.653389	-0.028672	1.190080
119.071575	577.905586	8.658394	-0.028720	1.192198
119.132543	580.063295	8.663399	-0.028736	1.194231
119.425924	582.253205	8.668403	-0.028809	1.196330
119.522091	584.465752	8.673408	-0.028834	1.198413
119.587798	586.683117	8.678413	-0.028851	1.200491
119.948436	588.902365	8.683418	-0.028940	1.202617
120.108646	591.024186	8.688423	-0.028981	1.204615
120.278967	593.267017	8.693427	-0.029024	1.206724
120.505213	595.460751	8.698432	-0.029080	1.208793
120.591755	597.670538	8.703437	-0.029103	1.210850
120.843594	599.906657	8.708442	-0.029166	1.212955
120.970651	602.090449	8.713447	-0.029198	1.214988
121.179417	604.346517	8.718451	-0.029250	1.217097
121.207723	606.600239	8.723456	-0.029259	1.219171
121.422864	608.853984	8.728461	-0.029313	1.221272
121.545420	611.126840	8.733466	-0.029344	1.223372
121.544912	613.402406	8.738471	-0.029345	1.225450
121.768648	615.711539	8.743475	-0.029401	1.227592
122.000444	617.946827	8.748480	-0.029459	1.229665
122.112312	620.266724	8.753485	-0.029488	1.231791
122.312955	622.545610	8.758490	-0.029538	1.233890
122.443479	624.838864	8.763495	-0.029572	1.235988
122.648359	627.160956	8.768499	-0.029623	1.238121
122.837048	629.458947	8.773504	-0.029671	1.240225
122.944281	631.800708	8.778509	-0.029698	1.242352
123.070008	634.074899	8.783514	-0.029730	1.244417
123.342378	636.411708	8.788519	-0.029798	1.246559
123.422902	638.748528	8.793523	-0.029819	1.248667
123.673562	641.088221	8.798528	-0.029882	1.250800
123.724767	643.448757	8.803533	-0.029896	1.252917
123.926372	645.788405	8.808538	-0.029947	1.255035
123.995879	648.189449	8.813543	-0.029965	1.257184
124.256717	650.523574	8.818547	-0.030030	1.259300
124.576338	652.904064	8.823552	-0.030110	1.261462
124.522490	655.263243	8.828557	-0.030098	1.263543
124.849475	657.631355	8.833562	-0.030179	1.265689
124.941352	660.015380	8.838567	-0.030203	1.267808
125.068548	662.399230	8.843571	-0.030236	1.269928
125.359009	664.811009	8.848576	-0.030308	1.272096
125.558906	667.113368	8.853581	-0.030358	1.274149
125.599921	669.597034	8.858586	-0.030370	1.276333
125.836914	671.971426	8.863591	-0.030429	1.278448
126.039304	674.381338	8.868595	-0.030480	1.280586
126.182320	676.803863	8.873600	-0.030517	1.282721
126.215390	679.201085	8.878605	-0.030526	1.284815
126.569696	681.648927	8.883610	-0.030614	1.286998
126.722289	684.015233	8.888615	-0.030653	1.289075
126.994748	686.466061	8.893619	-0.030721	1.291241
126.985059	688.905960	8.898624	-0.030720	1.293351
127.122748	691.347694	8.903629	-0.030755	1.295481
127.456433	693.804782	8.908634	-0.030838	1.297651
127.686518	696.202962	8.913639	-0.030896	1.299751
127.807189	698.692398	8.918643	-0.030927	1.301909
128.093763	701.019542	8.923648	-0.030998	1.303949
128.268539	703.467794	8.928653	-0.031043	1.306073
128.500363	705.882613	8.933658	-0.031101	1.308174
128.679640	708.286851	8.938663	-0.031146	1.310254
128.896521	710.732175	8.943667	-0.031200	1.312372
129.027623	713.142811	8.948672	-0.031234	1.314444
129.072511	715.626809	8.953677	-0.031246	1.316562
129.235015	718.083000	8.958682	-0.031288	1.318670
129.368589	720.570473	8.963687	-0.031322	1.320797
129.522192	723.042626	8.968691	-0.031361	1.322911
129.705207	725.524383	8.973696	-0.031407	1.325034
129.834152	728.027895	8.978701	-0.031440	1.327164
130.178378	730.481717	8.983706	-0.031526	1.329281
130.239244	733.005078	8.988711	-0.031542	1.331410
130.545647	735.448025	8.993715	-0.031619	1.333505
130.690847	737.964191	8.998720	-0.031656	1.335634
130.746512	740.480819	9.003725	-0.031671	1.337748
131.040124	742.983241	9.008730	-0.031744	1.339880
131.235948	745.488742	9.013735	-0.031793	1.341998
131.324711	747.958300	9.018739	-0.031817	1.344067
131.494916	750.523320	9.023744	-0.031860	1.346223
131.728237	753.000408	9.028749	-0.031918	1.348313
131.803485	755.573044	9.033754	-0.031938	1.350455
131.938177	758.101690	9.038759	-0.031973	1.352566
132.273821	760.602617	9.043763	-0.032056	1.354680
132.505610	763.156897	9.048768	-0.032114	1.356820
132.531894	765.667343	9.053773	-0.032122	1.358891
132.622841	768.299608	9.058778	-0.032146	1.361068
132.733892	770.822252	9.063783	-0.032175	1.363154
132.934454	773.421719	9.068787	-0.032225	1.365313
133.103561	776.014039	9.073792	-0.032268	1.367458
133.098654	778.619062	9.078797	-0.032269	1.369586
133.431134	781.247041	9.083802	-0.032352	1.371776
133.573239	783.811632	9.088807	-0.032388	1.373885
133.853600	786.429482	9.093811	-0.032458	1.376053
134.083726	789.016593	9.098816	-0.032516	1.378186
134.397474	791.597968	9.103821	-0.032594	1.380322
134.681798	794.153625	9.108826	-0.032665	1.382430
134.931442	796.671549	9.113831	-0.032728	1.384500
135.113464	799.254583	9.118835	-0.032774	1.386609
135.312037	801.765478	9.123840	-0.032824	1.388660
135.524412	804.329432	9.128845	-0.032877	1.390752
135.585170	806.889850	9.133850	-0.032894	1.392817
135.591090	809.513797	9.138855	-0.032897	1.394922
135.827961	812.115943	9.143859	-0.032956	1.397039
135.850924	814.749027	9.148864	-0.032963	1.399147
135.990655	817.405699	9.153869	-0.032999	1.401288
136.126763	819.996965	9.158874	-0.033034	1.403372
136.309204	822.676596	9.163879	-0.033080	1.405530
136.334956	825.346294	9.168883	-0.033088	1.407655
136.565239	828.037825	9.173888	-0.033146	1.409823
136.599734	830.742399	9.178893	-0.033156	1.411970
136.914949	833.413351	9.183898	-0.033235	1.414126
136.970899	836.158535	9.188903	-0.033250	1.416302
137.315130	838.796698	9.193907	-0.033336	1.418429
137.579640	841.510163	9.198912	-0.033402	1.420602
137.977965	844.076218	9.203917	-0.033501	1.422674
138.146441	846.738484	9.208922	-0.033544	1.424787
138.321297	849.389730	9.213927	-0.033588	1.426889
138.430048	852.030735	9.218931	-0.033617	1.428971
138.514533	854.760520	9.223936	-0.033639	1.431116
138.795121	857.344614	9.228941	-0.033709	1.433170
138.888579	860.102412	9.233946	-0.033734	1.435332
139.114967	862.760395	9.238951	-0.033791	1.437431
139.167915	865.483744	9.243955	-0.033805	1.439554
139.513325	868.169651	9.248960	-0.033891	1.441684
139.563732	870.822724	9.253965	-0.033905	1.443746
139.920842	873.556504	9.258970	-0.033994	1.445908
139.970942	876.215644	9.263975	-0.034008	1.447969
140.240728	878.934294	9.268979	-0.034076	1.450102
140.263871	881.670482	9.273984	-0.034083	1.452212
140.436959	884.384313	9.278989	-0.034127	1.454322
140.645448	887.148605	9.283994	-0.034180	1.456473
140.805126	889.856729	9.288999	-0.034220	1.458570
140.879185	892.656807	9.294003	-0.034240	1.460724
141.084182	895.375875	9.299008	-0.034292	1.462830
141.275741	898.143574	9.304013	-0.034340	1.464968
141.558110	900.863916	9.309018	-0.034411	1.467079
141.578933	903.635758	9.314023	-0.034418	1.469192
141.898898	906.410986	9.319027	-0.034498	1.471343
142.221713	909.094651	9.324032	-0.034578	1.473421
142.434614	911.831566	9.329037	-0.034632	1.475523
142.600591	914.546576	9.334042	-0.034674	1.477600
142.688428	917.332223	9.339047	-0.034698	1.479717
142.975569	920.031875	9.344051	-0.034769	1.481791
143.198530	922.738612	9.349056	-0.034826	1.483860
143.355583	925.494600	9.354061	-0.034866	1.485954
143.488589	928.219326	9.359066	-0.034900	1.488019
143.658465	931.001178	9.364071	-0.034943	1.490129
143.790416	933.731548	9.369075	-0.034977	1.492192
144.011679	936.521214	9.374080	-0.035033	1.494308
144.011906	939.325039	9.379085	-0.035035	1.496403
144.421931	942.063282	9.384090	-0.035136	1.498499
144.571415	944.868290	9.389095	-0.035175	1.500608
144.661736	947.585483	9.394099	-0.035198	1.502642
144.864350	950.417152	9.399104	-0.035250	1.504772
145.120971	953.141965	9.404109	-0.035314	1.506826
145.248641	955.947712	9.409114	-0.035347	1.508922
145.426089	958.755161	9.414119	-0.035392	1.511022
145.763998	961.456147	9.419123	-0.035476	1.513060
146.026133	964.251718	9.424128	-0.035542	1.515156
145.900203	967.050507	9.429133	-0.035513	1.517203
146.245997	969.865544	9.434138	-0.035599	1.519318
146.369405	972.636301	9.439143	-0.035631	1.521370
146.406837	975.447176	9.444147	-0.035642	1.523438
146.648532	978.306711	9.449152	-0.035703	1.525564
146.709011	981.083751	9.454157	-0.035719	1.527605
147.088355	983.944048	9.459162	-0.035814	1.529742
147.091723	986.773193	9.464167	-0.035817	1.531808
147.385234	989.596418	9.469171	-0.035890	1.533902
147.437905	992.484252	9.474176	-0.035905	1.536011
147.783863	995.280460	9.479181	-0.035991	1.538086
147.917916	998.181146	9.484186	-0.036026	1.540208
148.134746	1000.950573	9.489191	-0.036080	1.542243
148.442408	1003.788830	9.494195	-0.036157	1.544335
148.668189	1006.594164	9.499200	-0.036214	1.546391
148.801399	1009.365322	9.504205	-0.036248	1.548408
148.896654	1012.278142	9.509210	-0.036273	1.550520
149.088884	1015.038297	9.514215	-0.036322	1.552531
149.322120	1017.899075	9.519219	-0.036381	1.554617
149.568172	1020.739693	9.524224	-0.036443	1.556687
149.627150	1023.573481	9.529229	-0.036459	1.558727
149.871067	1026.441320	9.534234	-0.036520	1.560810
149.983039	1029.234794	9.539239	-0.036549	1.562822
150.116902	1032.135604	9.544243	-0.036584	1.564911
150.388467	1034.967153	9.549248	-0.036652	1.566964
150.562567	1037.827447	9.554253	-0.036696	1.569023
150.668178	1040.707743	9.559258	-0.036724	1.571085
150.753162	1043.596161	9.564263	-0.036747	1.573148
150.975035	1046.523391	9.569267	-0.036803	1.575252
151.186830	1049.369915	9.574272	-0.036856	1.577295
151.320840	1052.299042	9.579277	-0.036891	1.579384
151.566823	1055.174045	9.584282	-0.036953	1.581446
151.740913	1058.047960	9.589287	-0.036997	1.583495
152.151014	1060.915262	9.594291	-0.037099	1.585565
152.330230	1063.729211	9.599296	-0.037144	1.587567
152.368732	1066.649272	9.604301	-0.037156	1.589626
152.670319	1069.479276	9.609306	-0.037231	1.591649
152.645364	1072.401988	9.614311	-0.037227	1.593696
152.797642	1075.331132	9.619315	-0.037266	1.595766
153.017192	1078.229847	9.624320	-0.037321	1.597820
153.174234	1081.185798	9.629325	-0.037362	1.599904
153.465919	1084.012292	9.634330	-0.037435	1.601910
153.473555	1086.973384	9.639335	-0.037438	1.603975
153.649467	1089.921641	9.644339	-0.037483	1.606047
153.864529	1092.856785	9.649344	-0.037538	1.608112
154.072068	1095.797468	9.654349	-0.037590	1.610178
154.452065	1098.656280	9.659354	-0.037685	1.612204
154.723211	1101.552915	9.664359	-0.037753	1.614241
154.762875	1104.478601	9.669363	-0.037764	1.616269
155.083493	1107.375975	9.674368	-0.037844	1.618307
155.146194	1110.323420	9.679373	-0.037862	1.620347
155.511389	1113.160963	9.684378	-0.037953	1.622344
155.527485	1116.113694	9.689383	-0.037958	1.624378
155.700001	1118.993439	9.694387	-0.038002	1.626377
155.858682	1121.945481	9.699392	-0.038043	1.628421
155.848694	1124.898083	9.704397	-0.038042	1.630445
156.008772	1127.857155	9.709402	-0.038083	1.632489
156.033144	1130.906075	9.714407	-0.038091	1.634577
156.205418	1133.865964	9.719411	-0.038135	1.636618
156.471531	1136.921700	9.724416	-0.038202	1.638732
156.550405	1139.892998	9.729421	-0.038223	1.640765
156.856547	1142.866597	9.734426	-0.038300	1.642823
157.109606	1145.893582	9.739431	-0.038364	1.644908
157.308354	1148.805165	9.744435	-0.038414	1.646906
157.510477	1151.844218	9.749440	-0.038465	1.648989
157.743502	1154.777672	9.754445	-0.038524	1.651000
158.026719	1157.746137	9.759450	-0.038595	1.653039
158.294178	1160.709366	9.764455	-0.038662	1.655070
158.563536	1163.599620	9.769459	-0.038730	1.657049
158.815249	1166.557253	9.774464	-0.038793	1.659069
158.963188	1169.440469	9.779469	-0.038831	1.661026
159.114464	1172.367492	9.784474	-0.038870	1.663009
159.314785	1175.332470	9.789479	-0.038921	1.665022
159.464547	1178.203538	9.794483	-0.038959	1.666963
159.670242	1181.201654	9.799488	-0.039011	1.668993
159.736723	1184.136330	9.804493	-0.039029	1.670964
159.845155	1187.117977	9.809498	-0.039058	1.672967
160.017723	1190.141804	9.814503	-0.039102	1.675004
160.113919	1193.087962	9.819507	-0.039127	1.676978
160.183803	1196.195302	9.824512	-0.039146	1.679054
160.288242	1199.156248	9.829517	-0.039174	1.681034
160.427920	1202.258270	9.834522	-0.039210	1.683109
160.628990	1205.312614	9.839527	-0.039261	1.685157
160.745598	1208.314549	9.844531	-0.039291	1.687158

160.945500	1211.379400	9.849536	-0.039342	1.689207
161.175299	1214.275691	9.854541	-0.039400	1.691146
161.364609	1217.240563	9.859546	-0.039448	1.693123
161.637461	1220.117157	9.864551	-0.039516	1.695049
161.898586	1222.913396	9.869555	-0.039582	1.696918
162.124567	1225.749302	9.874560	-0.039639	1.698808
162.277585	1228.461351	9.879565	-0.039678	1.700606
162.582141	1231.138484	9.884570	-0.039754	1.702395
162.650510	1233.852541	9.889575	-0.039773	1.704183
162.801941	1236.467970	9.894579	-0.039811	1.705912
163.052343	1239.075518	9.899584	-0.039874	1.707645
163.293087	1241.667510	9.904589	-0.039934	1.709364
163.446735	1244.127860	9.909594	-0.039973	1.710987
163.559056	1246.646016	9.914599	-0.040002	1.712642
163.704590	1249.174514	9.919603	-0.040039	1.714305
163.712296	1251.626315	9.924608	-0.040043	1.715903
163.895934	1254.058336	9.929613	-0.040089	1.717504
163.909210	1256.555162	9.934618	-0.040094	1.719129
164.079160	1258.901693	9.939623	-0.040137	1.720670
164.200462	1261.276659	9.944627	-0.040168	1.722224
164.383669	1263.681524	9.949632	-0.040214	1.723802
164.429028	1265.996299	9.954637	-0.040227	1.725306
164.794466	1268.254453	9.959642	-0.040317	1.726804
164.820759	1270.537693	9.964647	-0.040325	1.728283
165.100034	1272.762127	9.969651	-0.040395	1.729749
165.240307	1274.901740	9.974656	-0.040430	1.731144
165.369971	1277.057633	9.979661	-0.040463	1.732548
165.525312	1279.247336	9.984666	-0.040502	1.733975
165.792133	1281.308169	9.989671	-0.040569	1.735329
165.976498	1283.296872	9.994675	-0.040615	1.736627
166.151450	1285.343734	9.999680	-0.040659	1.737961
166.193101	1287.360357	10.004685	-0.040670	1.739261
166.409312	1289.252312	10.009690	-0.040724	1.740497
166.576100	1291.146918	10.014695	-0.040766	1.741729
166.689328	1293.063323	10.019699	-0.040795	1.742969
166.737342	1294.996075	10.024704	-0.040808	1.744212
166.804300	1296.812810	10.029709	-0.040825	1.745382
167.036248	1298.641042	10.034714	-0.040883	1.746575
166.940020	1300.516132	10.039719	-0.040861	1.747764
167.052975	1302.347913	10.044723	-0.040889	1.748945
167.167153	1304.143094	10.049728	-0.040918	1.750103
167.279651	1305.874159	10.054733	-0.040947	1.751218
167.502024	1307.630872	10.059738	-0.041002	1.752361
167.499448	1309.404205	10.064743	-0.041002	1.753490
167.725866	1311.098388	10.069747	-0.041059	1.754592
167.849771	1312.726920	10.074752	-0.041090	1.755640
167.953835	1314.340430	10.079757	-0.041116	1.756677
167.961648	1316.063447	10.084762	-0.041119	1.757773
168.195653	1317.650596	10.089767	-0.041177	1.758804
168.189420	1319.229364	10.094771	-0.041176	1.759806
168.299399	1320.744450	10.099776	-0.041204	1.760778
168.433735	1322.284133	10.104781	-0.041238	1.761768
168.613405	1323.836783	10.109786	-0.041283	1.762769
168.712549	1325.335976	10.114791	-0.041308	1.763729
168.756586	1326.822477	10.119795	-0.041319	1.764674
169.077352	1328.181837	10.124800	-0.041398	1.765566
169.176763	1329.558245	10.129805	-0.041423	1.766446
169.246234	1330.976870	10.134810	-0.041441	1.767350
169.385309	1332.359089	10.139815	-0.041476	1.768237
169.380191	1333.718205	10.144819	-0.041475	1.769094
169.661618	1334.997567	10.149824	-0.041545	1.769930
169.685953	1336.217737	10.154829	-0.041551	1.770702
169.822205	1337.502817	10.159834	-0.041585	1.771526
169.784179	1338.774518	10.164839	-0.041577	1.772323
169.792850	1340.070929	10.169843	-0.041579	1.773141
170.022473	1341.289365	10.174848	-0.041636	1.773931
169.927671	1342.576412	10.179853	-0.041614	1.774731
170.008493	1343.698487	10.184858	-0.041634	1.775445
169.946005	1345.005874	10.189863	-0.041619	1.776261
170.149244	1346.162638	10.194867	-0.041670	1.777008
170.303215	1347.368641	10.199872	-0.041708	1.777781
170.247699	1348.547376	10.204877	-0.041695	1.778516
170.375756	1349.698066	10.209882	-0.041727	1.779251
170.397056	1350.856275	10.214887	-0.041732	1.779979
170.594049	1351.863982	10.219891	-0.041781	1.780631
170.772473	1352.951180	10.224896	-0.041825	1.781330
170.832965	1353.988799	10.229901	-0.041840	1.781986
170.936617	1355.045714	10.234906	-0.041866	1.782659
170.937708	1356.095167	10.239911	-0.041867	1.783316
171.141812	1357.080813	10.244915	-0.041917	1.783953
171.137591	1358.127626	10.249920	-0.041917	1.784608
171.140979	1358.977249	10.254925	-0.041918	1.785139
171.282729	1359.953246	10.259930	-0.041953	1.785764
171.318301	1360.906257	10.264935	-0.041962	1.786363
171.361073	1361.858215	10.269939	-0.041973	1.786962
171.341240	1362.842524	10.274944	-0.041969	1.787575
171.446343	1363.739651	10.279949	-0.041995	1.788146
171.478305	1364.670760	10.284954	-0.042003	1.788730
171.502748	1365.585094	10.289959	-0.042009	1.789303
171.519934	1366.471835	10.294963	-0.042014	1.789858
171.628354	1367.320074	10.299968	-0.042041	1.790398
171.606017	1368.190006	10.304973	-0.042036	1.790938
171.852701	1369.016178	10.309978	-0.042096	1.791477
171.877518	1369.880776	10.314983	-0.042103	1.792018
171.821878	1370.747675	10.319987	-0.042090	1.792553
171.990187	1371.546784	10.324992	-0.042131	1.793067
172.107242	1372.346615	10.329997	-0.042160	1.793576
172.171342	1373.128115	10.335002	-0.042176	1.794069
172.292354	1373.888915	10.340007	-0.042206	1.794554
172.260725	1374.548541	10.345011	-0.042198	1.794961
172.319044	1375.292661	10.350016	-0.042213	1.795430
172.355099	1376.020370	10.355021	-0.042222	1.795886
172.556781	1376.722436	10.360026	-0.042271	1.796342
172.624125	1377.352716	10.365031	-0.042288	1.796740
172.639010	1378.103614	10.370035	-0.042292	1.797208
172.652187	1378.747928	10.375040	-0.042295	1.797609
172.820623	1379.327721	10.380045	-0.042337	1.797986
172.733895	1380.050738	10.385050	-0.042316	1.798426
172.770308	1380.696397	10.390055	-0.042325	1.798831
172.676743	1381.336554	10.395059	-0.042302	1.799219
172.795116	1382.019289	10.400064	-0.042331	1.799654
172.795504	1382.529601	10.405069	-0.042332	1.799970
172.941651	1383.122239	10.410074	-0.042368	1.800352
172.900571	1383.722275	10.415079	-0.042358	1.800720
172.880940	1384.306502	10.420083	-0.042353	1.801080
172.946937	1384.995111	10.425088	-0.042369	1.801514
173.069401	1385.551173	10.430093	-0.042400	1.801870
173.190641	1386.129965	10.435098	-0.042429	1.802240
173.307559	1386.629427	10.440103	-0.042458	1.802561
173.337771	1387.134669	10.445107	-0.042465	1.802877
173.464229	1387.676695	10.450112	-0.042497	1.803224
173.319911	1388.175757	10.455117	-0.042461	1.803519
173.524931	1388.663400	10.460122	-0.042512	1.803841
173.597300	1389.147569	10.465127	-0.042529	1.804148
173.604366	1389.603392	10.470131	-0.042531	1.804430
173.631854	1390.059894	10.475136	-0.042538	1.804715
173.554809	1390.421712	10.480141	-0.042519	1.804932
173.524428	1390.912326	10.485146	-0.042512	1.805232
173.596933	1391.367078	10.490151	-0.042530	1.805520
173.514768	1391.866156	10.495155	-0.042510	1.805821
173.536452	1392.348153	10.500160	-0.042515	1.806121
173.573792	1392.822242	10.505165	-0.042524	1.806418
173.535446	1393.323079	10.510170	-0.042515	1.806723
173.745197	1393.796796	10.515175	-0.042566	1.807036
173.705777	1394.196156	10.520179	-0.042557	1.807279
173.739406	1394.631464	10.525184	-0.042565	1.807551
173.748594	1395.037279	10.530189	-0.042567	1.807803
174.001299	1395.394437	10.535194	-0.042629	1.808047
174.054393	1395.850927	10.540199	-0.042642	1.808334
174.082038	1396.173910	10.545203	-0.042649	1.808536
174.245199	1396.452107	10.550208	-0.042689	1.808724
174.233097	1396.815224	10.555213	-0.042686	1.808947
174.271167	1397.154658	10.560218	-0.042695	1.809160
174.356208	1397.352024	10.565223	-0.042716	1.809290
174.363648	1397.854130	10.570227	-0.042718	1.809600
174.327129	1398.000357	10.575232	-0.042709	1.809687
174.334043	1398.219284	10.580237	-0.042710	1.809822
174.426429	1398.562090	10.585242	-0.042733	1.810043
174.266416	1398.752075	10.590247	-0.042694	1.810144
174.117024	1399.259540	10.595251	-0.042657	1.810443
174.249295	1399.542109	10.600256	-0.042690	1.810630
174.257334	1399.769076	10.605261	-0.042691	1.810771
174.249583	1400.260027	10.610266	-0.042690	1.811072
174.373646	1400.440171	10.615271	-0.042720	1.811195
174.412825	1400.751759	10.620275	-0.042729	1.811391
174.531601	1401.040643	10.625280	-0.042758	1.811580
174.472254	1401.251599	10.630285	-0.042744	1.811705
174.591721	1401.605274	10.635290	-0.042773	1.811934
174.508542	1401.803250	10.640295	-0.042753	1.812048
174.598717	1402.092635	10.645299	-0.042775	1.812235
174.702291	1402.257094	10.650304	-0.042800	1.812346
174.857350	1402.434098	10.655309	-0.042837	1.812470
174.848782	1402.749019	10.660314	-0.042835	1.812663
174.904952	1402.736654	10.665319	-0.042849	1.812660
174.865517	1403.092892	10.670323	-0.042839	1.812876
174.890349	1403.253672	10.675328	-0.042845	1.812977
174.800920	1403.280122	10.680333	-0.042823	1.812985
174.913162	1403.777395	10.685338	-0.042851	1.813302
174.958510	1403.772286	10.690343	-0.042861	1.813303
174.924068	1403.825187	10.695347	-0.042853	1.813332
175.127597	1404.238169	10.700352	-0.042903	1.813606
175.147266	1404.217271	10.705357	-0.042907	1.813595
175.290131	1404.203118	10.710362	-0.042942	1.813600
175.149595	1404.245105	10.715367	-0.042907	1.813612
175.154394	1404.732100	10.720371	-0.042909	1.813912
175.131962	1404.763880	10.725376	-0.042903	1.813929
175.008808	1404.753471	10.730381	-0.042872	1.813911
174.961614	1404.969645	10.735386	-0.042861	1.814040
175.028728	1405.286793	10.740391	-0.042877	1.814241
174.962238	1405.279254	10.745395	-0.042861	1.814230
174.850237	1405.515915	10.750400	-0.042833	1.814365
174.780068	1405.853908	10.755405	-0.042816	1.814566
174.813183	1405.864145	10.760410	-0.042824	1.814575
174.897960	1406.183471	10.765415	-0.042845	1.814780
174.921859	1406.225330	10.770419	-0.042850	1.814808
175.124924	1406.213017	10.775424	-0.042900	1.814820
175.193098	1406.488280	10.780429	-0.042916	1.814995
175.361903	1406.675648	10.785434	-0.042957	1.815127
175.371652	1406.677842	10.790439	-0.042960	1.815129
175.354855	1406.666644	10.795443	-0.042955	1.815120
175.399944	1406.682135	10.800448	-0.042966	1.815134
175.363292	1406.660568	10.805453	-0.042957	1.815117
175.397584	1406.884545	10.810458	-0.042965	1.815258
175.470820	1407.159603	10.815463	-0.042983	1.815434
175.262919	1407.181590	10.820467	-0.042932	1.815428
175.363132	1407.186507	10.825472	-0.042956	1.815440
175.170889	1407.196421	10.830477	-0.042909	1.815428
175.328693	1407.184033	10.835482	-0.042947	1.815435
175.432647	1407.420853	10.840487	-0.042973	1.815591
175.418096	1407.688762	10.845491	-0.042969	1.815754
175.516105	1407.696565	10.850496	-0.042993	1.815768
175.402617	1407.695531	10.855501	-0.042965	1.815757
175.515393	1407.692159	10.860506	-0.042992	1.815765
175.446876	1407.705221	10.865511	-0.042975	1.815766
175.570192	1407.671532	10.870515	-0.043005	1.815757
175.609080	1407.687232	10.875520	-0.043014	1.815771
175.453787	1407.688872	10.880525	-0.042976	1.815757
175.579440	1407.682489	10.885530	-0.043006	1.815765
175.541935	1407.689981	10.890535	-0.042997	1.815766
175.536404	1408.059333	10.895539	-0.042996	1.815992
175.632662	1408.164899	10.900544	-0.043019	1.816066
175.593797	1408.148991	10.905549	-0.043009	1.816053
175.738174	1408.143770	10.910554	-0.043044	1.816063
175.590108	1408.169418	10.915559	-0.043008	1.816065
175.539216	1408.160198	10.920563	-0.042995	1.816054
175.642507	1408.167441	10.925568	-0.043020	1.816068
175.527451	1408.163345	10.930573	-0.042992	1.816055
175.547217	1408.170843	10.935578	-0.042997	1.816061
175.707956	1408.148107	10.940583	-0.043036	1.816062
175.721991	1408.131613	10.945587	-0.043039	1.816053
175.809405	1408.140556	10.950592	-0.043060	1.816067
175.714318	1408.135141	10.955597	-0.043036	1.816055
175.779431	1408.137132	10.960602	-0.043052	1.816062
175.932754	1408.117323	10.965607	-0.043089	1.816064
175.777278	1408.130410	10.970611	-0.043051	1.816057
175.976352	1408.114172	10.975616	-0.043099	1.816066
175.879734	1408.106455	10.980621	-0.043076	1.816052
175.790144	1408.133192	10.985626	-0.043053	1.816060
175.745602	1408.143806	10.990631	-0.043042	1.816062
175.833490	1408.116878	10.995635	-0.043064	1.816054
175.820679	1407.839763	11.000640	-0.043060	1.815882
175.612188	1407.962108	11.005645	-0.043009	1.815938
175.733706	1408.128239	11.010650	-0.043038	1.816051
175.725702	1408.152482	11.015655	-0.043036	1.816065
175.780134	1407.765177	11.020659	-0.043049	1.815832
175.839915	1407.654270	11.025664	-0.043063	1.815770
175.764496	1407.644541	11.030669	-0.043045	1.815756
175.920843	1407.635430	11.035674	-0.043083	1.815766
175.757491	1407.658626	11.040679	-0.043042	1.815764
175.770184	1407.643612	11.045683	-0.043045	1.815756
175.764228	1407.663727	11.050688	-0.043044	1.815768
175.721913	1407.650135	11.055693	-0.043033	1.815755
175.801825	1407.650590	11.060698	-0.043052	1.815763
175.879229	1407.638234	11.065703	-0.043071	1.815763
175.914544	1407.622759	11.070707	-0.043079	1.815757
175.958844	1407.631528	11.075712	-0.043090	1.815766
176.018824	1407.606643	11.080717	-0.043104	1.815756
175.986404	1407.623246	11.085722	-0.043096	1.815763
176.006981	1407.623002	11.090727	-0.043101	1.815765
175.966597	1407.611140	11.095731	-0.043091	1.815754
176.098979	1407.112065	11.100736	-0.043123	1.815459
176.255140	1407.039783	11.105741	-0.043160	1.815430
176.311123	1407.036839	11.110746	-0.043174	1.815433
176.321206	1407.041012	11.115751	-0.043176	1.815437
176.313382	1406.703580	11.120755	-0.043174	1.815228
176.237982	1406.563170	11.125760	-0.043155	1.815135
176.101248	1406.561183	11.130765	-0.043121	1.815120
176.096725	1406.572188	11.135770	-0.043120	1.815126
176.064045	1406.582231	11.140775	-0.043112	1.815129
175.882979	1406.593463	11.145779	-0.043067	1.815119
176.030916	1406.289786	11.150784	-0.043103	1.814946
175.960695	1406.081366	11.155789	-0.043085	1.814811
175.941324	1406.087061	11.160794	-0.043080	1.814813
175.804806	1406.117267	11.165799	-0.043047	1.814818
175.935389	1406.079916	11.170803	-0.043079	1.814808
176.033844	1406.089156	11.175808	-0.043102	1.814823
176.134193	1406.054210	11.180813	-0.043127	1.814811
176.146557	1406.059804	11.185818	-0.043129	1.814815
176.107145	1405.929832	11.190823	-0.043119	1.814731
176.125482	1405.662548	11.195827	-0.043123	1.814568
176.314379	1405.664859	11.200832	-0.043169	1.814588
176.194484	1405.659763	11.205837	-0.043140	1.814573
176.230796	1405.655299	11.210842	-0.043148	1.814574
176.142033	1405.328048	11.215847	-0.043126	1.814364
176.173699	1405.104655	11.220851	-0.043134	1.814229
176.045151	1405.147068	11.225856	-0.043102	1.814243
175.828416	1405.165117	11.230861	-0.043049	1.814233
175.994191	1405.147672	11.235866	-0.043089	1.814238
175.938515	1405.159759	11.240871	-0.043075	1.814240
176.032895	1405.131576	11.245875	-0.043098	1.814232
175.955204	1405.161789	11.250880	-0.043079	1.814243
175.759331	1405.177363	11.255885	-0.043031	1.814234
176.016890	1404.628580	11.260890	-0.043093	1.813920
176.126740	1404.608142	11.265895	-0.043120	1.813918
176.204075	1404.588437	11.270899	-0.043138	1.813913
176.397978	1404.579050	11.275904	-0.043185	1.813926
176.304709	1404.449133	11.280909	-0.043162	1.813837
176.257439	1404.068426	11.285914	-0.043150	1.813598
176.328765	1404.069177	11.290919	-0.043167	1.813605
176.216987	1404.063600	11.295923	-0.043140	1.813591
176.305968	1404.003805	11.300928	-0.043161	1.813563
176.105862	1403.610115	11.305933	-0.043112	1.813301
176.105621	1403.611067	11.310938	-0.043112	1.813302
176.003031	1403.628406	11.315943	-0.043086	1.813302
176.040980	1403.603152	11.320947	-0.043095	1.813290
175.990255	1403.636019	11.325952	-0.043083	1.813306
175.909225	1403.626692	11.330957	-0.043063	1.813292
175.996938	1403.622108	11.335962	-0.043084	1.813297
176.078734	1403.237715	11.340967	-0.043103	1.813068
176.000059	1403.084064	11.345971	-0.043084	1.812966
176.076643	1403.092609	11.350976	-0.043102	1.812979
176.240750	1403.051583	11.355981	-0.043142	1.812969
176.172634	1403.067376	11.360986	-0.043125	1.812972
176.270951	1402.975985	11.365991	-0.043149	1.812925
176.357148	1402.512932	11.370995	-0.043169	1.812648
176.414271	1402.526773	11.376000	-0.043183	1.812662
176.335790	1402.523142	11.381005	-0.043164	1.812652
176.390837	1402.206119	11.386010	-0.043177	1.812462
176.528180	1401.996193	11.391015	-0.043210	1.812346
176.273363	1402.020948	11.396019	-0.043147	1.812337
176.361036	1401.916538	11.401024	-0.043168	1.812280
176.406043	1401.516018	11.406029	-0.043179	1.812038
176.355966	1401.531798	11.411034	-0.043166	1.812043
176.094408	1401.584964	11.416039	-0.043102	1.812050
176.107966	1401.557428	11.421043	-0.043105	1.812035
176.210551	1401.102942	11.426048	-0.043130	1.811764
176.064850	1401.039599	11.431053	-0.043094	1.811711
176.048035	1401.048442	11.436058	-0.043090	1.811715
176.040524	1401.057359	11.441063	-0.043088	1.811720
176.104351	1401.027850	11.446067	-0.043103	1.811707
176.071241	1401.051632	11.451072	-0.043095	1.811719
175.926574	1400.759188	11.456077	-0.043059	1.811525
176.094272	1400.522613	11.461082	-0.043099	1.811395
176.078776	1400.538088	11.466087	-0.043095	1.811403
176.095819	1400.510272	11.471091	-0.043099	1.811387
176.266015	1400.503755	11.476096	-0.043141	1.811399
176.411035	1400.386687	11.481101	-0.043176	1.811341
176.443137	1399.950900	11.486106	-0.043183	1.811075
176.536244	1399.952042	11.491111	-0.043205	1.811085
176.416647	1399.892531	11.496115	-0.043176	1.811036
176.372779	1399.491650	11.501120	-0.043165	1.810785
176.231988	1399.497718	11.506125	-0.043130	1.810775
176.177804	1399.504513	11.511130	-0.043117	1.810774
176.104116	1399.535095	11.516135	-0.043098	1.810786
176.069728	1399.283659	11.521139	-0.043090	1.810627
175.987044	1399.018486	11.526144	-0.043069	1.810456
175.999093	1399.001836	11.531149	-0.043072	1.810447
176.090384	1398.995911	11.536154	-0.043094	1.810452
176.178183	1398.992554	11.541159	-0.043115	1.810458
176.220073	1398.967980	11.546163	-0.043125	1.810447
176.349285	1398.687640	11.551168	-0.043156	1.810286
176.333564	1398.453873	11.556173	-0.043152	1.810140
176.290964	1398.455835	11.561178	-0.043141	1.810137
176.494456	1398.430457	11.566183	-0.043191	1.810141
176.315374	1397.943502	11.571187	-0.043146	1.809823
176.433288	1397.941281	11.576192	-0.043175	1.809833
176.412052	1397.925757	11.581197	-0.043169	1.809821
176.287609	1397.770921	11.586202	-0.043139	1.809714
176.307565	1397.595943	11.591207	-0.043143	1.809608
176.125017	1397.612057	11.596211	-0.043098	1.809600
176.338231	1397.594017	11.601216	-0.043150	1.809609
176.194002	1397.553330	11.606221	-0.043115	1.809570
176.217720	1397.055276	11.611226	-0.043120	1.809265
176.418417	1397.043727	11.616231	-0.043169	1.809277
176.340969	1397.034919	11.621235	-0.043149	1.809264
176.479675	1396.775018	11.626240	-0.043183	1.809117
176.454049	1396.514365	11.631245	-0.043176	1.808953
176.544327	1396.499481	11.636250	-0.043198	1.808953
176.735356	1396.172823	11.641255	-0.043244	1.808769
176.651398	1395.947579	11.646259	-0.043223	1.808622
176.676762	1395.890695	11.651264	-0.043229	1.808589
176.573822	1395.487917	11.656269	-0.043204	1.808331
176.612541	1395.486605	11.661274	-0.043213	1.808334
176.565725	1395.197004	11.666279	-0.043201	1.808150
176.400221	1394.977947	11.671283	-0.043160	1.807999
176.487490	1394.985517	11.676288	-0.043181	1.808012
176.167235	1394.914121	11.681293	-0.043103	1.807937
176.066965	1394.534086	11.686298	-0.043078	1.807693
176.005120	1394.552950	11.691303	-0.043062	1.807698
175.951441	1394.540472	11.696307	-0.043049	1.807685
175.818340	1394.586584	11.701312	-0.043016	1.807701
175.819854	1394.564264	11.706317	-0.043016	1.807687
175.992773	1394.537795	11.711322	-0.043058	1.807687
176.082593	1394.533086	11.716327	-0.043080	1.807693
176.208715	1394.495442	11.721331	-0.043110	1.807682
176.391683	1394.015850	11.726336	-0.043155	1.807403
176.431035	1393.964659	11.731341	-0.043164	1.807375
176.616948	1393.942737	11.736346	-0.043209	1.807379
176.773492	1393.480205	11.741351	-0.043247	1.807108
176.696989	1393.427831	11.746355	-0.043228	1.807068
176.679251	1393.100828	11.751360	-0.043223	1.806865
176.567327	1392.922120	11.756365	-0.043195	1.806743
176.552439	1392.917263	11.761370	-0.043191	1.806739
176.394301	1392.454060	11.766375	-0.043152	1.806437
176.280041	1392.443948	11.771379	-0.043124	1.806420
176.233550	1392.462189	11.776384	-0.043112	1.806427
176.180512	1392.459731	11.781389	-0.043099	1.806420
176.132447	1392.039598	11.786394	-0.043087	1.806155
176.011184	1391.990183	11.791399	-0.043057	1.806113
175.938341	1391.976920	11.796403	-0.043039	1.806098
176.072673	1391.979162	11.801408	-0.043072	1.806112
176.197622	1391.950292	11.806413	-0.043102	1.806106
176.135996	1391.965583	11.811418	-0.043087	1.806110
176.277736	1391.678593	11.816423	-0.043121	1.805946
176.291424	1391.447892	11.821427	-0.043124	1.805804
176.463190	1391.443550	11.826432	-0.043165	1.805818
176.425679	1391.370773	11.831437	-0.043156	1.805769
176.249248	1390.940217	11.836442	-0.043112	1.805486
176.377922	1390.938532	11.841447	-0.043143	1.805497
176.178177	1390.943249	11.846451	-0.043094	1.805481
176.134953	1390.974609	11.851456	-0.043084	1.805496
176.129564	1390.657842	11.856461	-0.043082	1.805299
176.282560	1390.430790	11.861466	-0.043119	1.805174
176.194895	1390.458207	11.866471	-0.043097	1.805182
176.273264	1390.422702	11.871475	-0.043116	1.805167
176.421745	1390.251630	11.876480	-0.043152	1.805076
176.443232	1389.899466	11.881485	-0.043157	1.804860
176.473471	1389.892897	11.886490	-0.043164	1.804859
176.726850	1389.752963	11.891495	-0.043225	1.804796
176.760555	1389.470094	11.896499	-0.043233	1.804625
176.949620	1389.314694	11.901504	-0.043279	1.804546
176.863208	1388.926947	11.906509	-0.043257	1.804298
176.690740	1388.833870	11.911514	-0.043215	1.804224
176.710973	1388.442720	11.916519	-0.043219	1.803984
176.508520	1388.455461	11.921523	-0.043170	1.803972
176.636851	1388.110334	11.926528	-0.043201	1.803771
176.292239	1387.973735	11.931533	-0.043116	1.803653
176.037662	1388.015270	11.936538	-0.043054	1.803654
176.053761	1388.034099	11.941543	-0.043057	1.803667
175.899334	1388.040129	11.946547	-0.043019	1.803656
175.806114	1388.065632	11.951552	-0.042996	1.803662
175.577402	1388.096838	11.956557	-0.042940	1.803660
175.712924	1388.077920	11.961562	-0.042973	1.803661
175.900485	1388.055695	11.966567	-0.043019	1.803665
176.085888	1387.658634	11.971571	-0.043064	1.803437
176.303896	1387.512420	11.976576	-0.043116	1.803367
176.559389	1387.455921	11.981581	-0.043179	1.803357
176.923812	1387.189362	11.986586	-0.043267	1.803227
177.017879	1386.866331	11.991591	-0.043290	1.803036
176.998539	1386.548129	11.996595	-0.043285	1.802837
177.026171	1386.359496	12.001600	-0.043291	1.802722
176.903436	1385.970508	12.006605	-0.043260	1.802470
176.748318	1385.887970	12.011610	-0.043222	1.802403
176.589154	1385.589132	12.016615	-0.043183	1.802203
176.351427	1385.455481	12.021619	-0.043124	1.802097
176.314246	1385.482082	12.026624	-0.043115	1.802110
176.142797	1385.499103	12.031629	-0.043073	1.802104
175.879990	1385.008654	12.036634	-0.043008	1.801774
175.753668	1385.037041	12.041639	-0.042977	1.801780
175.747298	1385.007206	12.046643	-0.042975	1.801760
175.707673	1385.036954	12.051648	-0.042965	1.801775
175.834928	1385.007975	12.056653	-0.042996	1.801769
175.926049	1384.994949	12.061658	-0.043018	1.801770
176.062446	1384.983942	12.066663	-0.043051	1.801776
176.117437	1384.951605	12.071667	-0.043064	1.801761
176.409793	1384.933695	12.076672	-0.043136	1.801778
176.624608	1384.604702	12.081677	-0.043188	1.801595
176.681161	1384.367369	12.086682	-0.043201	1.801453
176.797187	1384.248469	12.091687	-0.043229	1.801391
176.742888	1383.837302	12.096691	-0.043215	1.801130
176.663941	1383.870398	12.101696	-0.043196	1.801143
176.664756	1383.428049	12.106701	-0.043195	1.800869
176.346410	1383.424914	12.111706	-0.043117	1.800836
176.323913	1383.448208	12.116711	-0.043112	1.800848
176.174701	1383.084682	12.121715	-0.043075	1.800608
176.130331	1382.950032	12.126720	-0.043064	1.800521
176.001186	1382.964009	12.131725	-0.043032	1.800517
176.085191	1382.940507	12.136730	-0.043052	1.800510
176.095589	1382.959681	12.141735	-0.043054	1.800523
176.122673	1382.925412	12.146739	-0.043061	1.800504
176.305642	1382.586478	12.151744	-0.043105	1.800311
176.393130	1382.394569	12.156749	-0.043126	1.800201
176.610128	1382.352113	12.161754	-0.043179	1.800195
176.653755	1382.073181	12.166759	-0.043189	1.800026
176.672740	1381.840386	12.171763	-0.043193	1.799884
176.728755	1381.764632	12.176768	-0.043206	1.799842
176.475958	1381.554074	12.181773	-0.043144	1.799687
176.286255	1381.576236	12.186778	-0.043098	1.799682
176.310445	1381.589981	12.191783	-0.043103	1.799693
176.157373	1381.169706	12.196787	-0.043066	1.799417
176.112938	1381.074906	12.201792	-0.043054	1.799354
176.117354	1381.070851	12.206797	-0.043055	1.799352
176.108125	1381.069676	12.211802	-0.043053	1.799350
176.201089	1381.075469	12.216807	-0.043075	1.799363
176.103833	1381.002235	12.221811	-0.043051	1.799308
176.131351	1380.560207	12.226816	-0.043057	1.799036
176.295389	1380.525494	12.231821	-0.043097	1.799030
176.378055	1380.508994	12.236826	-0.043117	1.799028
176.517414	1380.368475	12.241831	-0.043151	1.798954
176.505728	1379.968344	12.246835	-0.043147	1.798704
176.451865	1379.999021	12.251840	-0.043134	1.798718
176.692024	1379.794282	12.256845	-0.043192	1.798614
176.548442	1379.492468	12.261850	-0.043157	1.798413
176.570936	1379.502442	12.266855	-0.043162	1.798421
176.333954	1379.156902	12.271859	-0.043104	1.798184
176.242176	1379.015509	12.276864	-0.043081	1.798087
176.127624	1379.037038	12.281869	-0.043053	1.798089
176.211070	1379.009858	12.286874	-0.043073	1.798080
176.075884	1379.051947	12.291879	-0.043039	1.798093
176.124243	1378.680103	12.296883	-0.043051	1.797867
176.308667	1378.503727	12.301888	-0.043095	1.797775
176.254329	1378.508582	12.306893	-0.043082	1.797773
176.414131	1378.478548	12.311898	-0.043121	1.797769
176.602319	1378.095270	12.316903	-0.043166	1.797549
176.546939	1377.946751	12.321907	-0.043152	1.797452
176.547645	1377.927698	12.326912	-0.043152	1.797440
176.539803	1377.475803	12.331917	-0.043150	1.797158
176.586891	1377.456054	12.336922	-0.043161	1.797150
176.494041	1377.340043	12.341927	-0.043138	1.797069
176.352559	1376.961328	12.346931	-0.043103	1.796820
176.409717	1376.969902	12.351936	-0.043117	1.796831
176.369433	1376.968551	12.356941	-0.043107	1.796826
176.197617	1376.588596	12.361946	-0.043064	1.796573
176.236779	1376.485950	12.366951	-0.043073	1.796513
176.211286	1376.471997	12.371955	-0.043067	1.796502
176.223427	1376.485578	12.376960	-0.043070	1.796511
176.263703	1376.374223	12.381965	-0.043079	1.796446
176.159674	1375.975249	12.386970	-0.043053	1.796188
176.217168	1375.988534	12.391975	-0.043067	1.796201
176.420880	1375.928543	12.396979	-0.043116	1.796184
176.380691	1375.846327	12.401984	-0.043106	1.796129
176.433502	1375.460623	12.406989	-0.043119	1.795894
176.353631	1375.464448	12.411994	-0.043099	1.795888
176.399586	1375.480783	12.416999	-0.043110	1.795903
176.349106	1375.071073	12.422003	-0.043097	1.795643
176.388982	1374.949537	12.427008	-0.043107	1.795571
176.397133	1374.941392	12.432013	-0.043108	1.795567
176.422116	1374.764453	12.437018	-0.043114	1.795459
176.305487	1374.469569	12.442023	-0.043085	1.795264
176.254689	1374.448284	12.447027	-0.043072	1.795246
176.244489	1374.468853	12.452032	-0.043070	1.795258
176.302250	1374.303896	12.457037	-0.043083	1.795161
176.091129	1373.980148	12.462042	-0.043031	1.794939
176.230621	1373.972340	12.467047	-0.043065	1.794947
176.229382	1373.952865	12.472051	-0.043065	1.794935
176.296904	1373.960551	12.477056	-0.043081	1.794946
176.334948	1373.672238	12.482061	-0.043090	1.794771
176.271978	1373.572826	12.487066	-0.043074	1.794702
176.339749	1373.580972	12.492071	-0.043090	1.794714
176.214079	1373.574140	12.497075	-0.043059	1.794697
176.199343	1373.258478	12.502080	-0.043055	1.794500
176.053751	1373.081920	12.507085	-0.043019	1.794375
176.084184	1373.070051	12.512090	-0.043027	1.794371
176.092232	1373.084001	12.517095	-0.043028	1.794380
175.954004	1373.083901	12.522099	-0.042994	1.794367
176.042208	1373.092367	12.527104	-0.043016	1.794380
176.118469	1373.040486	12.532109	-0.043034	1.794355
176.163342	1372.531240	12.537114	-0.043044	1.794043
176.394682	1372.524385	12.542119	-0.043101	1.794061
176.413470	1372.500791	12.547123	-0.043105	1.794048
176.503262	1372.302598	12.552128	-0.043127	1.793933
176.558804	1371.976854	12.557133	-0.043140	1.793736
176.565249	1371.961709	12.562138	-0.043141	1.793727
176.523927	1371.702018	12.567143	-0.043130	1.793561
176.628434	1371.472492	12.572147	-0.043156	1.793428
176.585744	1371.495105	12.577152	-0.043145	1.793438
176.512039	1370.994340	12.582157	-0.043126	1.793119
176.277942	1371.006471	12.587162	-0.043069	1.793104
176.083410	1371.051782	12.592167	-0.043021	1.793113
175.786594	1371.077213	12.597171	-0.042948	1.793100
175.734174	1371.105604	12.602176	-0.042935	1.793112
175.642550	1371.111037	12.607181	-0.042913	1.793107
175.606689	1371.105760	12.612186	-0.042904	1.793100
175.909911	1371.086406	12.617191	-0.042978	1.793117
175.807712	1371.078951	12.622195	-0.042952	1.793102
176.059244	1371.059393	12.627200	-0.043014	1.793115
176.121590	1370.635236	12.632205	-0.043028	1.792856
176.416683	1370.479045	12.637210	-0.043100	1.792788
176.756122	1370.453026	12.642215	-0.043183	1.792804
176.807201	1370.037706	12.647219	-0.043195	1.792551
176.851229	1369.923232	12.652224	-0.043205	1.792484
176.862633	1369.592353	12.657229	-0.043207	1.792278
176.715960	1369.454554	12.662234	-0.043171	1.792178
176.637092	1369.215990	12.667239	-0.043151	1.792022
176.343650	1368.972630	12.672243	-0.043079	1.791841
176.124229	1369.022078	12.677248	-0.043026	1.791851
175.898863	1369.056424	12.682253	-0.042970	1.791850
175.785950	1369.060183	12.687258	-0.042942	1.791841
175.823366	1369.070777	12.692263	-0.042951	1.791852
175.584303	1369.088225	12.697267	-0.042893	1.791839
175.654034	1369.084504	12.702272	-0.042910	1.791844
175.669261	1369.094555	12.707277	-0.042913	1.791851
175.989428	1369.032188	12.712282	-0.042991	1.791843
176.249198	1368.922391	12.717287	-0.043054	1.791800
176.301173	1368.470348	12.722291	-0.043066	1.791523
176.613295	1368.435282	12.727296	-0.043142	1.791532
176.688785	1368.311696	12.732301	-0.043160	1.791462
176.959770	1367.859329	12.737306	-0.043226	1.791206
177.090691	1367.698809	12.742311	-0.043258	1.791119
176.808839	1367.407474	12.747315	-0.043188	1.790910
176.621101	1367.313025	12.752320	-0.043142	1.790832
176.491646	1366.945378	12.757325	-0.043110	1.790591
176.152791	1366.988455	12.762330	-0.043027	1.790584
175.944908	1367.038857	12.767335	-0.042976	1.790595
175.715975	1367.053498	12.772339	-0.042920	1.790582
175.730559	1367.061137	12.777344	-0.042923	1.790588
175.649330	1367.075483	12.782349	-0.042903	1.790589
175.618984	1367.062105	12.787354	-0.042895	1.790578
175.740136	1367.072120	12.792359	-0.042925	1.790596
175.792557	1367.041307	12.797363	-0.042937	1.790581
176.031127	1367.016458	12.802368	-0.042995	1.790589
176.279281	1366.863955	12.807373	-0.043056	1.790518
176.713648	1366.399536	12.812378	-0.043161	1.790271
176.876533	1366.394015	12.817383	-0.043201	1.790283
176.755402	1365.899567	12.822387	-0.043171	1.789963
176.822691	1365.898217	12.827392	-0.043187	1.789968
176.860306	1365.592477	12.832397	-0.043195	1.789781
176.537528	1365.582267	12.837402	-0.043116	1.789743
176.265419	1365.559138	12.842407	-0.043050	1.789702
176.132774	1365.114448	12.847411	-0.043017	1.789412
175.852962	1365.172587	12.852416	-0.042948	1.789421
175.734978	1365.183425	12.857421	-0.042919	1.789416
175.442886	1365.221721	12.862426	-0.042847	1.789411
175.602074	1365.220763	12.867431	-0.042886	1.789426
175.502367	1365.211234	12.872435	-0.042861	1.789410
175.748874	1365.185875	12.877440	-0.042921	1.789418
175.997894	1365.151618	12.882445	-0.042982	1.789421
176.174507	1365.114417	12.887450	-0.043025	1.789415
176.431118	1365.092232	12.892455	-0.043087	1.789426
176.569907	1365.020417	12.897459	-0.043121	1.789395
176.686609	1364.530833	12.902464	-0.043149	1.789100
176.751684	1364.515065	12.907469	-0.043165	1.789097
176.563694	1364.163454	12.912474	-0.043118	1.788859
176.606249	1364.036922	12.917479	-0.043128	1.788784
176.530263	1364.026698	12.922483	-0.043109	1.788770
176.393798	1363.583849	12.927488	-0.043075	1.788480
176.200000	1363.603296	12.932493	-0.043028	1.788473
175.986293	1363.631106	12.937498	-0.042975	1.788470
175.657037	1363.702980	12.942503	-0.042895	1.788482
175.674073	1363.681220	12.947507	-0.042899	1.788470
175.704471	1363.692124	12.952512	-0.042906	1.788480
175.916648	1363.656363	12.957517	-0.042958	1.788478
175.858544	1363.651849	12.962522	-0.042943	1.788470
176.109856	1363.632472	12.967527	-0.043004	1.788482
176.235324	1363.328252	12.972531	-0.043034	1.788304
176.399150	1363.060307	12.977536	-0.043074	1.788153
176.561058	1363.037151	12.982541	-0.043113	1.788154
176.484983	1362.868220	12.987546	-0.043094	1.788041
176.662793	1362.521389	12.992551	-0.043137	1.787842
176.287347	1362.559248	12.997555	-0.043045	1.787829
176.201606	1362.584055	13.002560	-0.043024	1.787836
176.135898	1362.196368	13.007565	-0.043008	1.787587
175.963490	1362.103282	13.012570	-0.042965	1.787512
175.967630	1362.125780	13.017575	-0.042966	1.787526
175.761735	1362.140885	13.022579	-0.042915	1.787515
175.845384	1362.136707	13.027584	-0.042936	1.787521
175.959834	1362.134210	13.032589	-0.042963	1.787530
176.004813	1362.101593	13.037594	-0.042974	1.787514
176.206353	1362.098723	13.042599	-0.043023	1.787532
176.125546	1361.998815	13.047603	-0.043003	1.787462
176.264662	1361.587180	13.052608	-0.043036	1.787218
176.387790	1361.577076	13.057613	-0.043066	1.787224
176.368592	1361.564242	13.062618	-0.043061	1.787214
176.587353	1361.247874	13.067623	-0.043114	1.787037
176.640111	1360.994213	13.072627	-0.043127	1.786884
176.676281	1360.945495	13.077632	-0.043135	1.786857
176.663144	1360.498851	13.082637	-0.043132	1.786576
176.354795	1360.531997	13.087642	-0.043056	1.786567
176.210727	1360.580159	13.092647	-0.043021	1.786583
176.042678	1360.192282	13.097651	-0.042979	1.786324
176.046601	1360.079201	13.102656	-0.042980	1.786253
175.852373	1360.112733	13.107661	-0.042932	1.786255
175.654437	1360.134110	13.112666	-0.042883	1.786249
175.798143	1360.136258	13.117671	-0.042918	1.786264
175.737580	1360.129405	13.122675	-0.042903	1.786254
175.797257	1360.119477	13.127680	-0.042918	1.786254
176.063474	1360.082735	13.132685	-0.042982	1.786257
176.176307	1360.052756	13.137690	-0.043010	1.786249
176.309397	1360.052819	13.142695	-0.043042	1.786262
176.389305	1359.648702	13.147699	-0.043061	1.786017
176.503228	1359.528419	13.152704	-0.043088	1.785953
176.462460	1359.542441	13.157709	-0.043078	1.785957
176.336874	1359.196747	13.162714	-0.043047	1.785729
176.190994	1359.071443	13.167719	-0.043011	1.785636
175.975027	1359.082918	13.172723	-0.042958	1.785622
176.013230	1359.083836	13.177728	-0.042967	1.785626
175.889714	1359.112301	13.182733	-0.042937	1.785632
175.675754	1359.134197	13.187738	-0.042884	1.785625
175.838978	1359.128786	13.192743	-0.042924	1.785637
175.735606	1359.126641	13.197747	-0.042898	1.785626
175.840590	1359.111370	13.202752	-0.042924	1.785626
175.980459	1359.097631	13.207757	-0.042958	1.785631
176.134530	1358.778642	13.212762	-0.042995	1.785447
176.264235	1358.558833	13.217767	-0.043026	1.785322
176.390810	1358.523710	13.222771	-0.043057	1.785312
176.494076	1358.515694	13.227776	-0.043082	1.785317
176.588775	1358.095240	13.232781	-0.043104	1.785063
176.665248	1357.980118	13.237786	-0.043123	1.784999
176.707815	1357.863568	13.242791	-0.043133	1.784930
176.449653	1357.654353	13.247795	-0.043069	1.784774
176.530021	1357.645424	13.252800	-0.043089	1.784776
176.296722	1357.513426	13.257805	-0.043031	1.784670
176.113236	1357.171329	13.262810	-0.042986	1.784438
175.978218	1357.210824	13.267815	-0.042953	1.784450
175.762829	1357.226228	13.272819	-0.042900	1.784438
175.633954	1357.254035	13.277824	-0.042868	1.784443
175.523955	1357.268412	13.282829	-0.042841	1.784441
175.619671	1357.247850	13.287834	-0.042864	1.784437
175.660895	1357.267247	13.292839	-0.042874	1.784453
175.967138	1357.197523	13.297843	-0.042949	1.784440
176.083518	1357.197426	13.302848	-0.042977	1.784451
176.124655	1357.188149	13.307853	-0.042987	1.784449
176.341060	1357.140467	13.312858	-0.043039	1.784440
176.507899	1356.745835	13.317863	-0.043080	1.784209
176.550917	1356.600828	13.322867	-0.043090	1.784123
176.545760	1356.600294	13.327872	-0.043088	1.784122
176.324393	1356.167483	13.332877	-0.043034	1.783829
176.225930	1356.131930	13.337882	-0.043009	1.783797
176.190601	1356.163549	13.342887	-0.043000	1.783813
176.099457	1356.158270	13.347891	-0.042978	1.783801
176.053803	1356.166818	13.352896	-0.042967	1.783802
175.980235	1355.715204	13.357901	-0.042948	1.783512
175.842591	1355.713220	13.362906	-0.042914	1.783497
175.997852	1355.710512	13.367911	-0.042952	1.783510
175.905539	1355.705172	13.372915	-0.042929	1.783498
176.053211	1355.685950	13.377920	-0.042965	1.783500
176.221784	1355.670686	13.382925	-0.043006	1.783507
176.338647	1355.638336	13.387930	-0.043034	1.783498
176.460728	1355.138967	13.392935	-0.043063	1.783197
176.406307	1355.107258	13.397939	-0.043050	1.783172
176.435715	1355.108293	13.402944	-0.043057	1.783176
176.436595	1354.719457	13.407949	-0.043056	1.782932
176.346872	1354.613027	13.412954	-0.043034	1.782857
176.276126	1354.647687	13.417959	-0.043017	1.782871
176.267048	1354.622096	13.422963	-0.043014	1.782854
175.946497	1354.184732	13.427968	-0.042935	1.782549
175.932349	1354.193083	13.432973	-0.042932	1.782552
175.945569	1354.172230	13.437978	-0.042935	1.782541
175.947418	1354.196018	13.442983	-0.042935	1.782556
175.797380	1354.203220	13.447987	-0.042898	1.782545
175.840555	1354.200602	13.452992	-0.042908	1.782548
175.897133	1354.198875	13.457997	-0.042922	1.782552
176.054149	1354.155255	13.463002	-0.042960	1.782540
176.133272	1354.162956	13.468007	-0.042979	1.782553
176.178139	1353.989630	13.473011	-0.042990	1.782448
176.383479	1353.633715	13.478016	-0.043039	1.782245
176.380734	1353.637539	13.483021	-0.043038	1.782247
176.233277	1353.646335	13.488026	-0.043002	1.782238
176.354449	1353.384354	13.493031	-0.043031	1.782086
176.380260	1353.104196	13.498035	-0.043037	1.781913
176.203841	1353.134223	13.503040	-0.042994	1.781914
176.189016	1353.148906	13.508045	-0.042990	1.781922
175.983779	1353.157789	13.513050	-0.042940	1.781907
176.024831	1352.775147	13.518055	-0.042949	1.781671
175.885751	1352.676540	13.523059	-0.042915	1.781596
175.922797	1352.670394	13.528064	-0.042924	1.781596
175.971133	1352.674435	13.533069	-0.042935	1.781603
175.838646	1352.677659	13.538074	-0.042903	1.781592
175.904447	1352.690171	13.543079	-0.042918	1.781606
175.938501	1352.665566	13.548083	-0.042927	1.781594
175.924453	1352.677386	13.553088	-0.042923	1.781600
176.118539	1352.660092	13.558093	-0.042970	1.781608
176.045791	1352.644993	13.563098	-0.042952	1.781591
176.311515	1352.120643	13.568103	-0.043016	1.781288
176.220626	1352.120094	13.573107	-0.042994	1.781279
176.259681	1352.116372	13.578112	-0.043003	1.781280
176.168364	1352.136310	13.583117	-0.042981	1.781284
176.228792	1351.891440	13.588122	-0.042995	1.781136
176.194238	1351.666200	13.593127	-0.042986	1.780991
176.142203	1351.658572	13.598131	-0.042973	1.780981
176.092220	1351.666060	13.603136	-0.042961	1.780981
176.101343	1351.677483	13.608141	-0.042963	1.780989
176.083110	1351.645390	13.613146	-0.042958	1.780967
175.972621	1351.174666	13.618151	-0.042930	1.780661
175.992975	1351.165161	13.623155	-0.042935	1.780657
175.937508	1351.174006	13.628160	-0.042921	1.780657
176.042615	1351.171136	13.633165	-0.042947	1.780665
176.048101	1351.149521	13.638170	-0.042948	1.780652
176.215583	1351.142106	13.643175	-0.042989	1.780664
176.219655	1351.064208	13.648179	-0.042989	1.780615
176.226600	1350.635410	13.653184	-0.042990	1.780347
176.284063	1350.631788	13.658189	-0.043004	1.780350
176.230312	1350.620205	13.663194	-0.042991	1.780338
176.120685	1350.661182	13.668199	-0.042964	1.780353
176.019859	1350.435230	13.673203	-0.042939	1.780201
175.937502	1350.174306	13.678208	-0.042918	1.780029
175.689758	1350.234683	13.683213	-0.042857	1.780042
175.621399	1350.231118	13.688218	-0.042841	1.780033
175.641817	1350.244497	13.693223	-0.042845	1.780044
175.523630	1350.321650	13.698227	-0.042816	1.780080
175.517963	1350.748245	13.703232	-0.042815	1.780347
175.570030	1350.753183	13.708237	-0.042827	1.780355
175.745500	1350.700708	13.713242	-0.042870	1.780340
175.984563	1350.684809	13.718247	-0.042928	1.780353
176.106065	1350.422776	13.723251	-0.042957	1.780200
176.252845	1350.135899	13.728256	-0.042993	1.780035
176.448745	1350.116057	13.733261	-0.043040	1.780042
176.330956	1350.114514	13.738266	-0.043011	1.780029
176.354119	1349.883359	13.743271	-0.043017	1.779886
176.235059	1349.776271	13.748275	-0.042987	1.779807
176.181273	1349.783611	13.753280	-0.042974	1.779806
176.202938	1349.793807	13.758285	-0.042979	1.779815
176.119921	1349.722378	13.763290	-0.042958	1.779762
176.057673	1349.288213	13.768295	-0.042943	1.779483
175.893499	1349.298675	13.773299	-0.042902	1.779473
175.816857	1349.314823	13.778304	-0.042883	1.779476
175.890378	1349.309177	13.783309	-0.042901	1.779479
175.708387	1349.322680	13.788314	-0.042856	1.779470
175.783086	1349.327049	13.793319	-0.042874	1.779480
175.732619	1349.322676	13.798323	-0.042862	1.779472
175.847205	1349.311340	13.803328	-0.042889	1.779476
175.798731	1349.328545	13.808333	-0.042877	1.779482
175.914165	1349.289713	13.813338	-0.042905	1.779469
176.130130	1349.276668	13.818343	-0.042958	1.779482
176.198131	1349.256961	13.823347	-0.042974	1.779476
176.261526	1348.825808	13.828352	-0.042989	1.779212
176.298139	1348.737897	13.833357	-0.042998	1.779160
176.187634	1348.737465	13.838362	-0.042971	1.779149
176.237272	1348.747250	13.843367	-0.042982	1.779160
176.148797	1348.585684	13.848371	-0.042960	1.779050
176.157330	1348.239324	13.853376	-0.042962	1.778833
176.097935	1348.263461	13.858381	-0.042947	1.778842
175.843753	1348.279091	13.863386	-0.042885	1.778827
176.028353	1348.269208	13.868391	-0.042930	1.778839
175.859673	1348.284864	13.873395	-0.042888	1.778832
175.868050	1348.284700	13.878400	-0.042890	1.778832
175.992515	1348.278276	13.883405	-0.042920	1.778841
175.951521	1348.266953	13.888410	-0.042910	1.778829
176.100098	1347.900921	13.893415	-0.042946	1.778614
176.004681	1347.785501	13.898419	-0.042922	1.778532
176.078254	1347.772133	13.903424	-0.042940	1.778531
176.014559	1347.791971	13.908429	-0.042924	1.778537
175.953549	1347.788016	13.913434	-0.042909	1.778528
176.011791	1347.797936	13.918439	-0.042923	1.778540
175.869429	1347.808724	13.923443	-0.042888	1.778533
175.865130	1347.801100	13.928448	-0.042887	1.778528
175.918635	1347.806045	13.933453	-0.042900	1.778536
175.810980	1347.597332	13.938458	-0.042873	1.778394
175.909415	1347.286226	13.943463	-0.042896	1.778208
175.884382	1347.282102	13.948467	-0.042890	1.778203
175.986788	1347.257502	13.953472	-0.042915	1.778198
175.939706	1347.283434	13.958477	-0.042903	1.778209
176.079928	1347.244452	13.963482	-0.042937	1.778198
175.957426	1347.284695	13.968487	-0.042907	1.778212
175.908562	1347.281325	13.973491	-0.042895	1.778205
175.963145	1347.265714	13.978496	-0.042908	1.778200
176.058075	1347.264657	13.983501	-0.042931	1.778209
176.008193	1346.769296	13.988506	-0.042918	1.777893
176.003286	1346.782151	13.993511	-0.042917	1.777900
175.940958	1346.781392	13.998515	-0.042901	1.777893
175.885945	1346.788434	14.003520	-0.042887	1.777892
176.004705	1346.783637	14.008525	-0.042916	1.777901
175.917748	1346.780278	14.013530	-0.042895	1.777890
175.980443	1346.786509	14.018535	-0.042910	1.777900
176.016680	1346.773278	14.023539	-0.042918	1.777895
176.029614	1346.740835	14.028544	-0.042921	1.777876
175.990694	1346.282864	14.033549	-0.042911	1.777584
175.819976	1346.291899	14.038554	-0.042869	1.777573
175.917584	1346.296876	14.043559	-0.042893	1.777586
175.935196	1346.286566	14.048563	-0.042897	1.777581
175.793295	1346.303258	14.053568	-0.042862	1.777577
175.733733	1346.326669	14.058573	-0.042847	1.777586
175.774704	1346.292071	14.063578	-0.042857	1.777568
175.759208	1346.317766	14.068583	-0.042853	1.777583
175.705617	1346.313155	14.073587	-0.042840	1.777575
175.736647	1346.305463	14.078592	-0.042847	1.777573
175.800190	1346.312054	14.083597	-0.042862	1.777583
175.653459	1346.318073	14.088602	-0.042826	1.777572
175.838786	1346.305567	14.093607	-0.042871	1.777583
175.820138	1346.299452	14.098611	-0.042866	1.777577
175.804686	1346.292588	14.103616	-0.042862	1.777571
175.878268	1346.300338	14.108621	-0.042880	1.777583
176.031462	1346.256343	14.113626	-0.042917	1.777570
176.108926	1346.261000	14.118631	-0.042936	1.777581
176.048590	1345.962250	14.123635	-0.042921	1.777387
176.010497	1345.783773	14.128640	-0.042911	1.777271
176.088329	1345.785387	14.133645	-0.042930	1.777280
176.003510	1345.777974	14.138650	-0.042909	1.777266
176.192238	1345.766421	14.143655	-0.042955	1.777278
175.989527	1345.795634	14.148659	-0.042905	1.777276
176.141368	1345.767007	14.153664	-0.042942	1.777273
176.114906	1345.264513	14.158669	-0.042935	1.776954
175.989112	1345.255832	14.163674	-0.042904	1.776936
176.113760	1345.258297	14.168679	-0.042934	1.776950
175.939439	1345.270392	14.173683	-0.042891	1.776940
175.972773	1345.267058	14.178688	-0.042899	1.776942
175.851975	1345.298083	14.183693	-0.042869	1.776949
175.821795	1345.282354	14.188698	-0.042862	1.776936
175.795086	1345.302099	14.193703	-0.042855	1.776946
175.750658	1345.307981	14.198707	-0.042844	1.776945
175.834432	1345.288041	14.203712	-0.042864	1.776941
175.844489	1345.294320	14.208717	-0.042866	1.776945
175.842136	1345.280189	14.213722	-0.042866	1.776936
175.884507	1344.866096	14.218727	-0.042875	1.776680
175.890918	1344.776580	14.223731	-0.042877	1.776624
175.895745	1344.772004	14.228736	-0.042878	1.776622
175.929379	1344.785759	14.233741	-0.042886	1.776634
176.029380	1344.750111	14.238746	-0.042910	1.776621
176.093066	1344.755427	14.243751	-0.042925	1.776631
176.089989	1344.746627	14.248755	-0.042924	1.776625
176.189687	1344.729902	14.253760	-0.042948	1.776624
176.133325	1344.365386	14.258765	-0.042934	1.776389
175.958615	1344.253888	14.263770	-0.042891	1.776302
176.007626	1344.262743	14.268775	-0.042903	1.776312
175.835984	1344.287341	14.273779	-0.042860	1.776310
175.694151	1344.305028	14.278784	-0.042826	1.776307
175.845031	1344.294924	14.283789	-0.042862	1.776316
175.671050	1344.303500	14.288794	-0.042819	1.776304
175.721214	1344.313913	14.293799	-0.042831	1.776315
175.832239	1344.287961	14.298803	-0.042858	1.776310
175.784761	1344.288611	14.303808	-0.042846	1.776306
175.592963	1344.331022	14.308813	-0.042799	1.776313
175.843805	1344.274197	14.313818	-0.042860	1.776302
176.099679	1344.254574	14.318823	-0.042923	1.776315
176.150661	1344.238041	14.323827	-0.042935	1.776310
176.276633	1343.938841	14.328832	-0.042965	1.776134
176.220814	1343.766256	14.333837	-0.042951	1.776020
176.184614	1343.753966	14.338842	-0.042942	1.776008
176.117328	1343.779823	14.343847	-0.042925	1.776018
176.211362	1343.760757	14.348851	-0.042948	1.776015
175.926435	1343.552135	14.353856	-0.042878	1.775856
175.960826	1343.290708	14.358861	-0.042886	1.775694
175.779066	1343.296793	14.363866	-0.042841	1.775680
175.784646	1343.314939	14.368871	-0.042843	1.775692
175.803917	1343.303630	14.373875	-0.042847	1.775687
175.747661	1343.309137	14.378880	-0.042833	1.775685
175.846768	1343.306651	14.383885	-0.042857	1.775693
175.796748	1343.299264	14.388890	-0.042845	1.775683
175.975539	1343.285764	14.393895	-0.042888	1.775692
175.970468	1343.286219	14.398899	-0.042887	1.775692
176.110396	1343.255731	14.403904	-0.042920	1.775686
176.204021	1343.257084	14.408909	-0.042943	1.775696
176.186872	1342.930544	14.413914	-0.042938	1.775489
176.230389	1342.758324	14.418919	-0.042949	1.775385
176.286132	1342.741790	14.423923	-0.042962	1.775380
176.123052	1342.757111	14.428928	-0.042922	1.775374
176.175841	1342.768094	14.433933	-0.042935	1.775386
176.103909	1342.265088	14.438938	-0.042916	1.775062
176.106942	1342.269730	14.443943	-0.042917	1.775065
175.875539	1342.306448	14.448947	-0.042860	1.775065
175.815862	1342.307283	14.453952	-0.042845	1.775060
175.843323	1342.319010	14.458957	-0.042852	1.775070
175.647645	1342.332504	14.463962	-0.042804	1.775059
175.584121	1342.352057	14.468967	-0.042788	1.775065
175.714298	1342.331040	14.473971	-0.042820	1.775064
175.602536	1342.333597	14.478976	-0.042792	1.775055
175.728688	1342.337529	14.483981	-0.042823	1.775070
175.833181	1342.295231	14.488986	-0.042848	1.775053
175.994599	1342.293133	14.493991	-0.042887	1.775068
175.938886	1342.297317	14.498995	-0.042873	1.775065
176.161549	1342.249626	14.504000	-0.042927	1.775057
176.224418	1342.199469	14.509005	-0.042942	1.775031
176.179466	1341.856079	14.514010	-0.042931	1.774811
176.271885	1341.860090	14.519015	-0.042953	1.774822
176.200207	1341.865292	14.524019	-0.042936	1.774818
176.232400	1341.852455	14.529024	-0.042943	1.774813
176.171123	1341.596019	14.534029	-0.042928	1.774646
176.017045	1341.354423	14.539034	-0.042890	1.774478
176.019045	1341.377830	14.544039	-0.042890	1.774493
175.980404	1341.374376	14.549043	-0.042880	1.774487
175.886036	1341.372227	14.554048	-0.042857	1.774476
175.938935	1341.382932	14.559053	-0.042870	1.774488
175.898460	1341.364882	14.564058	-0.042860	1.774473
175.982684	1341.368935	14.569063	-0.042880	1.774484
175.962150	1341.373057	14.574067	-0.042875	1.774484
175.763001	1341.389090	14.579072	-0.042826	1.774474
175.866784	1341.226853	14.584077	-0.042851	1.774382
175.871078	1340.861978	14.589082	-0.042851	1.774153
175.997676	1340.856646	14.594087	-0.042882	1.774162
175.972978	1340.861174	14.599091	-0.042876	1.774163
176.010658	1340.842766	14.604096	-0.042885	1.774155
176.166902	1340.838238	14.609101	-0.042923	1.774167
176.078881	1340.833112	14.614106	-0.042901	1.774155
176.042836	1340.857279	14.619111	-0.042892	1.774167
176.078328	1340.625928	14.624115	-0.042900	1.774024
176.066222	1340.329658	14.629120	-0.042897	1.773837
176.058195	1340.351160	14.634125	-0.042895	1.773849
175.840779	1340.359905	14.639130	-0.042841	1.773833
175.958657	1340.363129	14.644135	-0.042870	1.773847
175.938112	1340.364030	14.649139	-0.042864	1.773845
175.889892	1340.359357	14.654144	-0.042852	1.773837
176.001770	1340.359059	14.659149	-0.042880	1.773848
176.068945	1340.338502	14.664154	-0.042896	1.773842
176.158458	1339.899116	14.669159	-0.042917	1.773574
176.119652	1339.863215	14.674163	-0.042907	1.773547
175.979183	1339.878482	14.679168	-0.042873	1.773543
175.927597	1339.905331	14.684173	-0.042860	1.773555
176.020179	1339.867150	14.689178	-0.042882	1.773540
176.124206	1339.861883	14.694183	-0.042907	1.773547
176.025835	1339.876738	14.699187	-0.042883	1.773546
176.023895	1339.369235	14.704192	-0.042882	1.773226
176.061834	1339.357980	14.709197	-0.042891	1.773223
176.006725	1339.336051	14.714202	-0.042877	1.773203
175.836739	1339.385454	14.719207	-0.042836	1.773218
175.896844	1339.372453	14.724211	-0.042850	1.773215
175.933029	1339.363705	14.729216	-0.042859	1.773213
175.962330	1339.377355	14.734221	-0.042866	1.773225
175.823295	1339.373313	14.739226	-0.042831	1.773208
176.012452	1339.361864	14.744231	-0.042877	1.773220
175.990211	1339.211084	14.749235	-0.042872	1.773122
176.108162	1338.841259	14.754240	-0.042900	1.772901
176.221292	1338.843229	14.759245	-0.042927	1.772913
176.102364	1338.835045	14.764250	-0.042898	1.772896
176.239468	1338.834986	14.769255	-0.042931	1.772910
176.232780	1338.808185	14.774259	-0.042929	1.772892
176.110042	1338.337430	14.779264	-0.042899	1.772583
176.019001	1338.375671	14.784269	-0.042876	1.772598
176.104760	1338.346253	14.789274	-0.042897	1.772588
176.065035	1338.362063	14.794279	-0.042887	1.772594
175.991706	1338.368282	14.799283	-0.042869	1.772591
175.928845	1338.368893	14.804288	-0.042853	1.772585
176.029223	1338.368897	14.809293	-0.042878	1.772595
175.985982	1337.931082	14.814298	-0.042866	1.772314
176.008908	1337.891960	14.819303	-0.042872	1.772292
175.944053	1337.898585	14.824307	-0.042856	1.772290
176.080338	1337.867922	14.829312	-0.042889	1.772284
176.149120	1337.878334	14.834317	-0.042905	1.772297
176.103432	1337.864358	14.839322	-0.042894	1.772284
176.212585	1337.719532	14.844327	-0.042920	1.772203
176.153468	1337.337813	14.849331	-0.042905	1.771957

176.061781	1337.347663	14.854336	-0.042883	1.771954
176.045801	1337.361228	14.859341	-0.042878	1.771960
176.283763	1336.967822	14.864346	-0.042936	1.771736
176.191341	1336.835130	14.869351	-0.042913	1.771643
176.116811	1336.436395	14.874355	-0.042894	1.771384
175.896682	1336.309932	14.879360	-0.042840	1.771283
175.903512	1335.914347	14.884365	-0.042841	1.771034
175.788279	1335.623401	14.889370	-0.042813	1.770839
175.721042	1335.349948	14.894375	-0.042796	1.770660
175.563334	1334.945217	14.899379	-0.042757	1.770389
175.596980	1334.555272	14.904384	-0.042765	1.770146
175.586794	1334.250700	14.909389	-0.042762	1.769953
175.909907	1333.726787	14.914394	-0.042840	1.769654
175.924302	1333.169850	14.919399	-0.042843	1.769304
176.187314	1332.482690	14.924403	-0.042906	1.768896
176.206104	1331.731966	14.929408	-0.042910	1.768424
176.392953	1330.987885	14.934413	-0.042955	1.767973
176.532361	1330.138274	14.939418	-0.042988	1.767450
176.677575	1329.166216	14.944423	-0.043023	1.766850
176.487317	1328.257622	14.949427	-0.042976	1.766256
176.185119	1327.364007	14.954432	-0.042901	1.765661
176.158193	1326.515491	14.959437	-0.042893	1.765122
175.643290	1325.726781	14.964442	-0.042767	1.764571
175.193012	1324.952855	14.969447	-0.042656	1.764036
174.966798	1324.160935	14.974451	-0.042600	1.763512
174.809474	1323.399827	14.979456	-0.042561	1.763015
174.561648	1322.648768	14.984461	-0.042499	1.762514
174.635178	1321.796584	14.989466	-0.042517	1.761981
174.701513	1320.943569	14.994471	-0.042532	1.761447
174.853343	1320.006442	14.999475	-0.042568	1.760868
175.301717	1318.904761	15.004480	-0.042677	1.760214
175.705626	1317.852015	15.009485	-0.042774	1.759586
175.729895	1316.561454	15.014490	-0.042779	1.758769
175.835710	1315.278781	15.019495	-0.042804	1.757965
176.047285	1313.867250	15.024499	-0.042854	1.757090
176.007051	1312.444075	15.029504	-0.042843	1.756181
176.149983	1311.012610	15.034509	-0.042877	1.755285
175.897662	1309.598389	15.039514	-0.042814	1.754359
175.531240	1308.187042	15.044519	-0.042723	1.753424
175.228599	1306.799264	15.049523	-0.042648	1.752509
174.808780	1305.463584	15.054528	-0.042544	1.751615
174.544048	1304.187842	15.059533	-0.042478	1.750775
174.367429	1302.916682	15.064538	-0.042434	1.749946
174.337624	1301.598000	15.069543	-0.042426	1.749101
174.270646	1300.250647	15.074547	-0.042408	1.748234
174.202819	1298.845243	15.079552	-0.042390	1.747329
174.475738	1297.357856	15.084557	-0.042456	1.746406
174.579257	1295.813356	15.089562	-0.042480	1.745428
174.868115	1294.272062	15.094567	-0.042549	1.744471
175.135965	1292.498002	15.099571	-0.042613	1.743362
175.185992	1290.703995	15.104576	-0.042623	1.742218
175.310687	1288.855760	15.109581	-0.042652	1.741045
175.045592	1287.109447	15.114586	-0.042586	1.739898
174.907177	1285.315087	15.119591	-0.042551	1.738732
174.670265	1283.523496	15.124595	-0.042491	1.737556
174.364507	1281.720063	15.129600	-0.042415	1.736366
174.028719	1280.010262	15.134605	-0.042332	1.735231
173.705753	1278.333547	15.139610	-0.042251	1.734119
173.357758	1276.650564	15.144615	-0.042165	1.732999
173.275838	1274.961810	15.149619	-0.042143	1.731902
173.315379	1273.206935	15.154624	-0.042152	1.730774
173.506919	1271.488993	15.159629	-0.042197	1.729684
173.521781	1269.607622	15.164634	-0.042199	1.728471
173.842824	1267.625503	15.169639	-0.042276	1.727223
174.151621	1265.566354	15.174643	-0.042350	1.725922
174.372394	1263.485812	15.179648	-0.042402	1.724598
174.580315	1261.265537	15.184653	-0.042451	1.723181
174.573066	1258.953521	15.189658	-0.042447	1.721682
174.687601	1256.725583	15.194663	-0.042473	1.720248
174.360913	1254.500875	15.199667	-0.042392	1.718769
174.025006	1252.240273	15.204672	-0.042308	1.717265
173.855341	1250.030759	15.209677	-0.042264	1.715809
173.416153	1247.917957	15.214682	-0.042155	1.714388
172.886677	1245.807075	15.219687	-0.042024	1.712957
172.499723	1243.768385	15.224691	-0.041928	1.711587
172.128729	1241.789112	15.229696	-0.041836	1.710256
172.033721	1239.818458	15.234701	-0.041811	1.708959
171.979960	1237.748445	15.239706	-0.041796	1.707600
172.044079	1235.604470	15.244711	-0.041810	1.706204
172.085370	1233.569784	15.249715	-0.041818	1.704876
172.208430	1231.311191	15.254720	-0.041847	1.703408
172.446172	1229.031142	15.259725	-0.041903	1.701938
172.638372	1226.686618	15.264730	-0.041948	1.700419
172.734457	1224.287120	15.269735	-0.041969	1.698852
172.898934	1221.784416	15.274739	-0.042008	1.697223
172.834304	1219.286940	15.279744	-0.041990	1.695572
172.758575	1216.784937	15.284749	-0.041969	1.693915
172.593901	1214.252384	15.289754	-0.041927	1.692227
172.525987	1211.737105	15.294759	-0.041908	1.690559
172.414919	1209.225365	15.299763	-0.041879	1.688887
172.094733	1206.679269	15.304768	-0.041799	1.687169
171.807664	1204.241970	15.309773	-0.041727	1.685524
171.455486	1201.822795	15.314778	-0.041639	1.683882
171.010469	1199.424094	15.319783	-0.041528	1.682243
170.838563	1197.092380	15.324787	-0.041484	1.680676
170.677639	1194.718877	15.329792	-0.041443	1.679081
170.752315	1192.273575	15.334797	-0.041459	1.677461
170.673302	1189.837137	15.339802	-0.041438	1.675830
170.739341	1187.351369	15.344807	-0.041452	1.674179
170.980816	1184.720483	15.349811	-0.041509	1.672449
171.003237	1182.105215	15.354816	-0.041512	1.670704
171.190868	1179.452905	15.359821	-0.041556	1.668950
171.068718	1176.721296	15.364826	-0.041524	1.667108
171.117516	1174.015364	15.369831	-0.041534	1.665299
171.001394	1171.280692	15.374835	-0.041503	1.663452
170.759125	1168.506590	15.379840	-0.041442	1.661562
170.612873	1165.893223	15.384845	-0.041404	1.659788
170.284843	1163.153662	15.389850	-0.041322	1.657908
170.034442	1160.481575	15.394855	-0.041259	1.656079
169.813084	1157.849889	15.399859	-0.041202	1.654279
169.398115	1155.213540	15.404864	-0.041099	1.652452
169.186209	1152.647616	15.409869	-0.041045	1.650694
169.029788	1150.050128	15.414874	-0.041005	1.648918
169.075462	1147.364854	15.419879	-0.041014	1.647103
169.010006	1144.759465	15.424883	-0.040996	1.645328
169.284358	1141.958742	15.429888	-0.041060	1.643456
169.368236	1139.139127	15.434893	-0.041079	1.641548
169.548138	1136.349744	15.439898	-0.041120	1.639669
169.678298	1133.353696	15.444903	-0.041150	1.637641
169.752324	1130.413210	15.449907	-0.041166	1.635642
169.580238	1127.424199	15.454912	-0.041121	1.633581
169.362730	1124.483378	15.459917	-0.041066	1.631544
168.931985	1121.631691	15.464922	-0.040958	1.629543
168.734388	1118.713272	15.469927	-0.040908	1.627519
168.293009	1115.941319	15.474931	-0.040798	1.625566
167.943798	1113.118300	15.479936	-0.040710	1.623585
167.743455	1110.327747	15.484941	-0.040659	1.621642
167.261041	1107.668056	15.489946	-0.040539	1.619754
167.206833	1104.881124	15.494951	-0.040523	1.617825
167.407181	1102.063947	15.499955	-0.040570	1.615901
167.451076	1099.172853	15.504960	-0.040579	1.613907
167.515995	1096.260691	15.509965	-0.040592	1.611897
167.694718	1093.334132	15.514970	-0.040633	1.609888
167.754435	1090.263973	15.519975	-0.040646	1.607763
167.768594	1087.268613	15.524979	-0.040647	1.605682
167.729256	1084.166476	15.529984	-0.040635	1.603518
167.665108	1081.110219	15.534989	-0.040617	1.601381
167.383314	1078.093213	15.539994	-0.040545	1.599242
167.059652	1075.045285	15.544999	-0.040464	1.597075
166.708248	1072.118308	15.550003	-0.040376	1.594986
166.224239	1069.165069	15.555008	-0.040255	1.592860
165.898295	1066.349954	15.560013	-0.040173	1.590847
165.684499	1063.451191	15.565018	-0.040119	1.588785
165.486487	1060.586481	15.570023	-0.040068	1.586747
165.355407	1057.763856	15.575027	-0.040034	1.584743
165.240998	1054.834382	15.580032	-0.040004	1.582663
165.510297	1051.930843	15.585037	-0.040067	1.580644
165.575103	1048.885615	15.590042	-0.040080	1.578498
165.708801	1045.819220	15.595047	-0.040111	1.576342
165.949389	1042.678549	15.600051	-0.040167	1.574143
166.041106	1039.447991	15.605056	-0.040187	1.571860
166.085039	1036.282212	15.610061	-0.040195	1.569613
166.103563	1032.976002	15.615066	-0.040197	1.567261
165.874895	1029.801279	15.620071	-0.040139	1.564969
165.726677	1026.536926	15.625075	-0.040100	1.562620
165.363973	1023.416969	15.630080	-0.040009	1.560345
165.059141	1020.247461	15.635085	-0.039932	1.558037
164.526114	1017.188779	15.640090	-0.039799	1.555779
164.107409	1014.154160	15.645095	-0.039695	1.553548
163.780338	1011.190538	15.650099	-0.039612	1.551377
163.372602	1008.249616	15.655104	-0.039510	1.549208
163.223523	1005.289316	15.660109	-0.039472	1.547054
162.974799	1002.379605	15.665114	-0.039409	1.544922
163.019815	999.363559	15.670119	-0.039417	1.542744
163.123840	996.384738	15.675123	-0.039440	1.540598
163.204199	993.249743	15.680128	-0.039457	1.538333
163.476109	990.107066	15.685133	-0.039521	1.536082
163.646490	986.848901	15.690138	-0.039560	1.533731
163.676458	983.617218	15.695143	-0.039565	1.531379
163.744499	980.330911	15.700147	-0.039579	1.528988
163.730607	977.008184	15.705152	-0.039573	1.526557
163.560840	973.725609	15.710157	-0.039529	1.524132
163.318196	970.454598	15.715162	-0.039467	1.521702
163.119822	967.205056	15.720167	-0.039416	1.519290
162.862923	963.958080	15.725171	-0.039351	1.516869
162.349176	960.784726	15.730176	-0.039223	1.514466
162.097012	957.643245	15.735181	-0.039159	1.512116
161.710907	954.554383	15.740186	-0.039062	1.509784
161.339901	951.460548	15.745191	-0.038969	1.507446
161.011766	948.488747	15.750195	-0.038887	1.505201
161.023420	945.334937	15.755200	-0.038887	1.502860
160.855667	942.359466	15.760205	-0.038844	1.500625
160.675036	939.239725	15.765210	-0.038797	1.498278
160.802287	936.138229	15.770215	-0.038826	1.495979
160.900528	932.933433	15.775219	-0.038847	1.493596
160.967424	929.738998	15.780224	-0.038861	1.491213
160.827043	926.536603	15.785229	-0.038824	1.488794
160.702909	923.339012	15.790234	-0.038791	1.486377
160.736335	920.071716	15.795239	-0.038797	1.483923
160.594209	916.888987	15.800243	-0.038760	1.481507
160.536427	913.603202	15.805248	-0.038743	1.479019
160.532711	910.351769	15.810253	-0.038740	1.476560
160.222333	907.084619	15.815258	-0.038661	1.474046
159.952666	903.885982	15.820263	-0.038593	1.471585
159.854015	900.661950	15.825267	-0.038566	1.469122
159.670143	897.440828	15.830272	-0.038519	1.466647
159.548016	894.222921	15.835277	-0.038486	1.464177
159.285364	891.021313	15.840282	-0.038420	1.461698
159.217424	887.785618	15.845287	-0.038401	1.459214
158.952316	884.601632	15.850291	-0.038333	1.456739
158.699350	881.392667	15.855296	-0.038269	1.454243
158.777226	878.191381	15.860301	-0.038286	1.451791
158.486991	874.986932	15.865306	-0.038212	1.449285
158.350705	871.794046	15.870311	-0.038176	1.446803
158.239097	868.587153	15.875315	-0.038147	1.444309
158.233269	865.361744	15.880320	-0.038143	1.441811
158.057512	862.161903	15.885325	-0.038097	1.439306
157.897181	858.940387	15.890330	-0.038055	1.436781
157.739998	855.710843	15.895335	-0.038014	1.434247
157.486344	852.559793	15.900339	-0.037950	1.431756
157.347349	849.326828	15.905344	-0.037914	1.429212
157.111118	846.198855	15.910349	-0.037853	1.426732
157.030402	842.986504	15.915354	-0.037831	1.424203
156.987817	839.795799	15.920359	-0.037818	1.421692
156.964141	836.563291	15.925363	-0.037810	1.419146
156.901949	833.318069	15.930368	-0.037792	1.416580
156.769010	830.055347	15.935373	-0.037757	1.413986
156.661973	826.838391	15.940378	-0.037728	1.411427
156.528629	823.557051	15.945383	-0.037693	1.408808
156.479824	820.335695	15.950387	-0.037679	1.406244
156.243087	817.044732	15.955392	-0.037618	1.403594
156.258807	813.841492	15.960397	-0.037620	1.401044
156.171227	810.514178	15.965402	-0.037596	1.398376
155.946624	807.283759	15.970407	-0.037538	1.395761
155.794375	803.997977	15.975411	-0.037499	1.393107
155.471486	800.797516	15.980416	-0.037417	1.390492
155.303072	797.567833	15.985421	-0.037374	1.387871
155.040163	794.379625	15.990426	-0.037307	1.385265
154.997637	791.141096	15.995431	-0.037294	1.382644
154.875413	787.925210	16.000435	-0.037261	1.380025
154.506409	784.736643	16.005440	-0.037169	1.377389
154.382914	781.539125	16.010445	-0.037136	1.374775
154.280219	778.370404	16.015450	-0.037109	1.372182
154.066100	775.159881	16.020455	-0.037054	1.369535
154.041234	771.989871	16.025459	-0.037045	1.366942
153.986378	768.724171	16.030464	-0.037029	1.364262
154.143165	765.506721	16.035469	-0.037065	1.361646
153.990318	762.210383	16.040474	-0.037025	1.358916
153.813066	758.978601	16.045479	-0.036979	1.356230
153.782786	755.692961	16.050483	-0.036969	1.353516
153.644835	752.444167	16.055488	-0.036933	1.350811
153.667482	749.127853	16.060493	-0.036936	1.348068
153.340325	745.890852	16.065498	-0.036853	1.345335
153.158488	742.639777	16.070503	-0.036806	1.342605
152.840471	739.445729	16.075507	-0.036726	1.339897
152.380374	736.284959	16.080512	-0.036611	1.337191
152.243715	733.099999	16.085517	-0.036575	1.334507
151.966012	729.990798	16.090522	-0.036505	1.331860
151.793348	726.808759	16.095527	-0.036461	1.329161
151.694236	723.719723	16.100531	-0.036434	1.326547
151.623732	720.500434	16.105536	-0.036414	1.323821
151.719736	717.357945	16.110541	-0.036435	1.321180
151.620559	714.122895	16.115546	-0.036408	1.318426
151.560807	710.910348	16.120551	-0.036391	1.315691
151.585610	707.676574	16.125555	-0.036395	1.312945
151.555138	704.394821	16.130560	-0.036385	1.310144
151.419783	701.166624	16.135565	-0.036349	1.307367
151.331746	697.879921	16.140570	-0.036325	1.304541
150.953663	694.751521	16.145575	-0.036230	1.301801
150.702892	691.546115	16.150579	-0.036166	1.299008
150.443442	688.359401	16.155584	-0.036101	1.296224
150.199858	685.198922	16.160589	-0.036039	1.293459
149.987748	682.059891	16.165594	-0.035984	1.290711
149.844847	678.906920	16.170599	-0.035947	1.287956
149.767598	675.738249	16.175603	-0.035926	1.285192
149.653236	672.589514	16.180608	-0.035895	1.282433
149.561338	669.418984	16.185613	-0.035870	1.279653
149.516372	666.244074	16.190618	-0.035857	1.276870
149.457465	663.008544	16.195623	-0.035840	1.274025
149.437604	659.834001	16.200627	-0.035832	1.271234
149.213559	656.620947	16.205632	-0.035775	1.268371
149.072343	653.444897	16.210637	-0.035738	1.265547
148.816753	650.300306	16.215642	-0.035673	1.262727
148.609223	647.127450	16.220647	-0.035620	1.259882
148.554426	643.972124	16.225651	-0.035604	1.257071
148.381525	640.768524	16.230656	-0.035559	1.254192
148.393922	637.609687	16.235661	-0.035560	1.251376
148.045704	634.465077	16.240666	-0.035472	1.248509
147.911728	631.305256	16.245671	-0.035437	1.245655
147.852973	628.176012	16.250675	-0.035420	1.242835
147.622345	625.009104	16.255680	-0.035362	1.239946
147.679120	621.848542	16.260685	-0.035373	1.237103
147.400876	618.695152	16.265690	-0.035302	1.234206
147.293392	615.556684	16.270695	-0.035274	1.231343
147.029375	612.440574	16.275699	-0.035207	1.228468
146.725053	609.329588	16.280704	-0.035130	1.225585
146.515372	606.271729	16.285709	-0.035076	1.222758
146.424250	603.146758	16.290714	-0.035052	1.219883
146.356386	600.043152	16.295719	-0.035033	1.217025
146.144157	596.941609	16.300723	-0.034978	1.214138
146.087496	593.833650	16.305728	-0.034962	1.211264
146.034840	590.735415	16.310733	-0.034947	1.208393
145.822699	587.613482	16.315738	-0.034892	1.205466
145.579995	584.573154	16.320743	-0.034831	1.202603
145.591096	581.458597	16.325747	-0.034831	1.199707
145.488265	578.343614	16.330752	-0.034803	1.196783
145.450538	575.219466	16.335757	-0.034792	1.193855
145.246119	572.126883	16.340762	-0.034739	1.190922
145.043348	569.037761	16.345767	-0.034687	1.187985
144.810409	565.965365	16.350771	-0.034628	1.185051
144.650303	562.934938	16.355776	-0.034587	1.182161
144.509240	559.860750	16.360781	-0.034550	1.179227
144.442371	556.765111	16.365786	-0.034531	1.176277
144.227760	553.713986	16.370791	-0.034476	1.173337
144.045992	550.659005	16.375795	-0.034429	1.170392
143.794462	547.643039	16.380800	-0.034365	1.167464
143.543555	544.639634	16.385805	-0.034302	1.164541
143.385977	541.656550	16.390810	-0.034261	1.161647
143.387589	538.608939	16.395815	-0.034259	1.158710
143.349257	535.548808	16.400819	-0.034247	1.155748
143.145089	532.552367	16.405824	-0.034195	1.152810
143.044836	529.509044	16.410829	-0.034168	1.149837
142.945013	526.492787	16.415834	-0.034141	1.146883
142.991829	523.403476	16.420839	-0.034150	1.143876
142.922475	520.338542	16.425843	-0.034131	1.140865
142.755646	517.278467	16.430848	-0.034088	1.137832
142.588697	514.222073	16.435853	-0.034044	1.134796
142.390707	511.194908	16.440858	-0.033994	1.131774
141.991699	508.225112	16.445863	-0.033894	1.128765
141.765081	505.245224	16.450867	-0.033836	1.125769
141.560559	502.308519	16.455872	-0.033784	1.122812
141.514350	499.314140	16.460877	-0.033770	1.119818
141.390820	496.321544	16.465882	-0.033738	1.116804
141.095925	493.388341	16.470887	-0.033663	1.113810
140.963752	490.439941	16.475891	-0.033629	1.110823
140.671490	487.535130	16.480896	-0.033555	1.107842
140.585430	484.595981	16.485901	-0.033532	1.104856
140.383312	481.704776	16.490906	-0.033480	1.101889
140.430413	478.726808	16.495911	-0.033489	1.098872
140.385352	475.760134	16.500915	-0.033476	1.095841
140.126234	472.854703	16.505920	-0.033410	1.092824
140.016730	469.903495	16.510925	-0.033381	1.089780
139.806964	466.998671	16.515930	-0.033327	1.086757
139.702094	464.091333	16.520935	-0.033300	1.083742
139.745348	461.132074	16.525939	-0.033308	1.080693
139.590409	458.209551	16.530944	-0.033268	1.077636
139.633724	455.229131	16.535949	-0.033276	1.074547
139.505823	452.277297	16.540954	-0.033242	1.071447
139.482686	449.316799	16.545959	-0.033234	1.068349
139.295945	446.369301	16.550963	-0.033186	1.065224
139.056394	443.439343	16.555968	-0.033125	1.062098
139.039138	440.481621	16.560973	-0.033119	1.058976
138.728848	437.552741	16.565978	-0.033041	1.055819
138.242619	434.738478	16.570983	-0.032920	1.052740
138.053905	431.882644	16.575987	-0.032871	1.049666
137.499677	429.098595	16.580992	-0.032734	1.046588
137.324985	426.350887	16.585997	-0.032689	1.043614
137.072566	423.565890	16.591002	-0.032625	1.040576
136.919652	420.795256	16.596007	-0.032585	1.037564
137.006355	417.982534	16.601011	-0.032604	1.034545
137.040010	415.128220	16.606016	-0.032610	1.031463
137.043739	412.311092	16.611021	-0.032609	1.028405
137.008553	409.453729	16.616026	-0.032598	1.025286
137.050864	406.585531	16.621031	-0.032606	1.022162
137.047343	403.714149	16.626035	-0.032603	1.019016
136.851560	400.827968	16.631040	-0.032553	1.015804
136.704271	398.004243	16.636045	-0.032515	1.012661
136.633159	395.142780	16.641050	-0.032495	1.009482
136.324758	392.312497	16.646055	-0.032417	1.006279
136.081884	389.564850	16.651059	-0.032356	1.003171
135.785103	386.769237	16.656064	-0.032281	0.999989
135.533537	384.016965	16.661069	-0.032218	0.996854
135.427694	381.262692	16.666074	-0.032189	0.993738
135.222829	378.502719	16.671079	-0.032137	0.990585
135.170813	375.744914	16.676083	-0.032122	0.987456
134.874758	373.012094	16.681088	-0.032048	0.984294
134.639473	370.291057	16.686093	-0.031988	0.981148
134.597635	367.548621	16.691098	-0.031976	0.978008
134.442336	364.812275	16.696103	-0.031936	0.974842
134.454308	362.058065	16.701107	-0.031936	0.971680
134.215368	359.351402	16.706112	-0.031876	0.968509
134.117944	356.626985	16.711117	-0.031850	0.965337
133.858304	353.949672	16.716122	-0.031784	0.962175
133.679800	351.259725	16.721127	-0.031738	0.959004
133.583893	348.556250	16.726131	-0.031713	0.955826
133.376982	345.885573	16.731136	-0.031660	0.952651
133.189899	343.235038	16.736141	-0.031612	0.949494
133.021430	340.568322	16.741146	-0.031569	0.946311
132.769475	337.953807	16.746151	-0.031505	0.943160
132.805982	335.276222	16.751155	-0.031512	0.939988
132.610014	332.605140	16.756160	-0.031462	0.936761
132.616432	329.962267	16.761165	-0.031462	0.933602
132.552986	327.276785	16.766170	-0.031444	0.930366
132.187461	324.661195	16.771175	-0.031353	0.927134
132.122816	322.065511	16.776179	-0.031335	0.923983
131.850610	319.439094	16.781184	-0.031266	0.920737
131.720492	316.832063	16.786189	-0.031232	0.917536
131.590288	314.244190	16.791194	-0.031198	0.914346
131.276457	311.668635	16.796199	-0.031120	0.911119
131.214564	309.094594	16.801203	-0.031102	0.907939
131.176511	306.489217	16.806208	-0.031091	0.904716
130.874867	303.927896	16.811213	-0.031015	0.901474
130.664325	301.380291	16.816218	-0.030962	0.898259
130.647466	298.802342	16.821223	-0.030956	0.895039
130.466871	296.251747	16.826227	-0.030909	0.891804
130.197763	293.741442	16.831232	-0.030842	0.888587
130.306586	291.163195	16.836237	-0.030866	0.885362
130.046107	288.644249	16.841242	-0.030800	0.882112
129.879478	286.124608	16.846247	-0.030758	0.878872
129.772835	283.605023	16.851251	-0.030730	0.875634
129.325589	281.145352	16.856256	-0.030618	0.872379
129.229322	278.675854	16.861261	-0.030593	0.869184
129.077363	276.199125	16.866266	-0.030554	0.865955
128.885308	273.741506	16.871271	-0.030505	0.862728
128.706904	271.302778	16.876275	-0.030459	0.859517
128.405552	268.868386	16.881280	-0.030384	0.856269
128.286530	266.445131	16.886285	-0.030353	0.853069
128.106431	264.033411	16.891290	-0.030307	0.849856
128.034884	261.590484	16.896295	-0.030287	0.846617
127.903681	259.198964	16.901299	-0.030253	0.843419
127.951626	256.742406	16.906304	-0.030263	0.840167
127.826996	254.308077	16.911309	-0.030231	0.836888
127.822698	251.873724	16.916314	-0.030228	0.833627
127.719744	249.434746	16.921319	-0.030200	0.830322
127.563834	247.019176	16.926323	-0.030160	0.827022
127.449712	244.599847	16.931328	-0.030131	0.823715
127.398151	242.156579	16.936333	-0.030116	0.820377
127.067547	239.778091	16.941338	-0.030033	0.817042
126.837290	237.409373	16.946343	-0.029975	0.813733
126.639523	235.052028	16.951347	-0.029925	0.810435
126.284857	232.726670	16.956352	-0.029836	0.807126
126.120880	230.421529	16.961357	-0.029794	0.803882
125.906171	228.109439	16.966362	-0.029740	0.800602
125.702381	225.791414	16.971367	-0.029688	0.797302
125.394925	223.554475	16.976371	-0.029611	0.794076
125.170232	221.287921	16.981376	-0.029555	0.790816
124.964027	219.034812	16.986381	-0.029502	0.787567
124.808997	216.815075	16.991386	-0.029463	0.784366
124.685379	214.555175	16.996391	-0.029431	0.781103
124.614420	212.284567	17.001395	-0.029412	0.777825
124.434559	210.069531	17.006400	-0.029366	0.774584
124.397161	207.806303	17.011405	-0.029355	0.771298
124.434189	205.534261	17.016410	-0.029362	0.768006
124.376204	203.292511	17.021415	-0.029346	0.764718
124.353992	201.021336	17.026419	-0.029339	0.761382
124.229693	198.751746	17.031424	-0.029306	0.758006
124.210943	196.509108	17.036429	-0.029300	0.754684
124.188628	194.235549	17.041434	-0.029293	0.751300
123.821139	192.018278	17.046439	-0.029201	0.747887
123.562430	189.853213	17.051443	-0.029136	0.744567
123.065391	187.709993	17.056448	-0.029013	0.741197
122.807931	185.561740	17.061453	-0.028948	0.737874
122.471108	183.479264	17.066458	-0.028864	0.734612
122.124667	181.387813	17.071463	-0.028778	0.731319
121.867577	179.314974	17.076467	-0.028713	0.728066
121.714021	177.251102	17.081472	-0.028674	0.724843
121.576053	175.171916	17.086477	-0.028639	0.721586
121.526944	173.077506	17.091482	-0.028625	0.718317
121.382323	171.017222	17.096487	-0.028588	0.715057
121.483888	168.900379	17.101491	-0.028611	0.711768
121.396160	166.801320	17.106496	-0.028588	0.708435
121.360168	164.724362	17.111501	-0.028577	0.705137
121.099298	162.667498	17.116506	-0.028512	0.701786
120.961271	160.594830	17.121511	-0.028477	0.698432
121.056876	158.515980	17.126515	-0.028498	0.695124
120.791815	156.465649	17.131520	-0.028432	0.691734
120.637707	154.416591	17.136525	-0.028392	0.688364
120.595380	152.386634	17.141530	-0.028380	0.685044
120.334933	150.359407	17.146535	-0.028315	0.681643
120.064123	148.366917	17.151539	-0.028247	0.678279
119.805951	146.402424	17.156544	-0.028182	0.674949
119.621258	144.424891	17.161549	-0.028136	0.671604
119.388507	142.465358	17.166554	-0.028077	0.668257
119.194006	140.520500	17.171559	-0.028028	0.664930
119.103377	138.554349	17.176563	-0.028004	0.661585
118.750054	136.632982	17.181568	-0.027916	0.658212
118.550943	134.736087	17.186573	-0.027866	0.654914
118.446848	132.814556	17.191578	-0.027839	0.651589
118.077522	130.941575	17.196583	-0.027747	0.648243
118.100298	129.050459	17.201587	-0.027751	0.644978
117.882402	127.173344	17.206592	-0.027696	0.641640
117.760156	125.287025	17.211597	-0.027665	0.638302
117.637691	123.424306	17.216602	-0.027634	0.634986
117.270632	121.606231	17.221607	-0.027542	0.631650
117.242069	119.745725	17.226611	-0.027534	0.628336
116.939814	117.949380	17.231616	-0.027458	0.625025
116.920925	116.105597	17.236621	-0.027452	0.621709
116.760596	114.281014	17.241626	-0.027412	0.618360
116.748404	112.437707	17.246631	-0.027407	0.615012
116.822457	110.582308	17.251635	-0.027424	0.611653
116.455538	108.798655	17.256640	-0.027332	0.608251
116.364445	107.009821	17.261645	-0.027309	0.604919
116.188596	105.225334	17.266650	-0.027264	0.601546
115.973720	103.442640	17.271655	-0.027210	0.598143
115.832863	101.688404	17.276659	-0.027174	0.594802
115.468453	99.972257	17.281664	-0.027084	0.591431
115.437068	98.206831	17.286669	-0.027075	0.588070
115.168405	96.499817	17.291674	-0.027008	0.584714
114.988801	94.778180	17.296679	-0.026962	0.581343
114.972350	93.036758	17.301683	-0.026957	0.577975
114.820043	91.320137	17.306688	-0.026918	0.574585
114.903397	89.572730	17.311693	-0.026937	0.571203
114.667703	87.880844	17.316698	-0.026878	0.567790
114.423017	86.208736	17.321703	-0.026817	0.564391
114.345672	84.522539	17.326707	-0.026796	0.561008
114.138890	82.850652	17.331712	-0.026744	0.557583
113.875648	81.209027	17.336717	-0.026679	0.554176
113.680221	79.583755	17.341722	-0.026629	0.550807
113.384666	77.976341	17.346727	-0.026556	0.547415
113.054040	76.403867	17.351731	-0.026474	0.544059
112.849972	74.818392	17.356736	-0.026423	0.540707
112.449697	73.287382	17.361741	-0.026323	0.537367
112.386911	71.702975	17.366746	-0.026307	0.534032
112.157232	70.167506	17.371751	-0.026249	0.530711
112.029579	68.627491	17.376755	-0.026217	0.527401
111.864809	67.084936	17.381760	-0.026175	0.524049
111.693362	65.569076	17.386765	-0.026132	0.520731
111.562563	64.050281	17.391770	-0.026099	0.517401
111.523059	62.506173	17.396775	-0.026088	0.514034
111.495689	60.984808	17.401779	-0.026080	0.510699
111.249646	59.491326	17.406784	-0.026018	0.507311
111.157635	57.981385	17.411789	-0.025994	0.503929
111.095591	56.471260	17.416794	-0.025978	0.500537
110.889907	54.995666	17.421799	-0.025926	0.497137
110.736554	53.526109	17.426803	-0.025888	0.493750
110.572001	52.060049	17.431808	-0.025846	0.490343
110.494440	50.599645	17.436813	-0.025826	0.486964
110.309381	49.158177	17.441818	-0.025779	0.483557
110.099554	47.723930	17.446823	-0.025727	0.480130
109.811175	46.340524	17.451827	-0.025655	0.476763
109.562987	44.946843	17.456832	-0.025593	0.473366
109.232378	43.588925	17.461837	-0.025511	0.469992
109.039569	42.237987	17.466842	-0.025463	0.466673
108.706100	40.902441	17.471847	-0.025380	0.463303
108.468208	39.576318	17.476851	-0.025321	0.459975
108.330377	38.241274	17.481856	-0.025286	0.456649
108.223515	36.905556	17.486861	-0.025259	0.453312
108.153915	35.570969	17.491866	-0.025241	0.449971
107.943882	34.279817	17.496871	-0.025188	0.446646
107.775045	32.979405	17.501875	-0.025146	0.443292
107.563019	31.694162	17.506880	-0.025093	0.439930
107.343823	30.437273	17.511885	-0.025038	0.436611
107.099896	29.192121	17.516890	-0.024978	0.433284
106.744071	27.971686	17.521895	-0.024889	0.429939
106.264258	26.821465	17.526899	-0.024771	0.426689
105.781878	25.673041	17.531904	-0.024652	0.423417
105.584489	24.495360	17.536909	-0.024603	0.420189
105.335686	23.349875	17.541914	-0.024541	0.416996
104.811526	22.257506	17.546919	-0.024412	0.413777
104.524106	21.156483	17.551923	-0.024341	0.410634
104.174717	20.085072	17.556928	-0.024254	0.407516
103.881788	19.007679	17.561933	-0.024182	0.404387
103.694402	17.931151	17.566938	-0.024135	0.401294
103.331187	16.892790	17.571943	-0.024045	0.398187
103.055597	15.856738	17.576947	-0.023977	0.395111
102.722063	14.854972	17.581952	-0.023895	0.392077
102.068170	13.922437	17.586957	-0.023734	0.389037
101.653190	12.986763	17.591962	-0.023632	0.386100
101.166793	12.068991	17.596967	-0.023512	0.383152
100.858851	11.137396	17.601971	-0.023436	0.380243
100.303980	10.280911	17.606976	-0.023299	0.377391
99.841356	9.416368	17.611981	-0.023185	0.374547
99.227229	8.623064	17.616986	-0.023035	0.371807
98.898868	7.773880	17.621991	-0.022954	0.369046
98.617793	6.949587	17.626995	-0.022884	0.366368
98.208417	6.148950	17.632000	-0.022783	0.363667
97.835633	5.356513	17.637005	-0.022691	0.360993
97.592292	4.563181	17.642010	-0.022631	0.358375
97.237625	3.786830	17.647015	-0.022544	0.355722
96.883425	3.042570	17.652019	-0.022456	0.353152
96.381479	2.326271	17.657024	-0.022333	0.350560
96.141345	1.582078	17.662029	-0.022273	0.348023
95.672940	0.888533	17.667034	-0.022158	0.345487
95.245044	0.208935	17.672039	-0.022053	0.343004
94.783856	-0.451651	17.677043	-0.021940	0.340543
94.173418	-1.059307	17.682048	-0.021790	0.338143
93.615712	-1.661295	17.687053	-0.021653	0.335780
92.965720	-2.212930	17.692058	-0.021493	0.333507
92.460675	-2.782844	17.697063	-0.021369	0.331253
91.982440	-3.329320	17.702067	-0.021252	0.329082
91.458158	-3.852785	17.707072	-0.021123	0.326943
90.909680	-4.362976	17.712077	-0.020989	0.324820
90.556797	-4.880107	17.717082	-0.020902	0.322792
90.125033	-5.391169	17.722087	-0.020796	0.320719
89.585584	-5.846516	17.727091	-0.020663	0.318753
89.034941	-6.289966	17.732096	-0.020528	0.316809
88.516439	-6.729103	17.737101	-0.020401	0.314891
87.933669	-7.118647	17.742106	-0.020258	0.313094
87.364511	-7.514999	17.747111	-0.020118	0.311271
86.653926	-7.855452	17.752115	-0.019944	0.309539
85.788741	-8.127681	17.757120	-0.019733	0.307935
84.824011	-8.373058	17.762125	-0.019496	0.306350
82.039335	-8.216935	17.767130	-0.018816	0.304919
48.253205	-1.415218	17.772135	-0.010566	0.305550
66.229715	-4.249287	17.777139	-0.014955	0.308081
58.318927	-2.254103	17.782144	-0.013024	0.309688
64.397233	-3.118531	17.787149	-0.014508	0.310872
67.234890	-3.311140	17.792154	-0.015201	0.312181
66.341603	-2.977351	17.797159	-0.014983	0.312748
68.871099	-3.265015	17.802163	-0.015600	0.313494
67.421214	-2.843619	17.807168	-0.015246	0.313982
68.741076	-2.966386	17.812173	-0.015568	0.314467
68.854197	-2.866590	17.817178	-0.015596	0.314901
70.396046	-3.071375	17.822183	-0.015972	0.315247
71.846978	-3.351566	17.827187	-0.016326	0.315262
72.954083	-3.603127	17.832192	-0.016596	0.315139
73.439988	-3.775860	17.837197	-0.016715	0.314863
73.635713	-3.916410	17.842202	-0.016762	0.314499
73.330653	-3.956975	17.847207	-0.016687	0.314140
72.864906	-3.940714	17.852211	-0.016573	0.313872
72.910603	-4.038328	17.857216	-0.016584	0.313554
72.299328	-4.014939	17.862221	-0.016434	0.313209
70.501660	-3.685518	17.867226	-0.015995	0.313125
69.533324	-3.498173	17.872231	-0.015759	0.313115
68.811870	-3.352409	17.877235	-0.015582	0.313129
68.380179	-3.270635	17.882240	-0.015476	0.313118
68.102165	-3.130066	17.887245	-0.015408	0.313425
67.694662	-3.032646	17.892250	-0.015309	0.313487
67.854229	-2.985143	17.897255	-0.015347	0.313768
68.082612	-3.025677	17.902259	-0.015403	0.313782
68.991353	-3.205408	17.907264	-0.015625	0.313777
69.657891	-3.335677	17.912269	-0.015787	0.313778
69.786638	-3.412503	17.917274	-0.015818	0.313593
69.920545	-3.494220	17.922279	-0.015851	0.313394
70.350942	-3.670586	17.927283	-0.015956	0.313064
69.658592	-3.615870	17.932288	-0.015786	0.312773
69.343290	-3.630974	17.937293	-0.015709	0.312497
69.476557	-3.724293	17.942298	-0.015741	0.312255
69.101818	-3.737648	17.947303	-0.015649	0.311943
67.871246	-3.517031	17.952307	-0.015349	0.311867
66.490176	-3.279459	17.957312	-0.015011	0.311747
66.459482	-3.241884	17.962317	-0.015003	0.311859
65.888393	-3.127180	17.967322	-0.014864	0.311868
65.625212	-3.079218	17.972327	-0.014799	0.311854
64.933848	-2.881620	17.977331	-0.014630	0.312076
65.097471	-2.885890	17.982336	-0.014670	0.312175
64.974535	-2.843115	17.987341	-0.014640	0.312242
65.396505	-2.851408	17.992346	-0.014742	0.312508
66.150987	-3.040550	17.997351	-0.014926	0.312360
65.959533	-3.051584	18.002355	-0.014879	0.312185
66.624412	-3.186219	18.007360	-0.015042	0.312169
67.260493	-3.397520	18.012365	-0.015197	0.311858
67.184450	-3.470608	18.017370	-0.015178	0.311541
67.185453	-3.569837	18.022375	-0.015178	0.311184
67.156772	-3.660266	18.027379	-0.015170	0.310837
66.884123	-3.716987	18.032384	-0.015103	0.310439
66.170794	-3.662143	18.037389	-0.014929	0.310131
65.170387	-3.508740	18.042394	-0.014684	0.309975
64.596973	-3.485521	18.047399	-0.014544	0.309652
62.873512	-3.143076	18.052403	-0.014123	0.309666
61.926165	-2.914233	18.057408	-0.013891	0.309821
62.182497	-2.921428	18.062413	-0.013954	0.309976
61.288302	-2.683897	18.067418	-0.013735	0.310200
61.334830	-2.660460	18.072423	-0.013746	0.310317
61.361501	-2.585615	18.077427	-0.013753	0.310605
61.053267	-2.489669	18.082432	-0.013677	0.310733
61.873975	-2.600329	18.087437	-0.013877	0.310913
61.741510	-2.571305	18.092442	-0.013845	0.310924
62.932847	-2.809048	18.097447	-0.014135	0.310908
63.481252	-2.946159	18.102451	-0.014269	0.310801
63.333545	-2.984737	18.107456	-0.014233	0.310557
64.215190	-3.257154	18.112461	-0.014448	0.310197
63.866002	-3.276456	18.117466	-0.014362	0.309879
63.770661	-3.369146	18.122471	-0.014339	0.309475
63.795777	-3.460396	18.127475	-0.014344	0.309162
63.436142	-3.477872	18.132480	-0.014256	0.308842
63.129558	-3.533649	18.137485	-0.014181	0.308420
61.217421	-3.227538	18.142490	-0.013714	0.308169
60.532883	-3.095208	18.147495	-0.013546	0.308161
60.353907	-3.056141	18.152499	-0.013503	0.308174
59.843189	-2.957287	18.157504	-0.013378	0.308169
59.425906	-2.875762	18.162509	-0.013275	0.308167
58.375429	-2.667345	18.167514	-0.013019	0.308175
57.925940	-2.553351	18.172519	-0.012909	0.308268
58.088401	-2.522674	18.177523	-0.012948	0.308494
57.972208	-2.465408	18.182528	-0.012920	0.308619
59.338787	-2.690639	18.187533	-0.013253	0.308774
59.208970	-2.742712	18.192538	-0.013221	0.308492
60.014181	-2.903418	18.197543	-0.013417	0.308481
60.432668	-3.060669	18.202547	-0.013519	0.308207
60.106898	-3.081289	18.207552	-0.013439	0.307899
60.002738	-3.129300	18.212557	-0.013414	0.307649
59.098239	-3.012716	18.217562	-0.013193	0.307426
58.416793	-2.938117	18.222567	-0.013026	0.307210
57.710182	-2.795211	18.227571	-0.012853	0.307225
56.713627	-2.600706	18.232576	-0.012610	0.307220
56.639114	-2.586533	18.237581	-0.012591	0.307218
56.511219	-2.559217	18.242586	-0.012560	0.307226
56.626783	-2.585239	18.247591	-0.012588	0.307213
56.658035	-2.587405	18.252595	-0.012595	0.307226
56.760111	-2.609508	18.257600	-0.012620	0.307218
57.681055	-2.797507	18.262605	-0.012844	0.307191
57.639175	-2.865618	18.267610	-0.012834	0.306911
58.062642	-3.013793	18.272615	-0.012937	0.306673
58.595879	-3.197307	18.277619	-0.013067	0.306384
58.079347	-3.218665	18.282624	-0.012940	0.305934
57.630937	-3.225177	18.287629	-0.012831	0.305587
56.454873	-3.064035	18.292634	-0.012543	0.305331
56.362926	-3.098812	18.297639	-0.012520	0.305136
55.168249	-2.891159	18.302643	-0.012228	0.305037
54.237736	-2.710936	18.307648	-0.012001	0.305028
53.714237	-2.608573	18.312653	-0.011873	0.305025
52.977984	-2.407758	18.317658	-0.011693	0.305232
52.819847	-2.352411	18.322663	-0.011654	0.305320
52.842009	-2.280323	18.327667	-0.011659	0.305600
52.959401	-2.291119	18.332672	-0.011688	0.305644
53.586216	-2.414884	18.337677	-0.011840	0.305641
53.607852	-2.416211	18.342682	-0.011846	0.305651
53.851149	-2.467796	18.347687	-0.011905	0.305636
54.304177	-2.580778	18.352691	-0.012015	0.305547
54.065998	-2.594554	18.357696	-0.011957	0.305324
54.848494	-2.801332	18.362701	-0.012147	0.305128
54.549207	-2.815618	18.367706	-0.012074	0.304859
54.130751	-2.819752	18.372711	-0.011972	0.304541
54.018380	-2.850724	18.377715	-0.011944	0.304345
53.597526	-2.839777	18.382720	-0.011841	0.304080
53.669689	-2.908314	18.387725	-0.011858	0.303879
52.947219	-2.812021	18.392730	-0.011681	0.303711
52.292714	-2.741977	18.397735	-0.011521	0.303494
52.455377	-2.798452	18.402739	-0.011561	0.303403
51.435133	-2.658087	18.407744	-0.011311	0.303181
51.059999	-2.584112	18.412749	-0.011219	0.303181
50.775361	-2.525858	18.417754	-0.011150	0.303190
50.565707	-2.487096	18.422759	-0.011098	0.303180
50.607247	-2.492256	18.427763	-0.011108	0.303190
50.135160	-2.401576	18.432768	-0.010993	0.303182
50.227889	-2.419717	18.437773	-0.011015	0.303182
49.981101	-2.369714	18.442778	-0.010955	0.303187
50.058526	-2.386920	18.447783	-0.010973	0.303179
50.112966	-2.401378	18.452787	-0.010986	0.303164
50.074349	-2.476061	18.457792	-0.010977	0.302859
50.494692	-2.559048	18.462797	-0.011079	0.302857
50.251259	-2.575946	18.467802	-0.011019	0.302616
50.136250	-2.572385	18.472807	-0.010991	0.302545
50.298902	-2.687593	18.477811	-0.011030	0.302236
49.982454	-2.675002	18.482816	-0.010953	0.302051
49.618673	-2.639947	18.487821	-0.010864	0.301916
49.524657	-2.699684	18.492826	-0.010840	0.301625
49.487038	-2.730068	18.497831	-0.010831	0.301484
48.769625	-2.635956	18.502835	-0.010655	0.301309
48.531171	-2.628346	18.507840	-0.010597	0.301163
47.939021	-2.564454	18.512845	-0.010452	0.300967
47.692980	-2.512985	18.517850	-0.010392	0.300978
47.455357	-2.469722	18.522855	-0.010334	0.300965
47.309227	-2.437658	18.527859	-0.010298	0.300977
46.859488	-2.354562	18.532864	-0.010188	0.300957
46.415152	-2.346810	18.537869	-0.010079	0.300660
46.542098	-2.293505	18.542874	-0.010110	0.300951
46.038328	-2.275620	18.547879	-0.009986	0.300648
46.516179	-2.337179	18.552883	-0.010103	0.300768
46.154614	-2.295746	18.557888	-0.010014	0.300657
46.746625	-2.413610	18.562893	-0.010158	0.300650
47.236477	-2.553334	18.567898	-0.010278	0.300487
47.003153	-2.573458	18.572903	-0.010221	0.300240
46.900160	-2.611844	18.577907	-0.010195	0.300020
46.436564	-2.603129	18.582912	-0.010082	0.299712
46.164761	-2.581819	18.587917	-0.010015	0.299591
45.450784	-2.490167	18.592922	-0.009840	0.299409
45.418000	-2.512397	18.597927	-0.009832	0.299301
44.837650	-2.453851	18.602931	-0.009690	0.299093
44.695854	-2.427283	18.607936	-0.009655	0.299087
44.907468	-2.475546	18.612941	-0.009707	0.299061
44.587764	-2.463801	18.617946	-0.009628	0.298869
44.215894	-2.393951	18.622951	-0.009537	0.298857
44.289963	-2.418541	18.627955	-0.009555	0.298818
43.861963	-2.410518	18.632960	-0.009450	0.298532
43.885956	-2.416685	18.637965	-0.009456	0.298526
43.626250	-2.372383	18.642970	-0.009392	0.298500
43.222817	-2.372041	18.647975	-0.009293	0.298203
43.372260	-2.397308	18.652979	-0.009330	0.298218
42.953367	-2.316511	18.657984	-0.009227	0.298212
42.629870	-2.330085	18.662989	-0.009148	0.297921
42.231393	-2.257405	18.667994	-0.009050	0.297900
42.242665	-2.263135	18.672999	-0.009053	0.297886
42.399651	-2.290431	18.678003	-0.009091	0.297898
42.332181	-2.305601	18.683008	-0.009074	0.297791
42.189626	-2.330397	18.688013	-0.009039	0.297591
42.667830	-2.450223	18.693018	-0.009156	0.297492
42.357626	-2.451149	18.698023	-0.009080	0.297259
42.630064	-2.567938	18.703027	-0.009146	0.297019
42.396021	-2.579510	18.708032	-0.009088	0.296801
42.085688	-2.584181	18.713037	-0.009012	0.296553
41.847688	-2.593378	18.718042	-0.008954	0.296340
41.490768	-2.595436	18.723047	-0.008866	0.296067
40.982035	-2.511632	18.728051	-0.008742	0.296005
40.350978	-2.467851	18.733056	-0.008588	0.295701
40.120799	-2.427252	18.738061	-0.008531	0.295683
39.745048	-2.350442	18.743066	-0.008439	0.295693
39.535137	-2.312514	18.748071	-0.008388	0.295680
39.575140	-2.365289	18.753075	-0.008397	0.295509
38.648939	-2.219512	18.758080	-0.008171	0.295372
38.712631	-2.234165	18.763085	-0.008186	0.295363
38.537051	-2.195844	18.768090	-0.008143	0.295377
38.458407	-2.183685	18.773095	-0.008123	0.295363
38.807461	-2.250156	18.778099	-0.008208	0.295370
38.644243	-2.218775	18.783104	-0.008168	0.295367
39.037920	-2.338900	18.788109	-0.008264	0.295204
38.689676	-2.304460	18.793114	-0.008179	0.295074
38.809901	-2.389145	18.798119	-0.008208	0.294841
38.607722	-2.373135	18.803123	-0.008158	0.294750
38.148093	-2.358818	18.808128	-0.008046	0.294461
38.369678	-2.416654	18.813133	-0.008100	0.294405
38.061447	-2.428159	18.818138	-0.008024	0.294130
37.955124	-2.438623	18.823143	-0.007998	0.294010
37.822393	-2.442770	18.828147	-0.007965	0.293894
37.744187	-2.498351	18.833152	-0.007946	0.293622
37.384731	-2.463891	18.838157	-0.007858	0.293484
36.901525	-2.431269	18.843162	-0.007739	0.293245
37.054481	-2.496726	18.848167	-0.007777	0.293109
36.390921	-2.416082	18.853171	-0.007614	0.292918
36.074897	-2.354982	18.858176	-0.007537	0.292914
35.803438	-2.361208	18.863181	-0.007470	0.292685
34.830800	-2.185947	18.868186	-0.007232	0.292624
34.265780	-2.071358	18.873191	-0.007094	0.292638
34.584429	-2.059328	18.878195	-0.007172	0.292923
34.397500	-2.023791	18.883200	-0.007126	0.292917
34.590907	-2.092919	18.888205	-0.007173	0.292797
34.532305	-2.126409	18.893210	-0.007158	0.292624
34.799581	-2.182567	18.898215	-0.007223	0.292609
35.348293	-2.311611	18.903219	-0.007357	0.292527
35.403334	-2.385631	18.908224	-0.007370	0.292284
36.054355	-2.608227	18.913229	-0.007529	0.291919
35.752707	-2.628579	18.918234	-0.007455	0.291612
35.284312	-2.626563	18.923239	-0.007340	0.291266
35.166072	-2.685978	18.928243	-0.007311	0.290946
34.263859	-2.569291	18.933248	-0.007091	0.290713
33.460529	-2.485328	18.938253	-0.006894	0.290427
32.511541	-2.304618	18.943258	-0.006662	0.290405
32.020249	-2.211813	18.948263	-0.006542	0.290390
31.644939	-2.135646	18.953267	-0.006450	0.290399
31.155047	-2.029650	18.958272	-0.006330	0.290436
31.289931	-1.984457	18.963277	-0.006363	0.290712
31.481348	-2.018907	18.968282	-0.006409	0.290723
31.817980	-2.097041	18.973287	-0.006491	0.290676
32.060849	-2.215359	18.978291	-0.006550	0.290402
32.254950	-2.254745	18.983296	-0.006598	0.290397
32.342132	-2.347874	18.988301	-0.006619	0.290102
32.424191	-2.403759	18.993306	-0.006638	0.289948
31.906990	-2.361168	18.998311	-0.006512	0.289719
31.548142	-2.355896	19.003315	-0.006424	0.289466
31.073213	-2.280813	19.008320	-0.006308	0.289394
30.459764	-2.223522	19.013325	-0.006157	0.289149
30.292590	-2.187963	19.018330	-0.006116	0.289159
30.043801	-2.141408	19.023335	-0.006055	0.289149
30.495229	-2.258283	19.028339	-0.006165	0.289039
30.500284	-2.283063	19.033344	-0.006166	0.288946
30.759470	-2.404023	19.038349	-0.006229	0.288673
30.718248	-2.442380	19.043354	-0.006219	0.288491
30.484867	-2.469023	19.048359	-0.006162	0.288209
30.584846	-2.562880	19.053363	-0.006186	0.287919
29.917472	-2.495230	19.058368	-0.006023	0.287671
29.477235	-2.469850	19.063373	-0.005915	0.287432
28.621444	-2.322861	19.068378	-0.005706	0.287349
27.804974	-2.164640	19.073383	-0.005506	0.287340
27.380598	-2.079429	19.078387	-0.005402	0.287347
26.727851	-1.951338	19.083392	-0.005242	0.287346
26.604135	-1.928180	19.088397	-0.005212	0.287341
26.570312	-1.853500	19.093402	-0.005204	0.287605
26.637324	-1.851544	19.098407	-0.005220	0.287664
26.887163	-1.896541	19.103411	-0.005280	0.287679
27.275892	-1.981635	19.108416	-0.005375	0.287644
27.791170	-2.160924	19.113421	-0.005501	0.287338
28.518908	-2.343200	19.118426	-0.005678	0.287184
28.564948	-2.444007	19.123431	-0.005689	0.286824
28.686182	-2.552459	19.128435	-0.005718	0.286492
28.531996	-2.628707	19.133440	-0.005680	0.286074
28.210421	-2.665870	19.138445	-0.005602	0.285680
27.406322	-2.585089	19.143450	-0.005405	0.285376
26.617526	-2.489488	19.148455	-0.005212	0.285142
26.471423	-2.522551	19.153459	-0.005176	0.284898
25.668657	-2.383274	19.158464	-0.004980	0.284825
25.193447	-2.354951	19.163469	-0.004863	0.284568
24.477595	-2.226869	19.168474	-0.004688	0.284518
23.803948	-2.093964	19.173479	-0.004524	0.284520
23.948292	-2.044204	19.178483	-0.004559	0.284827
23.550961	-1.966441	19.183488	-0.004461	0.284825
23.193679	-1.898054	19.188493	-0.004374	0.284817
23.150414	-1.886163	19.193498	-0.004363	0.284830
23.037433	-1.866416	19.198503	-0.004335	0.284820
22.776544	-1.806486	19.203507	-0.004271	0.284853
22.924232	-1.760146	19.208512	-0.004307	0.285149
23.416995	-1.909666	19.213517	-0.004427	0.284941
23.699743	-1.992891	19.218522	-0.004496	0.284831
24.343340	-2.144430	19.223527	-0.004653	0.284731
25.127229	-2.379556	19.228531	-0.004844	0.284410
25.549955	-2.550874	19.233536	-0.004947	0.284061
25.394028	-2.644115	19.238541	-0.004909	0.283571
24.933303	-2.657157	19.243546	-0.004796	0.283160
24.765722	-2.727963	19.248551	-0.004755	0.282748
24.454500	-2.784303	19.253555	-0.004678	0.282281
23.609667	-2.701027	19.258560	-0.004472	0.281951
22.858689	-2.623102	19.263565	-0.004288	0.281674
21.807026	-2.474684	19.268570	-0.004031	0.281441
20.314269	-2.185088	19.273575	-0.003666	0.281426
19.360945	-1.975601	19.278579	-0.003433	0.281514
19.070244	-1.861667	19.283584	-0.003362	0.281740
18.395373	-1.682037	19.288589	-0.003197	0.281926
18.308335	-1.600706	19.293594	-0.003175	0.282181
18.360407	-1.567280	19.298599	-0.003188	0.282354
18.527619	-1.519167	19.303603	-0.003229	0.282675
18.999109	-1.606903	19.308608	-0.003343	0.282693
19.891095	-1.784268	19.313613	-0.003561	0.282684
20.801727	-1.963624	19.318618	-0.003783	0.282681
21.561080	-2.202810	19.323623	-0.003968	0.282322
22.283083	-2.442833	19.328627	-0.004144	0.281931
21.757901	-2.438865	19.333632	-0.004016	0.281535
21.451951	-2.497242	19.338637	-0.003941	0.281062
21.371548	-2.576436	19.343642	-0.003921	0.280682
21.474001	-2.700191	19.348647	-0.003945	0.280267
21.477541	-2.826172	19.353651	-0.003946	0.279764
20.845286	-2.803890	19.358656	-0.003791	0.279354
19.967988	-2.708999	19.363661	-0.003577	0.279042
18.798096	-2.550445	19.368666	-0.003291	0.278755
17.004497	-2.219851	19.373671	-0.002853	0.278667
16.085385	-2.030685	19.378675	-0.002628	0.278701
15.692759	-1.877488	19.383680	-0.002532	0.279006
14.876068	-1.699193	19.388685	-0.002332	0.279077
14.321725	-1.524354	19.393690	-0.002197	0.279341
14.482743	-1.489334	19.398695	-0.002236	0.279608
15.431846	-1.615382	19.403699	-0.002467	0.279850
15.901717	-1.707654	19.408704	-0.002582	0.279849
16.580472	-1.843121	19.413709	-0.002747	0.279839
17.413352	-2.032337	19.418714	-0.002950	0.279736
17.742233	-2.171546	19.423719	-0.003030	0.279436
18.303266	-2.358694	19.428723	-0.003167	0.279126
18.053559	-2.388700	19.433728	-0.003106	0.278807
17.680879	-2.416374	19.438733	-0.003014	0.278400
17.647216	-2.505596	19.443738	-0.003006	0.278013
17.256498	-2.521653	19.448743	-0.002910	0.277637
17.094569	-2.576994	19.453747	-0.002870	0.277284
16.395494	-2.518173	19.458752	-0.002699	0.276965
15.284263	-2.348609	19.463757	-0.002428	0.276767
14.598598	-2.262461	19.468762	-0.002260	0.276569
13.792879	-2.129165	19.473767	-0.002063	0.276467
13.421294	-2.055057	19.478771	-0.001972	0.276471
12.802535	-1.902590	19.483776	-0.001821	0.276596
13.451681	-1.987362	19.488781	-0.001979	0.276768
13.636877	-2.072123	19.493786	-0.002024	0.276571
12.947053	-1.962367	19.498791	-0.001855	0.276466
12.914349	-1.953465	19.503795	-0.001847	0.276475
12.835458	-1.937196	19.508800	-0.001828	0.276477
12.861375	-1.945131	19.513805	-0.001834	0.276465
12.998896	-1.968312	19.518810	-0.001867	0.276480
13.153549	-2.075025	19.523815	-0.001904	0.276169
13.400939	-2.140369	19.528819	-0.001965	0.276100
12.801631	-2.090288	19.533824	-0.001818	0.275824
13.157334	-2.194657	19.538829	-0.001905	0.275683
13.210393	-2.253850	19.543834	-0.001917	0.275484
13.294147	-2.342461	19.548839	-0.001937	0.275189
13.198512	-2.399953	19.553843	-0.001914	0.274877
12.691144	-2.373626	19.558848	-0.001790	0.274577
12.225101	-2.344712	19.563853	-0.001675	0.274320
11.549234	-2.225163	19.568858	-0.001510	0.274265
10.860457	-2.146795	19.573863	-0.001342	0.274031
10.700533	-2.113772	19.578867	-0.001302	0.274037
10.154753	-2.006410	19.583872	-0.001169	0.274036
9.646343	-1.908310	19.588877	-0.001045	0.274028
9.657706	-1.906727	19.593882	-0.001047	0.274043
9.755374	-1.928526	19.598887	-0.001071	0.274032
10.077662	-2.028697	19.603891	-0.001149	0.273880
9.683913	-1.992575	19.608896	-0.001053	0.273710
10.140750	-2.085021	19.613901	-0.001164	0.273698
10.569685	-2.241505	19.618906	-0.001268	0.273401
10.455203	-2.279386	19.623911	-0.001240	0.273152
9.572572	-2.151816	19.628915	-0.001024	0.272963
8.660223	-2.020815	19.633920	-0.000801	0.272764
9.168435	-2.122313	19.638925	-0.000925	0.272756
9.536777	-2.251602	19.643930	-0.001015	0.272521
9.020359	-2.189801	19.648935	-0.000888	0.272357
9.106064	-2.263589	19.653939	-0.000909	0.272121
9.137211	-2.332820	19.658944	-0.000916	0.271860
8.708055	-2.297393	19.663949	-0.000811	0.271658
8.164894	-2.225572	19.668954	-0.000678	0.271512
7.806100	-2.227754	19.673959	-0.000591	0.271211
7.231567	-2.121633	19.678963	-0.000450	0.271182
6.490664	-1.975842	19.683968	-0.000269	0.271182
6.373179	-1.955680	19.688973	-0.000240	0.271169
6.546790	-1.985227	19.693978	-0.000282	0.271188
6.215962	-1.993838	19.698983	-0.000201	0.270882
6.069800	-1.969724	19.703987	-0.000165	0.270862
6.133023	-1.980468	19.708992	-0.000180	0.270868
6.367610	-2.029389	19.713997	-0.000237	0.270856
6.118545	-2.045888	19.719002	-0.000176	0.270584
5.822284	-1.997906	19.724007	-0.000104	0.270540
6.241617	-2.115210	19.729011	-0.000206	0.270395
6.262622	-2.154892	19.734016	-0.000211	0.270246
6.622011	-2.302436	19.739021	-0.000298	0.269926
6.411394	-2.324079	19.744026	-0.000246	0.269663
5.972258	-2.307397	19.749031	-0.000139	0.269372
5.693677	-2.295710	19.754035	-0.000071	0.269192
5.249041	-2.236205	19.759040	0.000038	0.269075
4.929053	-2.251344	19.764045	0.000117	0.268748
4.488735	-2.167184	19.769050	0.000225	0.268738
4.107327	-2.169075	19.774055	0.000318	0.268416
4.356060	-2.216576	19.779059	0.000257	0.268421
3.892521	-2.187191	19.784064	0.000371	0.268162
3.054744	-2.039440	19.789069	0.000576	0.268090
2.953678	-2.015788	19.794074	0.000601	0.268105
3.255094	-2.082857	19.799079	0.000527	0.268072
2.906442	-2.080582	19.804083	0.000613	0.267793
1.982791	-1.897675	19.809088	0.000839	0.267798
2.189971	-1.940688	19.814093	0.000788	0.267788
2.951105	-2.087317	19.819098	0.000603	0.267799
2.071614	-1.993531	19.824103	0.000818	0.267467
1.445269	-1.870511	19.829107	0.000971	0.267466
1.962691	-1.970789	19.834112	0.000845	0.267471
2.772548	-2.170932	19.839117	0.000647	0.267298
2.144334	-2.079740	19.844122	0.000801	0.267162
2.111323	-2.146035	19.849127	0.000809	0.266855
