Sun Feb 26 14:07:14 2017

Number of Points = 3618
Depth (nm)	Load (µN)	Time (s)	Depth (V)	Load (V)
0.381910	-0.028758	0.000000	0.000010	0.281732

0.370319	-0.028460	0.005005	0.000013	0.281724
0.361392	-0.026589	0.010010	0.000015	0.281724
0.530322	-0.058175	0.015014	-0.000026	0.281730
0.553493	-0.066130	0.020019	-0.000032	0.281716
0.508295	-0.053559	0.025024	-0.000021	0.281730
0.412354	-0.064114	0.030029	0.000003	0.281613
0.400819	-0.110446	0.035034	0.000006	0.281419
0.431491	-0.114826	0.040038	-0.000002	0.281425
0.307520	-0.134265	0.045043	0.000029	0.281250
0.285304	-0.168096	0.050048	0.000034	0.281097
0.171982	-0.147866	0.055053	0.000062	0.281089
0.068508	-0.192223	0.060058	0.000088	0.280830
0.065860	-0.204342	0.065062	0.000088	0.280779
0.103530	-0.249168	0.070067	0.000079	0.280629
0.189707	-0.307364	0.075072	0.000058	0.280464
0.018199	-0.319114	0.080077	0.000101	0.280281
0.124244	-0.371444	0.085082	0.000075	0.280155
0.113866	-0.440649	0.090086	0.000077	0.279869
0.242088	-0.511218	0.095091	0.000046	0.279686
0.327809	-0.584411	0.100096	0.000026	0.279460
0.319767	-0.649500	0.105101	0.000028	0.279192
0.443590	-0.729719	0.110106	-0.000002	0.278966
0.265448	-0.772253	0.115110	0.000041	0.278654
0.231675	-0.846682	0.120115	0.000050	0.278327
0.171041	-0.909886	0.125120	0.000065	0.278024
0.111634	-0.973519	0.130125	0.000079	0.277719
0.041485	-1.042883	0.135130	0.000097	0.277382
-0.095334	-1.093004	0.140134	0.000130	0.277070
-0.341385	-1.122311	0.145139	0.000190	0.276755
-0.236182	-1.212898	0.150144	0.000165	0.276471
-0.302322	-1.288449	0.155149	0.000181	0.276111
-0.294269	-1.373622	0.160154	0.000179	0.275771
-0.370858	-1.441772	0.165158	0.000198	0.275432
-0.445503	-1.510846	0.170163	0.000217	0.275090
-0.400108	-1.606714	0.175168	0.000206	0.274735
-0.420288	-1.690206	0.180173	0.000211	0.274377
-0.504885	-1.749366	0.185178	0.000232	0.274066
-0.499037	-1.855183	0.190182	0.000231	0.273637
-0.676054	-1.919322	0.195187	0.000274	0.273230
-0.865815	-1.966455	0.200192	0.000320	0.272883
-1.527025	-1.924928	0.205197	0.000482	0.272519
-1.750615	-1.951264	0.210202	0.000537	0.272229
-1.940578	-1.977086	0.215206	0.000583	0.271968
-2.302532	-1.968643	0.220211	0.000672	0.271709
-2.454158	-1.989491	0.225216	0.000709	0.271499
-2.834433	-1.986655	0.230221	0.000802	0.271202
-3.175312	-1.938301	0.235226	0.000886	0.271124
-3.890939	-1.864350	0.240230	0.001060	0.270848
-3.775226	-1.889854	0.245235	0.001032	0.270836
-3.923363	-1.857396	0.250240	0.001069	0.270849
-4.383791	-1.831819	0.255245	0.001181	0.270580
-4.610078	-1.800776	0.260250	0.001237	0.270524
-4.855504	-1.750146	0.265254	0.001297	0.270534
-5.052550	-1.714661	0.270259	0.001345	0.270520
-4.807457	-1.759973	0.275264	0.001285	0.270531
-4.963022	-1.730531	0.280269	0.001323	0.270526
-4.718243	-1.779375	0.285274	0.001264	0.270523
-4.817375	-1.771066	0.290278	0.001288	0.270476
-5.061749	-1.783677	0.295283	0.001348	0.270224
-4.817720	-1.828614	0.300288	0.001288	0.270236
-4.980506	-1.798818	0.305293	0.001328	0.270226
-4.864142	-1.893193	0.310298	0.001300	0.269929
-4.718085	-1.925214	0.315302	0.001264	0.269915
-4.699332	-1.997862	0.320307	0.001260	0.269627
-4.523593	-2.056649	0.325312	0.001217	0.269526
-4.857025	-2.048640	0.330317	0.001299	0.269286
-4.780314	-2.103510	0.335322	0.001280	0.269120
-5.508856	-1.974693	0.340326	0.001458	0.269059
-6.152918	-1.916108	0.345331	0.001616	0.268775
-6.514869	-1.856800	0.350336	0.001704	0.268726
-6.969134	-1.768584	0.355341	0.001815	0.268721
-6.780961	-1.805545	0.360346	0.001769	0.268720
-7.018413	-1.756831	0.365350	0.001827	0.268729
-7.318696	-1.698368	0.370355	0.001901	0.268726
-6.907670	-1.712182	0.375360	0.001801	0.269005
-7.336133	-1.695263	0.380365	0.001905	0.268724
-7.125674	-1.737346	0.385370	0.001854	0.268720
-7.174726	-1.726152	0.390374	0.001866	0.268727
-7.083336	-1.746343	0.395379	0.001844	0.268717
-6.719767	-1.815419	0.400384	0.001755	0.268726
-6.884153	-1.827685	0.405389	0.001796	0.268540
-7.191538	-1.800777	0.410394	0.001871	0.268399
-6.855643	-1.869785	0.415398	0.001789	0.268386
-7.548833	-1.807610	0.420403	0.001958	0.268076
-7.623598	-1.790317	0.425408	0.001977	0.268087
-7.702343	-1.775193	0.430413	0.001996	0.268085
-7.300524	-1.888607	0.435418	0.001898	0.267940
-7.545854	-1.876070	0.440422	0.001958	0.267790
-7.001681	-2.011493	0.445427	0.001825	0.267670
-7.079345	-2.045589	0.450432	0.001845	0.267463
-7.300448	-2.068223	0.455437	0.001899	0.267185
-7.374299	-2.084002	0.460442	0.001917	0.267057
-7.761863	-2.059859	0.465446	0.002012	0.266838
-8.120695	-2.027148	0.470451	0.002099	0.266679
-8.833642	-1.921472	0.475456	0.002274	0.266533
-9.318339	-1.826282	0.480461	0.002392	0.266533
-9.419136	-1.808451	0.485466	0.002417	0.266524
-9.999811	-1.691148	0.490470	0.002559	0.266537
-10.355953	-1.571455	0.495475	0.002646	0.266746
-9.898010	-1.639752	0.500480	0.002534	0.266837
-10.074715	-1.606297	0.505485	0.002577	0.266831
-10.017368	-1.618252	0.510490	0.002563	0.266828
-9.903684	-1.637512	0.515494	0.002536	0.266840
-9.949259	-1.632089	0.520499	0.002547	0.266825
-9.809735	-1.656468	0.525504	0.002513	0.266837
-9.760075	-1.667121	0.530509	0.002501	0.266833
-9.077864	-1.854206	0.535514	0.002335	0.266610
-9.190692	-1.849408	0.540518	0.002362	0.266536
-9.334569	-1.897012	0.545523	0.002398	0.266216
-9.026839	-1.977055	0.550528	0.002323	0.266133
-9.577780	-1.928629	0.555533	0.002457	0.265880
-9.178982	-2.056180	0.560538	0.002360	0.265672
-9.408471	-2.042505	0.565542	0.002416	0.265539
-9.595945	-2.072081	0.570547	0.002462	0.265258
-9.634373	-2.108188	0.575552	0.002472	0.265072
-10.758454	-1.918771	0.580557	0.002746	0.264938
-10.894058	-1.893207	0.585562	0.002780	0.264933
-11.077749	-1.884678	0.590566	0.002825	0.264816
-12.074214	-1.709923	0.595571	0.003068	0.264726
-11.792140	-1.713609	0.600576	0.002999	0.264945
-12.171175	-1.640499	0.605581	0.003092	0.264939
-12.151170	-1.645682	0.610586	0.003087	0.264934
-12.329523	-1.606743	0.615590	0.003131	0.264950
-12.648404	-1.547375	0.620595	0.003209	0.264935
-12.483292	-1.577142	0.625600	0.003169	0.264946
-12.277777	-1.568270	0.630605	0.003118	0.265154
-11.669473	-1.738944	0.635610	0.002970	0.264937
-11.469497	-1.776336	0.640614	0.002921	0.264945
-11.283483	-1.849139	0.645619	0.002876	0.264791
-10.943307	-1.958235	0.650624	0.002793	0.264612
-11.164587	-1.983617	0.655629	0.002847	0.264319
-11.512844	-1.949458	0.660634	0.002933	0.264173
-11.930919	-1.891549	0.665638	0.003035	0.264069
-11.924642	-1.950882	0.670643	0.003033	0.263822
-12.200719	-1.916125	0.675648	0.003101	0.263738
-12.794006	-1.800202	0.680653	0.003246	0.263735
-12.742849	-1.879686	0.685658	0.003234	0.263439
-12.851165	-1.862535	0.690662	0.003260	0.263421
-12.878625	-1.860158	0.695667	0.003267	0.263408
-12.899961	-1.894429	0.700672	0.003272	0.263243
-13.471213	-1.818215	0.705677	0.003412	0.263089
-13.310787	-1.850707	0.710682	0.003373	0.263085
-13.307334	-1.848740	0.715686	0.003372	0.263095
-13.819988	-1.757886	0.720691	0.003498	0.263053
-14.145456	-1.753992	0.725696	0.003577	0.262796
-14.352277	-1.662785	0.730701	0.003628	0.263011
-14.531404	-1.670429	0.735706	0.003672	0.262828
-14.492730	-1.615628	0.740710	0.003662	0.263094
-14.519049	-1.634965	0.745715	0.003669	0.262989
-13.980126	-1.768619	0.750720	0.003537	0.262870
-14.532543	-1.677910	0.755725	0.003672	0.262793
-14.263032	-1.731850	0.760730	0.003607	0.262789
-14.113059	-1.763912	0.765734	0.003570	0.262777
-14.713686	-1.721025	0.770739	0.003717	0.262456
-14.446243	-1.770187	0.775744	0.003652	0.262470
-14.281031	-1.803440	0.780749	0.003612	0.262466
-14.113191	-1.904541	0.785754	0.003571	0.262174
-14.239902	-1.888610	0.790758	0.003602	0.262135
-14.601299	-1.887877	0.795763	0.003690	0.261834
-14.372022	-1.937164	0.800768	0.003634	0.261815
-15.134660	-1.851241	0.805773	0.003821	0.261540
-15.151789	-1.849122	0.810778	0.003825	0.261535
-15.105018	-1.865247	0.815782	0.003814	0.261504
-15.548113	-1.848393	0.820787	0.003922	0.261202
-15.677323	-1.821995	0.825792	0.003954	0.261206
-16.088608	-1.741341	0.830797	0.004054	0.261205
-16.152723	-1.729730	0.835802	0.004070	0.261200
-16.291213	-1.699611	0.840806	0.004104	0.261212
-16.658247	-1.631190	0.845811	0.004194	0.261196
-16.546648	-1.650930	0.850816	0.004167	0.261205
-16.549337	-1.652414	0.855821	0.004167	0.261196
-16.460206	-1.741986	0.860826	0.004146	0.260886
-16.396675	-1.751042	0.865830	0.004130	0.260900
-16.319345	-1.769032	0.870835	0.004112	0.260888
-15.828580	-1.908505	0.875840	0.003992	0.260702
-15.804522	-1.942713	0.880845	0.003986	0.260575
-15.697744	-2.034295	0.885850	0.003960	0.260270
-15.793342	-2.061280	0.890854	0.003984	0.260072
-16.715214	-1.909763	0.895859	0.004209	0.259943
-16.972666	-1.914481	0.900864	0.004272	0.259704
-17.529074	-1.819338	0.905869	0.004408	0.259642
-17.753303	-1.776704	0.910874	0.004463	0.259635
-18.002573	-1.725128	0.915878	0.004524	0.259646
-18.802638	-1.570536	0.920883	0.004719	0.259634
-19.026118	-1.491882	0.925888	0.004774	0.259784
-18.506540	-1.554891	0.930893	0.004647	0.259952
-18.599292	-1.538517	0.935898	0.004670	0.259944
-18.403139	-1.574865	0.940902	0.004622	0.259953
-17.854509	-1.685902	0.945907	0.004488	0.259939
-17.591685	-1.805864	0.950912	0.004424	0.259643
-17.950837	-1.735798	0.955917	0.004512	0.259641
-18.070764	-1.764325	0.960922	0.004542	0.259415
-17.558768	-1.883904	0.965926	0.004417	0.259332
-17.184484	-2.003317	0.970931	0.004326	0.259133
-17.097269	-2.077008	0.975936	0.004304	0.258888
-17.556300	-2.045820	0.980941	0.004417	0.258631
-17.775816	-2.061295	0.985946	0.004470	0.258376
-18.434432	-1.989966	0.990950	0.004631	0.258123
-19.031984	-1.874910	0.995955	0.004777	0.258112
-19.602654	-1.760882	1.000960	0.004917	0.258120

-20.171747	-1.648905	1.010957	0.005056	0.258120
-20.258842	-1.581084	1.020954	0.005078	0.258339
-19.796836	-1.649572	1.030950	0.004965	0.258435
-19.660059	-1.651949	1.040947	0.004932	0.258541
-19.238770	-1.684206	1.050944	0.004829	0.258760
-19.198440	-1.692387	1.060941	0.004820	0.258758
-19.027444	-1.790235	1.070938	0.004778	0.258478
-18.445257	-1.914173	1.080934	0.004636	0.258436
-18.429326	-1.960355	1.090931	0.004632	0.258248
-18.961701	-1.885362	1.100928	0.004763	0.258118
-19.177134	-1.842804	1.110925	0.004816	0.258118
-19.045064	-1.869346	1.120922	0.004784	0.258115
-19.329335	-1.753839	1.130918	0.004853	0.258374
-19.075267	-1.788779	1.140915	0.004791	0.258438
-19.033394	-1.796328	1.150912	0.004781	0.258440
-19.808443	-1.605325	1.160909	0.004971	0.258607
-20.033867	-1.480039	1.170906	0.005026	0.258958
-19.492264	-1.516105	1.180902	0.004894	0.259262
-18.356606	-1.724730	1.190899	0.004617	0.259324
-17.704709	-1.887108	1.200896	0.004458	0.259175
-17.228129	-2.042003	1.210893	0.004342	0.258909
-16.937763	-2.180310	1.220890	0.004271	0.258556
-17.439653	-2.173120	1.230886	0.004394	0.258157
-18.290100	-2.014942	1.240883	0.004602	0.258117
-19.546350	-1.756384	1.250880	0.004909	0.258167
-20.424491	-1.480335	1.260877	0.005124	0.258616
-21.585672	-1.081507	1.270874	0.005407	0.259355
-20.267541	-1.157115	1.280870	0.005085	0.260147
-17.910698	-1.549616	1.290867	0.004510	0.260452
-16.307418	-1.936616	1.300864	0.004119	0.260141
-15.331459	-2.257590	1.310861	0.003881	0.259582
-15.114218	-2.473590	1.320858	0.003828	0.258830
-17.314627	-2.160715	1.330854	0.004366	0.258310
-19.079930	-1.781571	1.340851	0.004797	0.258449
-18.922276	-1.739638	1.350848	0.004759	0.258765
-19.285552	-1.580721	1.360845	0.004848	0.259143
-19.909837	-1.362083	1.370842	0.005000	0.259558
-19.689241	-1.266138	1.380838	0.004947	0.260159
-18.284813	-1.447273	1.390835	0.004604	0.260568
-16.451672	-1.814645	1.400832	0.004156	0.260536
-15.091352	-2.197149	1.410829	0.003825	0.260039
-14.967796	-2.376138	1.420826	0.003795	0.259369
-16.654582	-2.150710	1.430822	0.004207	0.258909
-18.776035	-1.704035	1.440819	0.004725	0.259037
-19.787953	-1.394875	1.450816	0.004972	0.259513
-18.925319	-1.425123	1.460813	0.004762	0.260115
-18.155845	-1.493812	1.470810	0.004574	0.260470
-17.586338	-1.583148	1.480806	0.004435	0.260567
-16.396145	-1.816539	1.490803	0.004145	0.260568
-15.713660	-1.994570	1.500800	0.003979	0.260378
-15.471583	-2.136408	1.510797	0.003920	0.259970
-16.027029	-2.104860	1.520794	0.004056	0.259634
-17.348711	-1.844210	1.530790	0.004379	0.259637
-18.366445	-1.609874	1.540787	0.004627	0.259785
-18.555382	-1.466664	1.550784	0.004674	0.260242
-17.965236	-1.483919	1.560781	0.004530	0.260667
-17.317700	-1.560092	1.570778	0.004372	0.260886
-16.433109	-1.713332	1.580774	0.004156	0.260974
-15.765642	-1.865189	1.590771	0.003993	0.260884
-15.472628	-1.995375	1.600768	0.003922	0.260571
-15.936262	-1.967826	1.610765	0.004035	0.260296
-16.253647	-1.911111	1.620762	0.004113	0.260271
-17.261557	-1.707089	1.630758	0.004360	0.260295
-17.359822	-1.624473	1.640755	0.004384	0.260567
-16.776363	-1.665944	1.650752	0.004241	0.260882
-16.470302	-1.724770	1.660749	0.004167	0.260887
-15.823310	-1.852921	1.670746	0.004009	0.260882
-15.830868	-1.850726	1.680742	0.004011	0.260884
-16.301719	-1.793740	1.690739	0.004126	0.260730
-16.699330	-1.679173	1.700736	0.004224	0.260886
-16.866821	-1.594716	1.710733	0.004265	0.261107
-16.719800	-1.581253	1.720730	0.004229	0.261288
-15.861413	-1.693386	1.730726	0.004020	0.261530
-15.412048	-1.816766	1.740723	0.003910	0.261379
-15.061652	-1.926282	1.750720	0.003825	0.261204
-15.061341	-1.985152	1.760717	0.003825	0.260950
-15.022420	-2.008297	1.770714	0.003816	0.260882
-15.832190	-1.880368	1.780710	0.004014	0.260747
-16.313234	-1.753427	1.790707	0.004132	0.260886
-16.934693	-1.572499	1.800704	0.004284	0.261138
-16.613279	-1.547721	1.810701	0.004205	0.261515
-16.093583	-1.582275	1.820698	0.004079	0.261804
-16.163061	-1.544721	1.830694	0.004096	0.261906
-15.426111	-1.632684	1.840691	0.003916	0.262149
-14.443919	-1.865916	1.850688	0.003676	0.261976
-14.138628	-1.991088	1.860685	0.003602	0.261696
-14.174930	-2.045054	1.870682	0.003611	0.261433
-14.856206	-1.965244	1.880678	0.003778	0.261199
-15.356229	-1.866991	1.890675	0.003900	0.261198
-15.856057	-1.733943	1.900672	0.004022	0.261347
-15.732229	-1.714171	1.910669	0.003992	0.261536
-15.341018	-1.723264	1.920666	0.003897	0.261826
-15.641934	-1.662649	1.930662	0.003971	0.261831
-15.610628	-1.597421	1.940659	0.003963	0.262137
-15.327393	-1.624696	1.950656	0.003894	0.262257
-14.674625	-1.705713	1.960653	0.003735	0.262459
-14.832224	-1.674351	1.970650	0.003774	0.262460
-14.302613	-1.803857	1.980646	0.003645	0.262350
-13.942643	-1.921323	1.990643	0.003557	0.262149
-13.832426	-1.988482	2.000640	0.003531	0.261954
-13.948895	-1.993796	2.010637	0.003559	0.261832
-13.977614	-2.015597	2.020634	0.003566	0.261713
-15.094435	-1.790192	2.030630	0.003839	0.261738
-15.727994	-1.609090	2.040627	0.003994	0.261980
-15.718701	-1.521232	2.050624	0.003992	0.262363
-15.450335	-1.484354	2.060621	0.003927	0.262745
-14.568573	-1.588036	2.070618	0.003712	0.263042
-13.453509	-1.823234	2.080614	0.003440	0.262973
-12.833323	-2.016491	2.090611	0.003289	0.262667
-13.188625	-2.017967	2.100608	0.003376	0.262361
-13.667496	-1.972654	2.110605	0.003493	0.262151
-13.979973	-1.910897	2.120602	0.003569	0.262152
-14.600202	-1.777677	2.130598	0.003721	0.262200
-15.087616	-1.605980	2.140595	0.003840	0.262524
-14.633571	-1.631503	2.150592	0.003729	0.262795
-14.058314	-1.678745	2.160589	0.003589	0.263076
-13.753892	-1.735609	2.170586	0.003515	0.263087
-13.015652	-1.897354	2.180582	0.003335	0.263016
-12.861400	-1.979155	2.190579	0.003298	0.262795
-13.137073	-1.981515	2.200576	0.003365	0.262552
-13.592702	-1.911974	2.210573	0.003477	0.262466
-14.050625	-1.764174	2.220570	0.003589	0.262712
-14.344119	-1.674327	2.230566	0.003661	0.262849
-14.402392	-1.597245	2.240563	0.003675	0.263128
-14.092455	-1.591322	2.250560	0.003600	0.263413
-13.617601	-1.635223	2.260557	0.003484	0.263622
-12.680317	-1.822739	2.270554	0.003255	0.263608
-12.237253	-1.956526	2.280550	0.003147	0.263408
-12.067139	-2.064657	2.290547	0.003106	0.263088
-12.574188	-2.024526	2.300544	0.003230	0.262833
-13.438537	-1.858820	2.310541	0.003441	0.262815
-13.908327	-1.701558	2.320538	0.003556	0.263091
-13.841918	-1.650491	2.330534	0.003540	0.263364
-13.693979	-1.617486	2.340531	0.003504	0.263628
-13.183182	-1.692464	2.350528	0.003380	0.263735
-12.765956	-1.773734	2.360525	0.003278	0.263737
-12.575190	-1.811896	2.370522	0.003232	0.263734
-13.029604	-1.714875	2.380518	0.003343	0.263766
-12.543494	-1.777621	2.390515	0.003225	0.263905
-12.371442	-1.832039	2.400512	0.003183	0.263816
-12.359356	-1.853130	2.410509	0.003180	0.263736
-12.193795	-1.886344	2.420506	0.003140	0.263732
-12.095764	-1.904840	2.430502	0.003116	0.263734
-12.255171	-1.874123	2.440499	0.003155	0.263731
-12.708453	-1.784048	2.450496	0.003266	0.263734
-12.816840	-1.757029	2.460493	0.003293	0.263758
-12.826090	-1.682198	2.470490	0.003295	0.264068
-12.876859	-1.645471	2.480486	0.003308	0.264181
-12.412598	-1.704827	2.490483	0.003195	0.264315
-12.375282	-1.711113	2.500480	0.003186	0.264319
-12.090015	-1.766897	2.510477	0.003116	0.264319
-11.786194	-1.826953	2.520474	0.003043	0.264317
-11.508227	-1.881831	2.530470	0.002975	0.264315
-11.807314	-1.822175	2.540467	0.003048	0.264318
-11.712899	-1.840493	2.550464	0.003025	0.264318
-11.852682	-1.812425	2.560461	0.003060	0.264320
-11.888790	-1.806347	2.570458	0.003069	0.264315
-11.976107	-1.788723	2.580454	0.003090	0.264316
-11.715635	-1.835448	2.590451	0.003027	0.264334
-11.321814	-1.894126	2.600448	0.002931	0.264413
-11.697415	-1.835757	2.610445	0.003023	0.264347
-11.851369	-1.739447	2.620442	0.003061	0.264626
-12.371496	-1.627002	2.630438	0.003188	0.264669
-12.205017	-1.596137	2.640435	0.003147	0.264938
-11.817948	-1.600498	2.650432	0.003053	0.265241
-10.837995	-1.787317	2.660429	0.002814	0.265264
-10.349628	-1.950769	2.670426	0.002695	0.264978
-10.051455	-2.053748	2.680422	0.002623	0.264789
-10.272301	-2.085086	2.690419	0.002677	0.264471
-10.600823	-2.056328	2.700416	0.002757	0.264318
-11.608387	-1.857970	2.710413	0.003004	0.264319
-12.071200	-1.705053	2.720410	0.003117	0.264581
-12.184788	-1.609622	2.730406	0.003145	0.264890
-12.264967	-1.503256	2.740403	0.003164	0.265273
-11.916297	-1.490871	2.750400	0.003079	0.265615
-10.822106	-1.643407	2.760397	0.002812	0.265878
-10.190170	-1.785265	2.770394	0.002658	0.265802
-10.068917	-1.867101	2.780390	0.002629	0.265556
-9.546313	-2.011036	2.790387	0.002502	0.265381
-9.638864	-2.066792	2.800384	0.002525	0.265068
-10.265315	-1.974163	2.810381	0.002678	0.264938
-10.676586	-1.893884	2.820378	0.002778	0.264934
-10.951099	-1.813412	2.830374	0.002846	0.265046
-11.170862	-1.718450	2.840371	0.002900	0.265264
-11.500366	-1.592973	2.850368	0.002980	0.265521
-11.383988	-1.537590	2.860365	0.002952	0.265850
-10.419375	-1.659977	2.870362	0.002717	0.266133
-10.002393	-1.728435	2.880358	0.002615	0.266189
-9.910937	-1.811294	2.890355	0.002593	0.265915
-9.424004	-1.915530	2.900352	0.002474	0.265878
-9.456760	-1.930045	2.910349	0.002483	0.265789
-9.999403	-1.878221	2.920346	0.002615	0.265556
-9.854072	-1.868635	2.930342	0.002580	0.265717
-9.900770	-1.896648	2.940339	0.002592	0.265559
-10.113952	-1.814933	2.950336	0.002644	0.265726
-10.534678	-1.696090	2.960333	0.002747	0.265878
-10.665918	-1.604951	2.970330	0.002779	0.266153
-10.239604	-1.622297	2.980326	0.002675	0.266432
-9.375611	-1.770382	2.990323	0.002464	0.266523
-9.493073	-1.781520	3.000320	0.002493	0.266378
-9.496090	-1.768866	3.010317	0.002494	0.266428
-9.357954	-1.802233	3.020314	0.002461	0.266401
-9.468632	-1.769386	3.030310	0.002488	0.266447
-9.338820	-1.794518	3.040307	0.002457	0.266448
-9.556058	-1.732829	3.050304	0.002510	0.266527
-8.969033	-1.848399	3.060301	0.002367	0.266525
-9.119740	-1.873053	3.070298	0.002404	0.266296
-9.251033	-1.793629	3.080294	0.002436	0.266521
-8.874462	-1.893641	3.090291	0.002344	0.266411
-9.100361	-1.849270	3.100288	0.002400	0.266410
-9.180699	-1.805558	3.110285	0.002420	0.266527
-9.217689	-1.798046	3.120282	0.002429	0.266527
-10.003044	-1.614497	3.130278	0.002621	0.266649
-9.296511	-1.710977	3.140275	0.002449	0.266827
-9.223504	-1.706805	3.150272	0.002431	0.266904
-8.606975	-1.771279	3.160269	0.002281	0.267141
-8.667993	-1.758789	3.170266	0.002296	0.267143
-8.514832	-1.842861	3.180262	0.002259	0.266915
-8.672588	-1.783237	3.190259	0.002297	0.267034
-8.476371	-1.840470	3.200256	0.002250	0.266955
-7.833435	-1.996318	3.210253	0.002093	0.266830
-7.634324	-2.068209	3.220250	0.002045	0.266692
-8.438821	-1.949218	3.230246	0.002241	0.266526
-9.305263	-1.740864	3.240243	0.002453	0.266686
-10.194662	-1.478379	3.250240	0.002670	0.267054
-10.395253	-1.290937	3.260237	0.002720	0.267675
-8.922436	-1.483888	3.270234	0.002360	0.268078
-7.773923	-1.710044	3.280230	0.002080	0.268075
-6.532979	-2.000339	3.290227	0.001777	0.267880
-6.419372	-2.126622	3.300224	0.001750	0.267443
-6.766021	-2.148334	3.310221	0.001835	0.267065
-7.309086	-2.098220	3.320218	0.001967	0.266826
-8.771787	-1.810843	3.330214	0.002325	0.266825
-9.887646	-1.506531	3.340211	0.002598	0.267182
-9.989632	-1.339740	3.350208	0.002623	0.267797
-8.850989	-1.455705	3.360205	0.002345	0.268248
-7.543381	-1.676710	3.370202	0.002026	0.268397
-6.625498	-1.893399	3.380198	0.001802	0.268245
-6.386914	-2.011124	3.390195	0.001744	0.267947
-6.439323	-2.083338	3.400192	0.001757	0.267601
-6.982200	-2.011679	3.410189	0.001890	0.267453
-7.720743	-1.866252	3.420186	0.002070	0.267453
-8.367558	-1.721746	3.430182	0.002228	0.267526
-8.241039	-1.685964	3.440179	0.002198	0.267779
-8.862913	-1.477477	3.450176	0.002350	0.268140
-8.263381	-1.513746	3.460173	0.002203	0.268480
-6.807669	-1.744872	3.470170	0.001848	0.268709
-6.046574	-1.968980	3.480166	0.001663	0.268397
-5.710226	-2.118906	3.490163	0.001581	0.268045
-6.706565	-1.986093	3.500160	0.001824	0.267780
-7.564820	-1.816206	3.510157	0.002034	0.267785
-7.661284	-1.727353	3.520154	0.002058	0.268077
-7.551565	-1.712396	3.530150	0.002031	0.268229
-7.675867	-1.647286	3.540147	0.002062	0.268398
-7.533131	-1.604555	3.550144	0.002027	0.268693
-6.749089	-1.751706	3.560141	0.001836	0.268721
-5.782057	-1.952379	3.570138	0.001600	0.268676
-5.860892	-2.003802	3.580134	0.001620	0.268396
-6.323999	-1.958864	3.590131	0.001733	0.268202
-6.820530	-1.829101	3.600128	0.001854	0.268336
-7.913856	-1.579468	3.610125	0.002122	0.268481
-7.900412	-1.482431	3.620122	0.002118	0.268896
-6.997837	-1.583678	3.630118	0.001898	0.269213
-5.604667	-1.866921	3.640115	0.001558	0.269173
-5.146112	-2.019430	3.650112	0.001447	0.268912
-5.528597	-1.990057	3.660109	0.001540	0.268720
-5.796642	-2.008707	3.670106	0.001606	0.268421
-6.667307	-1.834734	3.680102	0.001819	0.268432
-6.993239	-1.702594	3.690099	0.001899	0.268716
-6.945009	-1.638708	3.700096	0.001887	0.269022
-6.458358	-1.710908	3.710093	0.001768	0.269118
-6.218510	-1.718041	3.720090	0.001710	0.269284
-5.835601	-1.793594	3.730086	0.001617	0.269282
-5.573073	-1.844575	3.740083	0.001553	0.269284
-5.847330	-1.811667	3.750080	0.001620	0.269196
-5.966971	-1.767107	3.760077	0.001650	0.269283
-6.003546	-1.759884	3.770074	0.001659	0.269282
-6.004620	-1.760015	3.780070	0.001659	0.269280
-5.494649	-1.822907	3.790067	0.001535	0.269435
-5.322538	-1.892715	3.800064	0.001493	0.269284
-5.189584	-1.918915	3.810061	0.001461	0.269283
-5.412711	-1.874800	3.820058	0.001516	0.269283
-5.871344	-1.785427	3.830054	0.001628	0.269279
-6.362568	-1.628739	3.840051	0.001748	0.269529
-5.919572	-1.642931	3.850048	0.001640	0.269832
-5.676740	-1.672396	3.860045	0.001581	0.269907
-5.260385	-1.754273	3.870042	0.001479	0.269906
-5.193701	-1.767649	3.880038	0.001463	0.269904
-4.471046	-1.909390	3.890035	0.001287	0.269904
-4.353016	-1.971640	3.900032	0.001259	0.269741
-4.189065	-2.038886	3.910029	0.001219	0.269594
-5.022251	-1.909096	3.920026	0.001423	0.269452
-5.416619	-1.798312	3.930022	0.001519	0.269590
-5.686538	-1.719970	3.940019	0.001585	0.269695
-5.258583	-1.753036	3.950016	0.001481	0.269906
-5.537005	-1.655706	3.960013	0.001549	0.270083
-5.173327	-1.692204	3.970010	0.001460	0.270227
-4.812273	-1.721126	3.980006	0.001372	0.270401
-4.651686	-1.768135	3.990003	0.001334	0.270336
-4.531945	-1.759291	4.000000	0.001304	0.270469
-4.232885	-1.862763	4.009997	0.001232	0.270283
-4.154003	-1.891280	4.019994	0.001213	0.270228
-4.023078	-1.917025	4.029990	0.001181	0.270227
-3.933539	-1.936270	4.039987	0.001159	0.270220
-4.231243	-1.953314	4.049984	0.001232	0.269905
-4.265190	-1.945996	4.059981	0.001241	0.269907
-4.381823	-1.893569	4.069978	0.001270	0.270029
-4.599818	-1.802796	4.079974	0.001323	0.270227
-5.327289	-1.631607	4.089971	0.001501	0.270344
-5.399044	-1.521983	4.099968	0.001518	0.270739
-5.313762	-1.455258	4.109965	0.001498	0.271084
-4.310857	-1.560429	4.119962	0.001253	0.271464
-2.849133	-1.889581	4.129958	0.000896	0.271290
-2.294824	-2.077948	4.139955	0.000761	0.270960
-2.221817	-2.200109	4.149952	0.000744	0.270512
-2.672196	-2.204565	4.159949	0.000854	0.270125
-4.096344	-1.955129	4.169946	0.001202	0.269998
-4.347110	-1.851177	4.179942	0.001264	0.270225
-4.746542	-1.715215	4.189939	0.001361	0.270463
-4.684483	-1.652033	4.199936	0.001346	0.270774
-4.776784	-1.557828	4.209933	0.001369	0.271089
-4.725557	-1.479819	4.219930	0.001357	0.271453
-3.804572	-1.579198	4.229926	0.001132	0.271789
-3.109153	-1.714821	4.239923	0.000962	0.271792
-2.282894	-1.926903	4.249920	0.000761	0.271586
-2.010984	-2.053685	4.259917	0.000695	0.271282
-1.988147	-2.137990	4.269914	0.000690	0.270951
-2.137403	-2.185787	4.279910	0.000726	0.270630
-3.533321	-1.936927	4.289907	0.001067	0.270524
-4.267457	-1.730071	4.299904	0.001247	0.270783
-5.038217	-1.472987	4.309901	0.001435	0.271220
-4.181006	-1.523379	4.319898	0.001226	0.271707
-3.554271	-1.576036	4.329894	0.001073	0.271997
-3.232245	-1.613191	4.339891	0.000995	0.272104
-2.387353	-1.778057	4.349888	0.000789	0.272108
-2.030016	-1.879957	4.359885	0.000702	0.271977
-2.044712	-1.921059	4.369882	0.000705	0.271794
-1.970045	-1.982280	4.379878	0.000688	0.271601
-2.134533	-1.977560	4.389875	0.000728	0.271486
-2.258273	-1.952186	4.399872	0.000758	0.271490
-2.625212	-1.887790	4.409869	0.000848	0.271457
-2.686198	-1.868216	4.419866	0.000863	0.271488
-3.237113	-1.753897	4.429862	0.000998	0.271512
-3.124443	-1.707726	4.439859	0.000971	0.271794
-3.431537	-1.589506	4.449856	0.001046	0.272032
-3.007364	-1.596708	4.459853	0.000943	0.272345
-2.389919	-1.699122	4.469850	0.000792	0.272422
-1.979004	-1.780622	4.479846	0.000692	0.272418
-1.813487	-1.812048	4.489843	0.000652	0.272422
-1.690667	-1.835091	4.499840	0.000622	0.272426
-1.798773	-1.885883	4.509837	0.000649	0.272128
-1.875479	-1.874964	4.519834	0.000668	0.272110
-1.983944	-1.853722	4.529830	0.000694	0.272109
-2.190215	-1.767999	4.539827	0.000745	0.272295
-1.982719	-1.777397	4.549824	0.000694	0.272423
-1.983983	-1.776885	4.559821	0.000695	0.272423
-2.080875	-1.757999	4.569818	0.000719	0.272422
-2.034445	-1.700287	4.579814	0.000708	0.272696
-1.904415	-1.713351	4.589811	0.000676	0.272747
-1.895281	-1.715039	4.599808	0.000674	0.272747
-1.718725	-1.706472	4.609805	0.000631	0.272924
-1.577639	-1.704346	4.619802	0.000597	0.273046
-1.719558	-1.677156	4.629798	0.000632	0.273042
-1.588846	-1.702907	4.639795	0.000600	0.273041
-1.438227	-1.731584	4.649792	0.000564	0.273044
-1.408951	-1.696388	4.659789	0.000557	0.273212
-1.408564	-1.659408	4.669786	0.000557	0.273363
-1.481360	-1.645761	4.679782	0.000575	0.273360
-1.433953	-1.654460	4.689779	0.000564	0.273361
-1.380298	-1.610767	4.699776	0.000551	0.273583
-1.279771	-1.605637	4.709773	0.000526	0.273684
-1.295177	-1.603061	4.719770	0.000530	0.273682
-1.133593	-1.635220	4.729766	0.000491	0.273679
-1.002208	-1.583592	4.739763	0.000459	0.273996
-0.837087	-1.611208	4.749760	0.000419	0.274015
-0.895161	-1.599297	4.759757	0.000433	0.274016
-0.777208	-1.622856	4.769754	0.000405	0.274014
-0.888704	-1.600425	4.779750	0.000432	0.274015
-0.971284	-1.584801	4.789747	0.000453	0.274012
-0.892249	-1.544782	4.799744	0.000434	0.274239
-0.924929	-1.535234	4.809741	0.000442	0.274251
-0.865124	-1.534869	4.819738	0.000427	0.274300
-0.824762	-1.479848	4.829734	0.000418	0.274556
-0.701966	-1.502910	4.839731	0.000388	0.274560
-0.673675	-1.478885	4.849728	0.000381	0.274680
-0.509710	-1.464593	4.859725	0.000342	0.274869
-0.596266	-1.448530	4.869722	0.000363	0.274865
-0.511148	-1.450599	4.879718	0.000342	0.274924
-0.497333	-1.388149	4.889715	0.000339	0.275189
-0.491050	-1.387898	4.899712	0.000338	0.275194
-0.488272	-1.343665	4.909709	0.000337	0.275376
-0.545680	-1.304319	4.919706	0.000352	0.275489
-0.509503	-1.264751	4.929702	0.000343	0.275679
-0.588777	-1.216959	4.939699	0.000363	0.275809
-0.515538	-1.153160	4.949696	0.000345	0.276126
-0.625101	-1.088021	4.959693	0.000372	0.276303
-0.575179	-1.040633	4.969690	0.000360	0.276534
-0.226010	-1.054112	4.979686	0.000275	0.276757
-0.198706	-1.025931	4.989683	0.000268	0.276892
-0.222678	-0.976139	4.999680	0.000274	0.277074
-0.308426	-0.901656	5.009677	0.000295	0.277307
-0.362967	-0.833323	5.019674	0.000309	0.277539
-0.412779	-0.759734	5.029670	0.000321	0.277796
-0.236169	-0.736227	5.039667	0.000278	0.278031
-0.216392	-0.664548	5.049664	0.000274	0.278335
-0.111502	-0.618556	5.059661	0.000248	0.278602
0.038964	-0.596422	5.069658	0.000212	0.278810
0.023883	-0.546569	5.079654	0.000216	0.278998
0.171576	-0.521790	5.089651	0.000180	0.279213
0.146955	-0.474632	5.099648	0.000186	0.279383
0.135040	-0.413195	5.109645	0.000189	0.279619
0.127856	-0.358265	5.119642	0.000191	0.279833
0.081806	-0.268641	5.129638	0.000202	0.280155
0.105325	-0.208427	5.139635	0.000197	0.280414
0.080160	-0.128510	5.149632	0.000203	0.280713
0.082160	-0.050048	5.159629	0.000203	0.281028
0.135823	0.022151	5.169626	0.000190	0.281357
0.000000	0.118322	5.179622	0.000223	0.281633

0.118043	0.128354	5.184627	0.000195	0.281765
-0.112692	0.242088	5.189632	0.000251	0.282037
0.005879	0.287224	5.194637	0.000222	0.282309
0.066490	0.345307	5.199642	0.000207	0.282587
0.041358	0.418741	5.204646	0.000214	0.282858
0.148014	0.475032	5.209651	0.000188	0.283164
0.212568	0.546747	5.214656	0.000172	0.283498
0.151357	0.645868	5.219661	0.000187	0.283842
0.375757	0.681947	5.224666	0.000132	0.284159
0.272899	0.798551	5.229670	0.000157	0.284539
0.400844	0.872716	5.234675	0.000126	0.284930
0.541919	0.944187	5.239680	0.000092	0.285320
0.533405	1.049393	5.244685	0.000094	0.285727
0.670500	1.142268	5.249690	0.000060	0.286196
0.837723	1.211563	5.254694	0.000020	0.286596
0.861511	1.329763	5.259699	0.000014	0.287077
0.856242	1.444451	5.264704	0.000015	0.287520
1.027284	1.538474	5.269709	-0.000027	0.288017
0.992725	1.669985	5.274714	-0.000018	0.288503
1.040849	1.793857	5.279718	-0.000030	0.289020
0.965538	1.930148	5.284723	-0.000011	0.289491
0.883984	2.094955	5.289728	0.000008	0.290067
0.881520	2.249249	5.294733	0.000009	0.290661
0.873780	2.419954	5.299738	0.000011	0.291314
0.801947	2.602206	5.304742	0.000029	0.291960
0.808143	2.780653	5.309747	0.000027	0.292650
0.834593	2.965273	5.314752	0.000021	0.293376
0.894224	3.136877	5.319757	0.000006	0.294076
1.010556	3.298703	5.324762	-0.000022	0.294780
0.864394	3.526405	5.329766	0.000013	0.295536
1.221288	3.664468	5.334771	-0.000074	0.296325
1.300513	3.853705	5.339776	-0.000093	0.297099
1.304701	4.060081	5.344781	-0.000094	0.297881
1.473982	4.244364	5.349786	-0.000136	0.298699
1.617677	4.408796	5.354790	-0.000171	0.299421
1.721508	4.608738	5.359795	-0.000196	0.300245
1.865180	4.799274	5.364800	-0.000231	0.301062
2.007762	4.990310	5.369805	-0.000266	0.301877
2.079218	5.204593	5.374810	-0.000284	0.302724
2.176432	5.410360	5.379814	-0.000308	0.303556
2.194682	5.626658	5.384819	-0.000312	0.304367
2.125190	5.883028	5.389824	-0.000295	0.305261
2.157374	6.124059	5.394829	-0.000303	0.306168
2.213083	6.369950	5.399834	-0.000317	0.307108
2.222680	6.624197	5.404838	-0.000319	0.308042
2.348399	6.857390	5.409843	-0.000350	0.308980
2.364431	7.112063	5.414848	-0.000354	0.309914
2.250247	7.409765	5.419853	-0.000326	0.310909
2.518063	7.648636	5.424858	-0.000392	0.311959
2.440784	7.944741	5.429862	-0.000373	0.312968
2.541985	8.212576	5.434867	-0.000398	0.313997
2.578671	8.500400	5.439872	-0.000407	0.315049
2.664365	8.782517	5.444877	-0.000428	0.316112
2.722723	9.089651	5.449882	-0.000442	0.317241
2.710820	9.404167	5.454886	-0.000439	0.318343
2.881564	9.676103	5.459891	-0.000481	0.319417
2.942090	9.990593	5.464896	-0.000496	0.320561
3.013013	10.301739	5.469901	-0.000513	0.321697
3.179179	10.609978	5.474906	-0.000554	0.322883
3.120896	10.952306	5.479910	-0.000540	0.324031
3.396875	11.234858	5.484915	-0.000607	0.325195
3.489386	11.563032	5.489920	-0.000630	0.326387
3.504993	11.907814	5.494925	-0.000634	0.327581
3.716505	12.218519	5.499930	-0.000686	0.328785
3.676768	12.566519	5.504934	-0.000676	0.329943
3.705390	12.929936	5.509939	-0.000683	0.331196
3.890648	13.269084	5.514944	-0.000729	0.332465
3.741935	13.667111	5.519949	-0.000693	0.333708
3.792696	14.040806	5.524954	-0.000705	0.334995
3.903166	14.413804	5.529958	-0.000732	0.336314
4.008417	14.793492	5.534963	-0.000758	0.337647
4.148245	15.159928	5.539968	-0.000793	0.338953
4.096675	15.571218	5.544973	-0.000780	0.340278
4.272769	15.959098	5.549978	-0.000823	0.341668
4.290766	16.372032	5.554982	-0.000828	0.343033
4.271490	16.799658	5.559987	-0.000823	0.344416
4.412620	17.207321	5.564992	-0.000858	0.345831
4.501808	17.632241	5.569997	-0.000880	0.347263
4.557037	18.066862	5.575002	-0.000894	0.348700
4.712717	18.471236	5.580006	-0.000932	0.350096
4.928587	18.889481	5.585011	-0.000985	0.351569
5.119621	19.305898	5.590016	-0.001032	0.353014
5.326477	19.697269	5.595021	-0.001082	0.354384
5.445890	20.136091	5.600026	-0.001112	0.355844
5.643736	20.554284	5.605030	-0.001160	0.357282
5.722356	20.997735	5.610035	-0.001180	0.358719
5.792046	21.440783	5.615040	-0.001197	0.360145
5.820655	21.910945	5.620045	-0.001204	0.361624
5.909713	22.381530	5.625050	-0.001226	0.363135
5.870032	22.861647	5.630054	-0.001217	0.364591
5.937738	23.351997	5.635059	-0.001233	0.366138
5.865461	23.881145	5.640064	-0.001216	0.367712
5.916080	24.365157	5.645069	-0.001229	0.369216
6.053018	24.869074	5.650074	-0.001262	0.370825
6.126873	25.385948	5.655078	-0.001281	0.372429
6.333926	25.869616	5.660083	-0.001331	0.374005
6.293474	26.417596	5.665088	-0.001322	0.375621
6.455880	26.936424	5.670093	-0.001362	0.377262
6.505720	27.473533	5.675098	-0.001374	0.378885
6.800475	27.967844	5.680102	-0.001446	0.380516
6.861435	28.519838	5.685107	-0.001462	0.382175
7.002911	29.052229	5.690112	-0.001496	0.383815
6.902631	29.638595	5.695117	-0.001472	0.385468
7.204640	30.170112	5.700122	-0.001546	0.387183
7.107230	30.753442	5.705126	-0.001523	0.388815
7.096245	31.351975	5.710131	-0.001520	0.390532
7.118077	31.963872	5.715136	-0.001526	0.392298
7.246625	32.539150	5.720141	-0.001558	0.394011
7.327255	33.153391	5.725146	-0.001578	0.395801
7.319465	33.788086	5.730150	-0.001576	0.397592
7.387151	34.395946	5.735155	-0.001593	0.399341
7.638023	35.003699	5.740160	-0.001655	0.401181
7.733302	35.632808	5.745165	-0.001678	0.402989
7.954630	36.236845	5.750170	-0.001733	0.404787
8.156724	36.853001	5.755174	-0.001782	0.406600
8.246675	37.485742	5.760179	-0.001805	0.408390
8.323103	38.128250	5.765184	-0.001824	0.410192
8.489296	38.769827	5.770189	-0.001865	0.412031
8.723785	39.391650	5.775194	-0.001922	0.413845
8.786309	40.054263	5.780198	-0.001938	0.415670
8.948488	40.710358	5.785203	-0.001978	0.417522
9.170906	41.337149	5.790208	-0.002032	0.419319
9.339765	41.994725	5.795213	-0.002074	0.421163
9.520049	42.656727	5.800218	-0.002118	0.423016
9.589641	43.331099	5.805222	-0.002136	0.424836
9.692597	44.018837	5.810227	-0.002161	0.426701
9.849301	44.691414	5.815232	-0.002200	0.428546
9.856385	45.396798	5.820237	-0.002202	0.430392
9.926896	46.121793	5.825242	-0.002220	0.432313
9.864384	46.849064	5.830246	-0.002205	0.434165
9.977673	47.584802	5.835251	-0.002233	0.436119
10.219557	48.289764	5.840256	-0.002292	0.438049
10.254705	49.026867	5.845261	-0.002301	0.439950
10.213400	49.820600	5.850266	-0.002292	0.441949
10.355872	50.557553	5.855270	-0.002327	0.443886
10.573116	51.304267	5.860275	-0.002380	0.445876
10.676142	52.071869	5.865280	-0.002406	0.447853
10.756396	52.830374	5.870285	-0.002426	0.449788
11.007464	53.598512	5.875290	-0.002488	0.451821
11.165804	54.353934	5.880294	-0.002527	0.453769
11.199537	55.157908	5.885299	-0.002536	0.455768
11.349939	55.953857	5.890304	-0.002573	0.457795
11.514618	56.725633	5.895309	-0.002614	0.459761
11.656075	57.542356	5.900314	-0.002649	0.461816
11.681033	58.356942	5.905318	-0.002655	0.463802
11.779475	59.193051	5.910323	-0.002680	0.465866
11.945222	60.009707	5.915328	-0.002721	0.467906
12.033297	60.836694	5.920333	-0.002743	0.469925
12.313889	61.658970	5.925338	-0.002812	0.472014
12.370440	62.490280	5.930342	-0.002826	0.474012
12.587338	63.330472	5.935347	-0.002879	0.476095
12.710001	64.178537	5.940352	-0.002910	0.478145
12.843762	65.024370	5.945357	-0.002943	0.480186
12.974646	65.899948	5.950362	-0.002975	0.482287
13.021098	66.775628	5.955366	-0.002987	0.484340
13.182142	67.659865	5.960371	-0.003027	0.486456
13.165660	68.563013	5.965376	-0.003024	0.488527
13.238201	69.471830	5.970381	-0.003042	0.490641
13.370193	70.388940	5.975386	-0.003075	0.492792
13.449952	71.309655	5.980390	-0.003095	0.494918
13.534066	72.251749	5.985395	-0.003116	0.497086
13.785144	73.155099	5.990400	-0.003178	0.499230
13.858996	74.105839	5.995405	-0.003196	0.501394
13.989684	75.052348	6.000410	-0.003229	0.503563
14.193698	75.995491	6.005414	-0.003279	0.505748
14.363324	76.937349	6.010419	-0.003321	0.507905
14.560156	77.880071	6.015424	-0.003370	0.510067
14.730878	78.832573	6.020429	-0.003412	0.512230
14.905393	79.783114	6.025434	-0.003455	0.514381
15.240750	80.721572	6.030438	-0.003538	0.516565
15.291352	81.679263	6.035443	-0.003551	0.518661
15.476279	82.660207	6.040448	-0.003596	0.520856
15.548906	83.644470	6.045453	-0.003615	0.523001
15.661025	84.643929	6.050458	-0.003643	0.525187
15.703401	85.660182	6.055462	-0.003654	0.527370
15.784757	86.667201	6.060467	-0.003674	0.529541
16.111907	87.667898	6.065472	-0.003755	0.531791
16.113563	88.689682	6.070477	-0.003756	0.533942
16.383495	89.709441	6.075482	-0.003822	0.536189
16.386285	90.750426	6.080486	-0.003824	0.538364
16.568197	91.795140	6.085491	-0.003869	0.540609
16.689537	92.849253	6.090496	-0.003899	0.542840
16.764764	93.915452	6.095501	-0.003918	0.545069
16.850602	95.001469	6.100506	-0.003940	0.547333
16.972965	96.066677	6.105510	-0.003970	0.549560
17.074548	97.164198	6.110515	-0.003996	0.551836
17.088533	98.278587	6.115520	-0.004000	0.554102
17.172992	99.411775	6.120525	-0.004021	0.556424
17.419325	100.491717	6.125530	-0.004082	0.558692
17.556922	101.630510	6.130534	-0.004116	0.561027
17.795280	102.726467	6.135539	-0.004175	0.563305
17.979356	103.862967	6.140544	-0.004221	0.565634
18.091352	104.979027	6.145549	-0.004249	0.567886
18.406423	106.089745	6.150554	-0.004326	0.570195
18.627176	107.207031	6.155558	-0.004381	0.572472
18.881350	108.315219	6.160563	-0.004444	0.574735
19.048571	109.455266	6.165568	-0.004485	0.577018
19.148525	110.593756	6.170573	-0.004510	0.579265
19.229157	111.776963	6.175578	-0.004531	0.581581
19.470653	112.910276	6.180582	-0.004591	0.583852
19.452924	114.126284	6.185587	-0.004587	0.586177
19.627242	115.283489	6.190592	-0.004630	0.588451
19.730185	116.486756	6.195597	-0.004656	0.590777
19.810695	117.690537	6.200602	-0.004677	0.593088
19.882634	118.919940	6.205606	-0.004695	0.595434
19.946856	120.144952	6.210611	-0.004711	0.597760
20.205906	121.361989	6.215616	-0.004775	0.600133
20.257164	122.606304	6.220621	-0.004789	0.602472
20.553619	123.829474	6.225626	-0.004862	0.604851
20.663814	125.068042	6.230630	-0.004890	0.607182
20.875647	126.300831	6.235635	-0.004942	0.609530
21.059897	127.554935	6.240640	-0.004988	0.611899
21.251754	128.786194	6.245645	-0.005036	0.614219
21.421434	130.056399	6.250650	-0.005078	0.616593
21.633387	131.293743	6.255654	-0.005130	0.618913
21.835418	132.564942	6.260659	-0.005180	0.621283
21.996791	133.826441	6.265664	-0.005221	0.623612
22.067183	135.139872	6.270669	-0.005239	0.625994
22.082472	136.430422	6.275674	-0.005243	0.628307
22.086442	137.789366	6.280678	-0.005245	0.630729
22.209125	139.098837	6.285683	-0.005276	0.633095
22.370776	140.452673	6.290688	-0.005316	0.635543
22.574429	141.752605	6.295693	-0.005367	0.637902
22.697455	143.124520	6.300698	-0.005398	0.640351
22.837410	144.471766	6.305702	-0.005433	0.642753
22.844231	145.874551	6.310707	-0.005435	0.645198
23.188671	147.195289	6.315712	-0.005520	0.647604
23.377891	148.557808	6.320717	-0.005567	0.650022
23.614008	149.915031	6.325722	-0.005626	0.652437
23.828598	151.284432	6.330726	-0.005679	0.654857
24.059430	152.631759	6.335731	-0.005736	0.657236
24.388329	153.981150	6.340736	-0.005818	0.659642
24.467342	155.370139	6.345741	-0.005838	0.662025
24.620105	156.761267	6.350746	-0.005876	0.664426
24.754428	158.154984	6.355750	-0.005910	0.666818
24.824816	159.567023	6.360755	-0.005928	0.669211
24.903290	161.001602	6.365760	-0.005948	0.671636
24.812978	162.464156	6.370765	-0.005927	0.674044
24.809179	163.963444	6.375770	-0.005927	0.676533
24.797535	165.465668	6.380774	-0.005925	0.679015
24.905694	166.970031	6.385779	-0.005952	0.681529
25.139465	168.461611	6.390784	-0.006010	0.684052
25.317902	169.948144	6.395789	-0.006055	0.686540
25.581827	171.427118	6.400794	-0.006120	0.689034
25.780205	172.932093	6.405798	-0.006169	0.691541
25.957880	174.425008	6.410803	-0.006214	0.694012
26.299985	175.912448	6.415808	-0.006298	0.696517
26.375413	177.423755	6.420813	-0.006318	0.698969
26.705314	178.920839	6.425818	-0.006399	0.701467
26.935192	180.418331	6.430822	-0.006456	0.703927
27.081337	181.932271	6.435827	-0.006493	0.706379
27.331083	183.425680	6.440832	-0.006555	0.708821
27.329713	184.984115	6.445837	-0.006556	0.711282
27.591809	186.501624	6.450842	-0.006621	0.713748
27.559241	188.085015	6.455846	-0.006614	0.716222
27.597468	189.663700	6.460851	-0.006624	0.718701
27.643789	191.287939	6.465856	-0.006636	0.721244
27.633113	192.910687	6.470861	-0.006635	0.723759
27.887698	194.516703	6.475866	-0.006698	0.726318
27.872810	196.163517	6.480870	-0.006695	0.728852
28.106333	197.786121	6.485875	-0.006754	0.731412
28.310093	199.422666	6.490880	-0.006804	0.733976
28.559985	201.039285	6.495885	-0.006866	0.736514
28.784419	202.673877	6.500890	-0.006922	0.739063
28.915629	204.332810	6.505894	-0.006955	0.741614
29.068675	205.994799	6.510899	-0.006994	0.744166
29.362933	207.631999	6.515904	-0.007067	0.746713
29.501491	209.285808	6.520909	-0.007102	0.749232
29.661003	210.950250	6.525914	-0.007142	0.751764
30.019124	212.590535	6.530918	-0.007230	0.754307
30.106907	214.251986	6.535923	-0.007253	0.756798
30.349605	215.929438	6.540928	-0.007313	0.759347
30.500495	217.596639	6.545933	-0.007351	0.761847
30.757914	219.270900	6.550938	-0.007415	0.764379
30.817575	220.952427	6.555942	-0.007431	0.766858
30.998472	222.650003	6.560947	-0.007476	0.769386
31.202543	224.340032	6.565952	-0.007527	0.771901
31.281591	226.074003	6.570957	-0.007547	0.774437
31.335492	227.808268	6.575962	-0.007562	0.776959
31.476419	229.573541	6.580966	-0.007597	0.779540
31.626339	231.304086	6.585971	-0.007635	0.782066
31.844698	233.077286	6.590976	-0.007690	0.784663
32.094568	234.776300	6.595981	-0.007752	0.787155
32.229214	236.561416	6.600986	-0.007786	0.789729
32.364549	238.313501	6.605990	-0.007820	0.792249
32.497333	240.112965	6.610995	-0.007854	0.794827
32.748874	241.862530	6.616000	-0.007916	0.797358
32.722348	243.694347	6.621005	-0.007911	0.799923
32.939889	245.494231	6.626010	-0.007965	0.802499
33.265243	247.283757	6.631014	-0.008046	0.805081
33.238281	249.089829	6.636019	-0.008040	0.807585
33.293908	250.963707	6.641024	-0.008055	0.810197
33.571344	252.771658	6.646029	-0.008124	0.812767
33.832072	254.610426	6.651034	-0.008189	0.815367
34.019305	256.426771	6.656038	-0.008236	0.817909
34.208961	258.282027	6.661043	-0.008283	0.820497
34.446434	260.124340	6.666048	-0.008343	0.823072
34.547933	261.979570	6.671053	-0.008369	0.825621
34.709268	263.831510	6.676058	-0.008409	0.828173
34.838742	265.711538	6.681062	-0.008442	0.830747
35.025606	267.575762	6.686067	-0.008489	0.833306
35.326690	269.432410	6.691072	-0.008564	0.835876
35.198512	271.361863	6.696077	-0.008534	0.838428
35.621307	273.229558	6.701082	-0.008638	0.841028
35.718048	275.141417	6.706086	-0.008663	0.843596
35.867196	277.022680	6.711091	-0.008701	0.846130
36.170296	278.925674	6.716096	-0.008776	0.848723
36.310577	280.823433	6.721101	-0.008811	0.851260
36.534067	282.745065	6.726106	-0.008867	0.853843
36.767774	284.635391	6.731110	-0.008926	0.856378
36.686457	286.615938	6.736115	-0.008907	0.858947
36.999648	288.543455	6.741120	-0.008985	0.861536
37.028621	290.531286	6.746125	-0.008993	0.864125
37.171109	292.467276	6.751130	-0.009029	0.866668
37.313606	294.475982	6.756134	-0.009065	0.869297
37.551559	296.402598	6.761139	-0.009125	0.871835
37.615766	298.440830	6.766144	-0.009142	0.874467
37.949233	300.372273	6.771149	-0.009225	0.877019
37.943524	302.423758	6.776154	-0.009224	0.879636
38.215186	304.407607	6.781158	-0.009292	0.882226
38.400822	306.423757	6.786163	-0.009339	0.884828
38.689653	308.393579	6.791168	-0.009411	0.887388
38.888006	310.390939	6.796173	-0.009460	0.889954
39.213263	312.369504	6.801178	-0.009541	0.892519
39.379243	314.388154	6.806182	-0.009583	0.895090
39.443914	316.401676	6.811187	-0.009600	0.897623
39.629175	318.450520	6.816192	-0.009647	0.900221
39.845090	320.461834	6.821197	-0.009701	0.902772
40.145150	322.482728	6.826202	-0.009775	0.905347
40.340027	324.499836	6.831206	-0.009824	0.907886
40.439627	326.532405	6.836211	-0.009850	0.910415
40.566937	328.595774	6.841216	-0.009882	0.912981
40.633026	330.660655	6.846221	-0.009900	0.915528
40.939175	332.711966	6.851226	-0.009976	0.918106
41.060313	334.784660	6.856230	-0.010007	0.920660
41.199007	336.865508	6.861235	-0.010042	0.923222
41.344388	338.947048	6.866240	-0.010079	0.925778
41.343198	341.080051	6.871245	-0.010080	0.928357
41.690771	343.145895	6.876250	-0.010167	0.930926
41.904932	345.265338	6.881254	-0.010220	0.933522
42.086131	347.349050	6.886259	-0.010266	0.936061
42.108877	349.526400	6.891264	-0.010273	0.938669
42.252933	351.648186	6.896269	-0.010309	0.941231
42.546155	353.803434	6.901274	-0.010383	0.943859
42.688402	355.902472	6.906278	-0.010419	0.946380
42.681281	358.105008	6.911283	-0.010418	0.948983
42.981325	360.247892	6.916288	-0.010493	0.951576
43.143231	362.419953	6.921293	-0.010534	0.954167
43.349691	364.566961	6.926298	-0.010586	0.956730
43.538849	366.771237	6.931302	-0.010634	0.959350
43.651650	368.951822	6.936307	-0.010663	0.961919
43.882166	371.150254	6.941312	-0.010720	0.964526
44.051363	373.309248	6.946317	-0.010763	0.967068
44.242443	375.524666	6.951322	-0.010811	0.969673
44.497934	377.705451	6.956326	-0.010875	0.972245
44.785666	379.877712	6.961331	-0.010947	0.974807
45.058405	382.059122	6.966336	-0.011015	0.977370
45.132224	384.279434	6.971341	-0.011034	0.979928
45.360756	386.482983	6.976346	-0.011092	0.982494
45.585626	388.684124	6.981350	-0.011148	0.985049
45.841544	390.858073	6.986355	-0.011212	0.987572
46.046132	393.060676	6.991360	-0.011263	0.990112
45.961518	395.320989	6.996365	-0.011244	0.992649
46.301946	397.510378	7.001370	-0.011329	0.995189
46.313161	399.785200	7.006374	-0.011333	0.997750
46.354439	402.054544	7.011379	-0.011345	1.000304
46.586007	404.344602	7.016384	-0.011403	1.002914
46.579324	406.618694	7.021389	-0.011403	1.005450
46.748442	408.937569	7.026394	-0.011445	1.008066
46.958725	411.226337	7.031398	-0.011498	1.010651
47.256332	413.518478	7.036403	-0.011573	1.013250
47.491406	415.782648	7.041408	-0.011631	1.015799
47.554298	418.136911	7.046413	-0.011648	1.018405
47.914403	420.395672	7.051418	-0.011738	1.020961
48.284198	422.686469	7.056422	-0.011830	1.023547
48.603500	424.878805	7.061427	-0.011909	1.026008
48.770339	427.189942	7.066432	-0.011951	1.028563
48.964127	429.428580	7.071437	-0.012000	1.031038
49.251184	431.716613	7.076442	-0.012072	1.033579
49.456576	433.960358	7.081446	-0.012124	1.036049
49.515504	436.281248	7.086451	-0.012139	1.038568
49.815706	438.536400	7.091456	-0.012214	1.041058
49.692525	440.902144	7.096461	-0.012186	1.043577
49.837636	443.205087	7.101466	-0.012223	1.046075
50.044870	445.561387	7.106470	-0.012275	1.048637
50.013216	447.922480	7.111475	-0.012269	1.051151
50.242353	450.318411	7.116480	-0.012326	1.053747
50.236706	452.706298	7.121485	-0.012327	1.056282
50.547528	455.104223	7.126490	-0.012404	1.058883
50.678202	457.505564	7.131494	-0.012438	1.061446
51.033884	459.869846	7.136499	-0.012526	1.064008
51.333706	462.221722	7.141504	-0.012601	1.066539
51.426252	464.615986	7.146509	-0.012625	1.069069
51.733960	466.962775	7.151514	-0.012702	1.071585
52.066257	469.316824	7.156518	-0.012785	1.074107
52.110167	471.688911	7.161523	-0.012797	1.076587
52.376249	474.079833	7.166528	-0.012863	1.079123
52.604011	476.436888	7.171533	-0.012921	1.081611
52.792471	478.813010	7.176538	-0.012968	1.084105
52.851652	481.209275	7.181542	-0.012984	1.086590
52.995855	483.616958	7.186547	-0.013021	1.089097
53.205084	486.036140	7.191552	-0.013074	1.091622
53.405535	488.438101	7.196557	-0.013124	1.094122
53.532642	490.859709	7.201562	-0.013157	1.096623
53.671971	493.319605	7.206566	-0.013193	1.099159
53.807997	495.765451	7.211571	-0.013228	1.101675
54.134204	498.185076	7.216576	-0.013309	1.104193
54.104517	500.651043	7.221581	-0.013303	1.106687
54.371990	503.092442	7.226586	-0.013370	1.109205
54.558861	505.569744	7.231590	-0.013417	1.111739
54.723512	508.018261	7.236595	-0.013459	1.114234
55.003893	510.480294	7.241600	-0.013529	1.116758
55.179661	512.939587	7.246605	-0.013574	1.119254
55.389810	515.418395	7.251610	-0.013627	1.121771
55.670678	517.856079	7.256614	-0.013697	1.124254
55.770294	520.320372	7.261619	-0.013723	1.126725
56.027260	522.797188	7.266624	-0.013788	1.129231
56.101783	525.292653	7.271629	-0.013807	1.131718
56.374660	527.757990	7.276634	-0.013876	1.134204
56.639170	530.232300	7.281638	-0.013942	1.136693
56.829427	532.710685	7.286643	-0.013990	1.139167
56.996280	535.218436	7.291648	-0.014033	1.141660
56.994805	537.729494	7.296653	-0.014034	1.144122
57.089955	540.260460	7.301658	-0.014059	1.146614
57.447446	542.756349	7.306662	-0.014148	1.149113
57.482656	545.286741	7.311667	-0.014158	1.151583
57.645795	547.839309	7.316672	-0.014200	1.154093
57.838206	550.380721	7.321677	-0.014248	1.156591
58.084436	552.912540	7.326682	-0.014310	1.159083
58.365157	555.450770	7.331686	-0.014380	1.161583
58.473418	557.971829	7.336691	-0.014409	1.164030
58.897069	560.479590	7.341696	-0.014514	1.166515
58.953780	563.015952	7.346701	-0.014529	1.168958
59.216503	565.545405	7.351706	-0.014595	1.171425
59.435754	568.079313	7.356710	-0.014650	1.173883
59.639419	570.596945	7.361715	-0.014702	1.176318
59.752153	573.177628	7.366720	-0.014731	1.178792
59.899357	575.736207	7.371725	-0.014769	1.181246
59.933526	578.324597	7.376730	-0.014779	1.183704
60.233172	580.870422	7.381734	-0.014854	1.186162
60.299315	583.465800	7.386739	-0.014872	1.188622
60.524371	586.058266	7.391744	-0.014928	1.191100
60.843699	588.610502	7.396749	-0.015008	1.193552
61.067727	591.175223	7.401754	-0.015064	1.195994
61.291425	593.767741	7.406758	-0.015121	1.198457
61.321210	596.359918	7.411763	-0.015130	1.200883
61.628496	598.951304	7.416768	-0.015207	1.203349
61.775817	601.514182	7.421773	-0.015244	1.205757
61.924609	604.127706	7.426778	-0.015282	1.208207
62.103497	606.739886	7.431782	-0.015328	1.210656
62.267953	609.358167	7.436787	-0.015370	1.213103
62.546771	611.957084	7.441792	-0.015440	1.215546
62.620721	614.598780	7.446797	-0.015459	1.217990
62.859713	617.215108	7.451802	-0.015520	1.220433
63.076996	619.861377	7.456806	-0.015574	1.222895
63.201449	622.461246	7.461811	-0.015607	1.225295
63.473448	625.112192	7.466816	-0.015675	1.227760
63.621596	627.718913	7.471821	-0.015713	1.230160
63.812697	630.384821	7.476826	-0.015761	1.232616
63.962415	633.000598	7.481830	-0.015799	1.235014
64.196908	635.653884	7.486835	-0.015859	1.237456
64.414282	638.287582	7.491840	-0.015913	1.239873
64.599493	640.955008	7.496845	-0.015960	1.242310
64.669725	643.572642	7.501850	-0.015979	1.244679
64.904567	646.272093	7.506854	-0.016039	1.247143
65.051189	648.897228	7.511859	-0.016076	1.249522
65.286233	651.616789	7.516864	-0.016135	1.251995
65.447651	654.253329	7.521869	-0.016177	1.254377
65.590907	656.971743	7.526874	-0.016213	1.256824
65.888253	659.624097	7.531878	-0.016288	1.259232
66.116312	662.310033	7.536883	-0.016345	1.261655
66.377582	664.941108	7.541888	-0.016411	1.264030
66.351510	667.655271	7.546893	-0.016406	1.266428
66.648468	670.310728	7.551898	-0.016481	1.268821
66.892041	673.006557	7.556902	-0.016542	1.271236
66.970007	675.686835	7.561907	-0.016563	1.273607
67.133695	678.421654	7.566912	-0.016605	1.276035
67.303578	681.126994	7.571917	-0.016648	1.278434
67.440246	683.862727	7.576922	-0.016683	1.280849
67.482810	686.616533	7.581926	-0.016695	1.283262
67.666211	689.347311	7.586931	-0.016742	1.285671
67.952160	692.105269	7.591936	-0.016814	1.288115
68.061209	694.855154	7.596941	-0.016842	1.290520
68.377714	697.594338	7.601946	-0.016921	1.292944
68.561968	700.332387	7.606950	-0.016968	1.295341
68.619293	703.123427	7.611955	-0.016984	1.297761
69.005831	705.855760	7.616960	-0.017080	1.300175
69.367219	708.562287	7.621965	-0.017170	1.302559
69.571746	711.202552	7.626970	-0.017222	1.304858
69.862613	713.925608	7.631974	-0.017295	1.307236
70.126304	716.566900	7.636979	-0.017361	1.309537
70.347918	719.301436	7.641984	-0.017417	1.311906
70.415485	721.968560	7.646989	-0.017435	1.314191
70.589836	724.718534	7.651994	-0.017480	1.316558
70.831815	727.408015	7.656998	-0.017541	1.318880
70.967822	730.147973	7.662003	-0.017576	1.321225
71.184455	732.835490	7.667008	-0.017630	1.323533
71.267772	735.591594	7.672013	-0.017653	1.325875
71.430605	738.331950	7.677018	-0.017694	1.328211
71.551416	741.110703	7.682022	-0.017726	1.330570
71.629386	743.887435	7.687027	-0.017747	1.332916
71.773547	746.695045	7.692032	-0.017784	1.335294
72.031579	749.465200	7.697037	-0.017849	1.337653
72.127571	752.277226	7.702042	-0.017874	1.340019
72.414223	755.071689	7.707046	-0.017946	1.342394
72.628709	757.814645	7.712051	-0.018000	1.344711
72.876885	760.616839	7.717056	-0.018063	1.347079
72.938341	763.398089	7.722061	-0.018079	1.349397
73.179426	766.220537	7.727066	-0.018140	1.351772
73.391193	768.985585	7.732070	-0.018194	1.354091
73.628825	771.798813	7.737075	-0.018254	1.356450
73.787714	774.577507	7.742080	-0.018294	1.358765
73.959323	777.421228	7.747085	-0.018338	1.361131
74.093520	780.174217	7.752090	-0.018373	1.363413
74.366008	783.024777	7.757094	-0.018441	1.365790
74.589623	785.773142	7.762099	-0.018498	1.368074
74.707863	788.637698	7.767104	-0.018529	1.370433
74.864485	791.442800	7.772109	-0.018569	1.372745
75.069042	794.272387	7.777114	-0.018621	1.375080
75.285201	797.115046	7.782118	-0.018675	1.377423
75.431006	799.949431	7.787123	-0.018713	1.379746
75.776176	802.769780	7.792128	-0.018799	1.382081
75.974866	805.550325	7.797133	-0.018849	1.384360
76.234077	808.371671	7.802138	-0.018915	1.386676
76.509788	811.116190	7.807142	-0.018984	1.388929
76.550368	813.974154	7.812147	-0.018996	1.391236
76.726057	816.766941	7.817152	-0.019040	1.393506
76.851707	819.625336	7.822157	-0.019073	1.395819
76.956591	822.462286	7.827162	-0.019101	1.398107
77.124658	825.350053	7.832166	-0.019144	1.400441
77.117969	828.209842	7.837171	-0.019144	1.402724
77.343704	831.104794	7.842176	-0.019201	1.405064
77.507840	834.005660	7.847181	-0.019243	1.407396
77.637744	836.908259	7.852186	-0.019277	1.409721
77.773020	839.855537	7.857190	-0.019312	1.412078
78.104939	842.706575	7.862195	-0.019395	1.414382
78.333518	845.646721	7.867200	-0.019452	1.416739
78.541830	848.505128	7.872205	-0.019505	1.419024
78.860424	851.400244	7.877210	-0.019585	1.421350
79.099703	854.223731	7.882214	-0.019645	1.423604
79.282567	857.106994	7.887219	-0.019692	1.425894
79.544630	859.939789	7.892224	-0.019758	1.428152
79.768596	862.825189	7.897229	-0.019815	1.430442
79.920543	865.660718	7.902234	-0.019854	1.432680
80.081258	868.558469	7.907238	-0.019895	1.434964
80.272188	871.427886	7.912243	-0.019943	1.437226
80.590487	874.290579	7.917248	-0.020023	1.439497
80.523329	877.191406	7.922253	-0.020009	1.441742
80.715671	880.059066	7.927258	-0.020058	1.443993
80.816164	883.035082	7.932262	-0.020084	1.446311
80.964861	885.915392	7.937267	-0.020122	1.448559
81.027648	888.941725	7.942272	-0.020140	1.450904
81.237738	891.832185	7.947277	-0.020193	1.453160
81.412760	894.815595	7.952282	-0.020238	1.455480
81.624181	897.785857	7.957286	-0.020291	1.457790
81.766972	900.763237	7.962291	-0.020328	1.460093
82.193506	903.669196	7.967296	-0.020434	1.462375
82.436622	906.576132	7.972301	-0.020496	1.464630
82.634285	909.481669	7.977306	-0.020546	1.466875
82.762928	912.420055	7.982310	-0.020579	1.469133
82.905158	915.368506	7.987315	-0.020616	1.471396
83.193786	918.271658	7.992320	-0.020689	1.473640
83.410214	921.219589	7.997325	-0.020743	1.475906
83.520303	924.120288	8.002330	-0.020772	1.478118
83.938538	927.072484	8.007334	-0.020876	1.480406
83.939805	929.944537	8.012339	-0.020879	1.482576
84.179717	932.906308	8.017344	-0.020939	1.484841
84.316060	935.840035	8.022349	-0.020975	1.487069
84.476036	938.779417	8.027354	-0.021016	1.489300
84.644999	941.763979	8.032358	-0.021059	1.491563
84.761826	944.706540	8.037363	-0.021089	1.493784
85.085577	947.692253	8.042368	-0.021170	1.496061
85.155663	950.645625	8.047373	-0.021190	1.498278
85.500096	953.625574	8.052378	-0.021276	1.500546
85.805473	956.475932	8.057382	-0.021352	1.502709
85.852894	959.458124	8.062387	-0.021366	1.504935
86.051154	962.399183	8.067392	-0.021416	1.507145
86.154034	965.389948	8.072397	-0.021443	1.509378
86.395748	968.336120	8.077402	-0.021504	1.511591
86.475435	971.323023	8.082406	-0.021526	1.513811
86.476032	974.376046	8.087411	-0.021528	1.516067
86.677044	977.387050	8.092416	-0.021579	1.518313
86.741104	980.473507	8.097421	-0.021597	1.520595
86.825694	983.466677	8.102426	-0.021620	1.522807
87.184255	986.564210	8.107430	-0.021709	1.525126
87.196520	989.594058	8.112435	-0.021714	1.527349
87.500705	992.677997	8.117440	-0.021791	1.529645
87.799059	995.707214	8.122445	-0.021866	1.531897
88.112610	998.709802	8.127450	-0.021944	1.534127
88.395273	1001.743483	8.132454	-0.022015	1.536373
88.648042	1004.707108	8.137459	-0.022079	1.538561
88.934605	1007.718192	8.142464	-0.022151	1.540785
89.187678	1010.623561	8.147469	-0.022215	1.542925
89.195879	1013.672401	8.152474	-0.022219	1.545136
89.578996	1016.593170	8.157478	-0.022314	1.547296
89.703238	1019.594605	8.162483	-0.022347	1.549481
89.922061	1022.565310	8.167488	-0.022402	1.551651
89.993700	1025.556318	8.172493	-0.022422	1.553816
90.245061	1028.554604	8.177498	-0.022485	1.556004
90.445325	1031.540938	8.182502	-0.022536	1.558174
90.399766	1034.604591	8.187507	-0.022527	1.560368
90.561433	1037.587327	8.192512	-0.022569	1.562525
90.744701	1040.661668	8.197517	-0.022615	1.564747
90.902503	1043.679337	8.202522	-0.022656	1.566923
90.984676	1046.810981	8.207526	-0.022678	1.569168
91.225748	1049.849350	8.212531	-0.022739	1.571362
91.487731	1052.899134	8.217536	-0.022805	1.573563
91.515138	1056.016983	8.222541	-0.022814	1.575782
91.733364	1059.079699	8.227546	-0.022869	1.577981
91.835584	1062.239807	8.232550	-0.022896	1.580233
91.942115	1065.266023	8.237555	-0.022924	1.582387
92.256948	1068.414929	8.242560	-0.023004	1.584649
92.416383	1071.490988	8.247565	-0.023045	1.586839
92.678613	1074.594731	8.252570	-0.023111	1.589057
93.014767	1077.647884	8.257574	-0.023195	1.591245
93.112133	1080.714079	8.262579	-0.023221	1.593411
93.492602	1083.787238	8.267584	-0.023316	1.595612
93.705206	1086.818005	8.272589	-0.023370	1.597760
93.921434	1089.894967	8.277594	-0.023425	1.599939
94.192700	1092.852064	8.282598	-0.023493	1.602037
94.351489	1095.911526	8.287603	-0.023534	1.604191
94.600562	1098.927833	8.292608	-0.023597	1.606322
94.738564	1101.977934	8.297613	-0.023632	1.608461
94.872552	1105.026743	8.302618	-0.023667	1.610596
95.006433	1108.070894	8.307622	-0.023702	1.612725
95.032354	1111.209138	8.312627	-0.023710	1.614904
95.019788	1114.346887	8.317632	-0.023709	1.617076
95.312817	1117.499996	8.322637	-0.023783	1.619289
95.486967	1120.603040	8.327642	-0.023828	1.621452
95.667982	1123.745185	8.332646	-0.023874	1.623639
95.769346	1126.880401	8.337651	-0.023901	1.625810
95.989006	1130.008004	8.342656	-0.023957	1.627986
96.288683	1133.144090	8.347661	-0.024032	1.630174
96.448697	1136.219873	8.352666	-0.024073	1.632301
96.804620	1139.361473	8.357670	-0.024162	1.634493
97.026273	1142.397367	8.362675	-0.024218	1.636595
97.278757	1145.517951	8.367680	-0.024282	1.638755
97.420960	1148.580602	8.372685	-0.024319	1.640861
97.760712	1151.594445	8.377690	-0.024404	1.642953
97.992939	1154.694937	8.382694	-0.024463	1.645088
97.898312	1157.754823	8.387699	-0.024442	1.647158
98.153341	1160.896046	8.392704	-0.024506	1.649318
98.340583	1163.976935	8.397709	-0.024554	1.651428
98.458847	1167.102103	8.402714	-0.024585	1.653557
98.709365	1170.225587	8.407718	-0.024648	1.655697
98.706503	1173.359618	8.412723	-0.024650	1.657813
99.003838	1176.514754	8.417728	-0.024725	1.659973
99.258212	1179.558414	8.422733	-0.024789	1.662051
99.382338	1182.717154	8.427738	-0.024821	1.664190
99.530565	1185.840305	8.432742	-0.024859	1.666305
99.698304	1188.982247	8.437747	-0.024903	1.668431
99.918772	1192.123700	8.442752	-0.024959	1.670560
100.064527	1195.256116	8.447757	-0.024996	1.672673
100.230575	1198.426656	8.452762	-0.025039	1.674810
100.404099	1201.573902	8.457766	-0.025083	1.676930
100.637570	1204.744341	8.462771	-0.025143	1.679069
100.992786	1207.813206	8.467776	-0.025231	1.681151
101.223426	1210.927452	8.472781	-0.025290	1.683247
101.266359	1214.063431	8.477786	-0.025303	1.685334
101.652677	1217.171125	8.482790	-0.025399	1.687437
101.590313	1220.355247	8.487795	-0.025386	1.689540
101.788045	1223.464210	8.492800	-0.025436	1.691619
102.144543	1226.617496	8.497805	-0.025526	1.693741
102.231302	1229.763055	8.502810	-0.025549	1.695826
102.385846	1232.938598	8.507814	-0.025589	1.697936
102.647341	1236.067315	8.512819	-0.025655	1.700024
102.844163	1239.183746	8.517824	-0.025705	1.702095
103.025918	1242.370184	8.522829	-0.025751	1.704207
103.154130	1245.448513	8.527834	-0.025785	1.706240
103.459448	1248.618780	8.532838	-0.025862	1.708349
103.520493	1251.766993	8.537843	-0.025879	1.710416
103.645753	1254.923588	8.542848	-0.025911	1.712493
103.811257	1258.144381	8.547853	-0.025954	1.714613
104.015555	1261.268174	8.552858	-0.026006	1.716671
104.206380	1264.507542	8.557863	-0.026055	1.718800
104.375782	1267.616347	8.562867	-0.026098	1.720840
104.662117	1270.788639	8.567872	-0.026170	1.722931
104.807371	1273.976773	8.572877	-0.026208	1.725014
104.911600	1277.132211	8.577882	-0.026236	1.727070
105.244494	1280.356164	8.582887	-0.026319	1.729191
105.424509	1283.450762	8.587891	-0.026365	1.731211
105.630069	1286.652364	8.592896	-0.026417	1.733299
105.770661	1289.833354	8.597901	-0.026454	1.735366
105.954536	1293.004771	8.602906	-0.026501	1.737427
106.192645	1296.211230	8.607911	-0.026561	1.739515
106.301262	1299.309955	8.612915	-0.026590	1.741518
106.508268	1302.542922	8.617920	-0.026643	1.743614
106.721335	1305.685843	8.622925	-0.026697	1.745651
106.655624	1308.925900	8.627930	-0.026683	1.747719
106.878767	1312.177800	8.632935	-0.026740	1.749822
107.059062	1315.354905	8.637939	-0.026786	1.751870
107.165323	1318.653472	8.642944	-0.026814	1.753985
107.430562	1321.864304	8.647949	-0.026881	1.756059
107.701089	1325.093407	8.652954	-0.026949	1.758141
107.915434	1328.301649	8.657959	-0.027004	1.760203
108.079674	1331.486707	8.662963	-0.027046	1.762242
108.356562	1334.704551	8.667968	-0.027116	1.764311
108.710137	1337.843456	8.672973	-0.027204	1.766335
108.922469	1341.023121	8.677978	-0.027258	1.768369
109.208794	1344.164252	8.682983	-0.027331	1.770383
109.274675	1347.314520	8.687987	-0.027349	1.772379
109.527133	1350.530187	8.692992	-0.027413	1.774432
109.537242	1353.704164	8.697997	-0.027417	1.776433
109.670403	1356.941842	8.703002	-0.027452	1.778483
109.720926	1360.155758	8.708007	-0.027466	1.780508
109.730925	1363.422738	8.713011	-0.027471	1.782560
109.911584	1366.732515	8.718016	-0.027517	1.784654
110.052170	1369.998158	8.723021	-0.027554	1.786713
110.355193	1373.285153	8.728026	-0.027630	1.788799
110.564648	1376.509995	8.733031	-0.027684	1.790835
110.592421	1379.837527	8.738035	-0.027693	1.792914
110.966892	1383.096018	8.743040	-0.027786	1.794982
111.265680	1386.332093	8.748045	-0.027861	1.797027
111.593133	1389.542383	8.753050	-0.027944	1.799055
111.803326	1392.691737	8.758055	-0.027997	1.801033
111.995869	1395.920605	8.763059	-0.028046	1.803055
112.129502	1399.122783	8.768064	-0.028081	1.805053
112.256079	1402.351851	8.773069	-0.028114	1.807065
112.479523	1405.610154	8.778074	-0.028171	1.809102
112.682848	1408.790656	8.783079	-0.028223	1.811087
112.770004	1412.057287	8.788083	-0.028246	1.813111
112.969005	1415.307205	8.793088	-0.028297	1.815134
113.072815	1418.593590	8.798093	-0.028325	1.817167
113.139897	1421.877198	8.803098	-0.028343	1.819194
113.443706	1425.102913	8.808103	-0.028420	1.821204
113.634528	1428.374477	8.813107	-0.028468	1.823230
113.802486	1431.623225	8.818112	-0.028512	1.825238
114.116693	1434.888194	8.823117	-0.028591	1.827267
114.175987	1438.162081	8.828122	-0.028607	1.829275
114.481501	1441.395429	8.833127	-0.028684	1.831280
114.804744	1444.622018	8.838131	-0.028765	1.833280
114.885421	1447.861222	8.843136	-0.028787	1.835262
115.260934	1451.087489	8.848141	-0.028881	1.837262
115.448390	1454.280653	8.853146	-0.028929	1.839222
115.694506	1457.438446	8.858151	-0.028991	1.841164
115.764384	1460.683890	8.863155	-0.029011	1.843141
115.906221	1463.886750	8.868160	-0.029047	1.845097
116.027249	1467.166900	8.873165	-0.029079	1.847095
116.289804	1470.377288	8.878170	-0.029145	1.849062
116.320857	1473.637572	8.883175	-0.029155	1.851035
116.445834	1476.943326	8.888179	-0.029188	1.853043
116.642391	1480.213253	8.893184	-0.029238	1.855033
116.781767	1483.538035	8.898189	-0.029275	1.857050
116.848830	1486.856013	8.903194	-0.029293	1.859053
117.185840	1490.126937	8.908199	-0.029378	1.861050
117.330926	1493.424340	8.913203	-0.029415	1.863044
117.596198	1496.682488	8.918208	-0.029482	1.865022
117.714082	1500.003969	8.923213	-0.029513	1.867024
117.806189	1503.308465	8.928218	-0.029538	1.869010
118.208499	1506.568149	8.933223	-0.029639	1.870996
118.299878	1509.869161	8.938227	-0.029663	1.872976
118.441021	1513.177110	8.943232	-0.029700	1.874963
118.718466	1516.495379	8.948237	-0.029770	1.876966
118.998456	1519.735067	8.953242	-0.029841	1.878920
119.274914	1522.946466	8.958247	-0.029910	1.880856
119.419639	1526.213878	8.963251	-0.029948	1.882810
119.760801	1529.412806	8.968256	-0.030033	1.884740
119.922347	1532.648710	8.973261	-0.030075	1.886673
119.959339	1535.933247	8.978266	-0.030086	1.888622
120.201247	1539.154761	8.983271	-0.030147	1.890550
120.065537	1542.508714	8.988275	-0.030117	1.892520
120.294084	1545.838740	8.993280	-0.030175	1.894507
120.495484	1549.166654	8.998285	-0.030226	1.896488
120.636885	1552.498974	9.003290	-0.030263	1.898464
120.846625	1555.763468	9.008295	-0.030316	1.900405
120.885359	1559.149352	9.013299	-0.030328	1.902399
121.214743	1562.457986	9.018304	-0.030411	1.904372
121.328200	1565.818699	9.023309	-0.030441	1.906354
121.582237	1569.154036	9.028314	-0.030505	1.908332
121.882719	1572.404850	9.033319	-0.030581	1.910262
122.052088	1575.759149	9.038323	-0.030624	1.912239
122.165172	1579.080013	9.043328	-0.030654	1.914190
122.593298	1582.342765	9.048333	-0.030761	1.916132
122.629852	1585.681728	9.053338	-0.030772	1.918083
122.814594	1588.919021	9.058343	-0.030819	1.919985
122.938635	1592.268783	9.063347	-0.030852	1.921945
123.191580	1595.567492	9.068352	-0.030916	1.923885
123.323467	1598.893404	9.073357	-0.030951	1.925829
123.571016	1602.225049	9.078362	-0.031013	1.927783
123.684617	1605.522280	9.083367	-0.031043	1.929704
123.811325	1608.881827	9.088371	-0.031076	1.931661
123.954575	1612.244511	9.093376	-0.031114	1.933619
124.125754	1615.608103	9.098381	-0.031158	1.935577
124.272293	1619.010490	9.103386	-0.031196	1.937554
124.654423	1622.309498	9.108391	-0.031292	1.939489
124.774048	1625.636427	9.113395	-0.031323	1.941416
124.969286	1629.013234	9.118400	-0.031373	1.943377
125.247269	1632.260059	9.123405	-0.031443	1.945267
125.462296	1635.598075	9.128410	-0.031498	1.947203
125.696181	1638.891234	9.133415	-0.031557	1.949113
125.789762	1642.190024	9.138419	-0.031582	1.951012
125.949245	1645.559445	9.143424	-0.031624	1.952955
126.014971	1648.873309	9.148429	-0.031642	1.954857
126.041947	1652.293165	9.153434	-0.031651	1.956814
126.374503	1655.657491	9.158439	-0.031734	1.958763
126.617144	1658.950170	9.163443	-0.031796	1.960662
126.731049	1662.363009	9.168448	-0.031826	1.962617
127.022924	1665.666008	9.173453	-0.031899	1.964522
127.132854	1669.028037	9.178458	-0.031929	1.966443
127.419160	1672.392624	9.183463	-0.032001	1.968379
127.507228	1675.706247	9.188467	-0.032025	1.970267
127.756379	1679.112226	9.193472	-0.032088	1.972220
127.968242	1682.443083	9.198477	-0.032142	1.974124
128.007583	1685.808992	9.203482	-0.032154	1.976033
128.401810	1689.201600	9.208487	-0.032252	1.977984
128.514447	1692.446143	9.213491	-0.032282	1.979826
128.763590	1695.823662	9.218496	-0.032345	1.981753
129.107342	1699.127771	9.223501	-0.032431	1.983644
129.138972	1702.412495	9.228506	-0.032441	1.985497
129.388968	1705.791753	9.233511	-0.032505	1.987419
129.539705	1709.044469	9.238515	-0.032544	1.989260
129.706755	1712.406576	9.243520	-0.032587	1.991162
129.936261	1715.763920	9.248525	-0.032645	1.993065
130.099519	1719.025874	9.253530	-0.032687	1.994907
130.287289	1722.437611	9.258535	-0.032735	1.996833
130.413998	1725.731280	9.263539	-0.032768	1.998686
130.555222	1729.048837	9.268544	-0.032805	2.000552
130.654714	1732.481895	9.273549	-0.032832	2.002477
130.796872	1735.790864	9.278554	-0.032869	2.004335
131.029803	1739.237369	9.283559	-0.032928	2.006275
131.140730	1742.637475	9.288563	-0.032957	2.008178
131.436877	1745.964753	9.293568	-0.033032	2.010053
131.652445	1749.388161	9.298573	-0.033087	2.011973
131.760329	1752.746756	9.303578	-0.033116	2.013846
132.019893	1756.148692	9.308583	-0.033181	2.015755
132.137137	1759.559948	9.313587	-0.033212	2.017655
132.364774	1762.866215	9.318592	-0.033270	2.019504
132.586989	1766.296916	9.323597	-0.033327	2.021419
132.798251	1769.621765	9.328602	-0.033381	2.023274
132.954963	1772.989308	9.333607	-0.033421	2.025146
133.260054	1776.351289	9.338611	-0.033498	2.027025
133.399338	1779.670475	9.343616	-0.033534	2.028865
133.775731	1782.992492	9.348621	-0.033628	2.030724
133.967482	1786.318790	9.353626	-0.033677	2.032569
134.107420	1789.594845	9.358631	-0.033714	2.034381
134.230570	1792.969566	9.363635	-0.033746	2.036244
134.417242	1796.284749	9.368640	-0.033794	2.038078
134.690131	1799.539276	9.373645	-0.033863	2.039883
134.637888	1802.933680	9.378650	-0.033852	2.041738
134.880450	1806.277622	9.383655	-0.033914	2.043587
134.934068	1809.656683	9.388659	-0.033929	2.045438
135.111306	1813.099705	9.393664	-0.033975	2.047332
135.087932	1816.487758	9.398669	-0.033972	2.049179
135.192904	1819.986214	9.403674	-0.034000	2.051094
135.426797	1823.472364	9.408679	-0.034059	2.053011
135.664714	1826.889809	9.413683	-0.034120	2.054889
135.852315	1830.384022	9.418688	-0.034168	2.056803
136.114904	1833.758397	9.423693	-0.034234	2.058656
136.334770	1837.152365	9.428698	-0.034290	2.060515
136.589783	1840.612434	9.433703	-0.034355	2.062411
136.820360	1843.906548	9.438707	-0.034413	2.064213
136.950234	1847.355055	9.443712	-0.034447	2.066089
137.294237	1850.730869	9.448717	-0.034534	2.067940
137.391731	1854.061091	9.453722	-0.034560	2.069747
137.597290	1857.507349	9.458727	-0.034612	2.071623
137.710716	1860.889386	9.463731	-0.034642	2.073455
137.893783	1864.294410	9.468736	-0.034689	2.075303
138.059078	1867.766275	9.473741	-0.034732	2.077185
138.330360	1871.006752	9.478746	-0.034801	2.078948
138.585786	1874.462165	9.483751	-0.034865	2.080824
138.673733	1877.852298	9.488755	-0.034889	2.082650
138.971815	1881.180147	9.493760	-0.034964	2.084458
139.291361	1884.569725	9.498765	-0.035045	2.086298
139.351919	1887.892858	9.503770	-0.035062	2.088082
139.509393	1891.276677	9.508775	-0.035102	2.089904
139.551810	1894.724751	9.513779	-0.035115	2.091750
139.769524	1898.110488	9.518784	-0.035170	2.093575
139.818865	1901.576858	9.523789	-0.035185	2.095428
139.926655	1905.053895	9.528794	-0.035214	2.097289
140.118182	1908.426373	9.533799	-0.035263	2.099100
140.332253	1911.928961	9.538803	-0.035317	2.100979
140.397053	1915.393475	9.543808	-0.035335	2.102826
140.756200	1918.820860	9.548813	-0.035426	2.104673
140.976645	1922.266734	9.553818	-0.035482	2.106518
141.192433	1925.655387	9.558823	-0.035537	2.108331
141.186657	1929.119666	9.563827	-0.035538	2.110166
141.374539	1932.640658	9.568832	-0.035586	2.112044
141.671781	1936.034654	9.573837	-0.035661	2.113860
141.875581	1939.492032	9.578842	-0.035713	2.115702
142.163569	1942.923557	9.583847	-0.035786	2.117535
142.335316	1946.246192	9.588851	-0.035830	2.119300
142.533178	1949.713203	9.593856	-0.035881	2.121142
142.722559	1953.130792	9.598861	-0.035929	2.122955
142.928350	1956.493566	9.603866	-0.035982	2.124740
143.080246	1959.983203	9.608871	-0.036021	2.126585
143.084538	1963.362965	9.613875	-0.036024	2.128360
143.246153	1966.860850	9.618880	-0.036066	2.130208
143.522832	1970.377993	9.623885	-0.036136	2.132072
143.704304	1973.744883	9.628890	-0.036183	2.133849
143.966369	1977.265461	9.633895	-0.036249	2.135710
144.061792	1980.683010	9.638899	-0.036275	2.137504
144.343922	1984.028256	9.643904	-0.036346	2.139273
144.584949	1987.508886	9.648909	-0.036407	2.141107
144.735321	1990.894356	9.653914	-0.036446	2.142884
144.813845	1994.352851	9.658919	-0.036468	2.144692
144.962252	1997.847813	9.663923	-0.036506	2.146523
145.217170	2001.206227	9.668928	-0.036571	2.148288
145.463072	2004.682579	9.673933	-0.036633	2.150113
145.626553	2008.132445	9.678938	-0.036676	2.151917
145.699795	2011.563996	9.683943	-0.036696	2.153703
145.845376	2015.089945	9.688947	-0.036734	2.155541
146.117928	2018.512251	9.693952	-0.036803	2.157334
146.246263	2021.926859	9.698957	-0.036836	2.159111
146.314471	2025.445276	9.703962	-0.036856	2.160935
146.658175	2028.917364	9.708967	-0.036942	2.162754
146.796922	2032.363153	9.713971	-0.036978	2.164543
147.039155	2035.865142	9.718976	-0.037040	2.166367
147.302623	2039.263339	9.723981	-0.037106	2.168137
147.467943	2042.702397	9.728986	-0.037149	2.169920
147.668560	2046.214151	9.733991	-0.037200	2.171742
147.760538	2049.625332	9.738995	-0.037225	2.173502
148.029463	2053.104183	9.744000	-0.037293	2.175308
148.155978	2056.602414	9.749005	-0.037326	2.177113
148.252230	2059.992330	9.754010	-0.037352	2.178859
148.571851	2063.504145	9.759015	-0.037433	2.180681
148.795908	2066.919185	9.764019	-0.037490	2.182445
148.963064	2070.320694	9.769024	-0.037533	2.184197
149.131052	2073.841249	9.774029	-0.037576	2.186009
149.194375	2077.223099	9.779034	-0.037594	2.187741
149.394591	2080.697967	9.784039	-0.037645	2.189528
149.597780	2084.241780	9.789043	-0.037697	2.191350
149.770493	2087.651464	9.794048	-0.037742	2.193099
150.127024	2091.134084	9.799053	-0.037831	2.194897
150.281244	2094.582920	9.804058	-0.037871	2.196662
150.490647	2097.905151	9.809063	-0.037925	2.198365
150.540751	2101.411744	9.814067	-0.037939	2.200150
150.835697	2104.867493	9.819072	-0.038014	2.201924
151.028705	2108.280146	9.824077	-0.038063	2.203668
151.073112	2111.761536	9.829082	-0.038076	2.205435
151.416631	2115.218352	9.834087	-0.038163	2.207208
151.623364	2118.597088	9.839091	-0.038215	2.208932
151.720329	2122.057873	9.844096	-0.038242	2.210688
151.896936	2125.549680	9.849101	-0.038287	2.212463
151.983660	2128.979384	9.854106	-0.038311	2.214200
152.290753	2132.487490	9.859111	-0.038388	2.215990
152.523891	2135.859073	9.864115	-0.038447	2.217704
152.760388	2139.245912	9.869120	-0.038507	2.219426
152.976115	2142.738497	9.874125	-0.038562	2.221197
153.120573	2146.053054	9.879130	-0.038600	2.222873
153.490603	2149.476440	9.884135	-0.038693	2.224617
153.578499	2152.925117	9.889139	-0.038716	2.226354
153.787095	2156.201891	9.894144	-0.038770	2.228012
153.766420	2159.715893	9.899149	-0.038767	2.229771
153.915416	2163.172908	9.904154	-0.038806	2.231512
154.026718	2166.633015	9.909159	-0.038835	2.233251
154.158980	2170.177394	9.914163	-0.038870	2.235031
154.286257	2173.622772	9.919168	-0.038903	2.236761
154.307248	2177.151007	9.924173	-0.038911	2.238524
154.583525	2180.700376	9.929178	-0.038981	2.240312
154.796423	2184.232260	9.934183	-0.039035	2.242086
154.941753	2187.738032	9.939187	-0.039073	2.243842
155.202869	2191.293377	9.944192	-0.039139	2.245628
155.444726	2194.773779	9.949197	-0.039201	2.247374
155.606243	2198.246855	9.954202	-0.039242	2.249110
156.014858	2201.765779	9.959207	-0.039345	2.250884
156.083675	2205.194641	9.964211	-0.039364	2.252589
156.186175	2208.719344	9.969216	-0.039391	2.254343
156.468733	2212.254267	9.974221	-0.039463	2.256112
156.586485	2215.648752	9.979226	-0.039494	2.257799
156.720550	2219.204406	9.984231	-0.039529	2.259566
156.908951	2222.715588	9.989235	-0.039577	2.261313
157.077132	2226.124662	9.994240	-0.039621	2.263007
157.329854	2229.689823	9.999245	-0.039685	2.264782
157.488524	2233.184369	10.004250	-0.039726	2.266515
157.650270	2236.616560	10.009255	-0.039768	2.268216
157.927015	2240.155897	10.014259	-0.039838	2.269976
158.085645	2243.619567	10.019264	-0.039879	2.271690
158.358385	2247.059827	10.024269	-0.039948	2.273398
158.477256	2250.567422	10.029274	-0.039979	2.275128
158.722272	2254.011892	10.034279	-0.040041	2.276834
158.849114	2257.431790	10.039283	-0.040075	2.278519
159.079165	2260.910895	10.044288	-0.040133	2.280238
159.365382	2264.364632	10.049293	-0.040205	2.281947
159.378497	2267.779414	10.054298	-0.040211	2.283619
159.570854	2271.340730	10.059303	-0.040260	2.285372
159.567574	2274.811710	10.064307	-0.040262	2.287067
159.638361	2278.366806	10.069312	-0.040282	2.288807
160.018581	2281.939150	10.074317	-0.040377	2.290573
160.088164	2285.420465	10.079322	-0.040396	2.292274
160.325120	2288.976294	10.084327	-0.040457	2.294021
160.435864	2292.570530	10.089331	-0.040486	2.295777
160.537981	2296.000066	10.094336	-0.040513	2.297451
160.861691	2299.602377	10.099341	-0.040595	2.299222
161.167430	2303.140416	10.104346	-0.040672	2.300959
161.475283	2306.517109	10.109351	-0.040749	2.302616
161.720119	2310.037501	10.114355	-0.040812	2.304338
161.988459	2313.459568	10.119360	-0.040880	2.306012
162.252827	2316.788260	10.124365	-0.040946	2.307640
162.256528	2320.278875	10.129370	-0.040950	2.309329
162.523355	2323.754636	10.134375	-0.041017	2.311026
162.722873	2327.122071	10.139379	-0.041068	2.312664
162.924114	2330.573907	10.144384	-0.041120	2.314343
163.004072	2334.050692	10.149389	-0.041142	2.316025
163.203318	2337.374420	10.154394	-0.041192	2.317639
163.366500	2340.879259	10.159399	-0.041235	2.319337
163.371566	2344.398225	10.164403	-0.041238	2.321031
163.642071	2347.807183	10.169408	-0.041307	2.322687
163.789615	2351.351695	10.174413	-0.041345	2.324399
163.859637	2354.867482	10.179418	-0.041365	2.326092
164.020499	2358.291260	10.184423	-0.041406	2.327745

164.222273	2361.772540	10.189427	-0.041458	2.329427
164.336369	2365.177962	10.194432	-0.041488	2.331065
164.506298	2368.507930	10.199437	-0.041532	2.332670
164.753802	2371.824155	10.204442	-0.041595	2.334272
164.813498	2375.148676	10.209447	-0.041611	2.335865
164.961741	2378.287105	10.214451	-0.041650	2.337374
165.194638	2381.483546	10.219456	-0.041709	2.338915
165.332847	2384.670626	10.224461	-0.041745	2.340444
165.621134	2387.624030	10.229466	-0.041817	2.341870
165.746821	2390.677903	10.234471	-0.041850	2.343333
165.951822	2393.673180	10.239475	-0.041902	2.344772
166.135970	2396.571304	10.244480	-0.041949	2.346163
166.523005	2399.304709	10.249485	-0.042045	2.347487
166.639028	2402.107528	10.254490	-0.042075	2.348826
166.714074	2404.913542	10.259495	-0.042096	2.350164
167.049082	2407.542684	10.264499	-0.042179	2.351433
167.236518	2410.091959	10.269504	-0.042227	2.352654
167.516796	2412.691766	10.274509	-0.042297	2.353904
167.434758	2415.217869	10.279514	-0.042279	2.355097
167.633347	2417.700966	10.284519	-0.042329	2.356286
167.657076	2420.109494	10.289523	-0.042336	2.357428
167.769572	2422.579907	10.294528	-0.042365	2.358605
167.993720	2424.999914	10.299533	-0.042422	2.359763
167.859730	2427.447384	10.304538	-0.042391	2.360913
167.902792	2429.798467	10.309543	-0.042403	2.362027
168.052760	2432.163008	10.314547	-0.042441	2.363153
168.063018	2434.597489	10.319552	-0.042445	2.364304
168.152127	2436.997795	10.324557	-0.042468	2.365442
168.321476	2439.212848	10.329562	-0.042511	2.366497
168.700033	2441.396404	10.334567	-0.042605	2.367550
168.884571	2443.623196	10.339571	-0.042652	2.368610
169.062911	2445.711978	10.344576	-0.042697	2.369605
169.340024	2447.781679	10.349581	-0.042766	2.370597
169.422455	2449.686651	10.354586	-0.042787	2.371498
169.648557	2451.642725	10.359591	-0.042843	2.372432
169.761933	2453.578854	10.364595	-0.042872	2.373350
169.834043	2455.434925	10.369600	-0.042891	2.374227
169.904499	2457.345037	10.374605	-0.042910	2.375129
169.896106	2459.191976	10.379610	-0.042909	2.375996
169.908116	2460.946312	10.384615	-0.042913	2.376821
170.082877	2462.758087	10.389619	-0.042957	2.377682
169.923815	2464.618823	10.394624	-0.042919	2.378547
170.049621	2466.488954	10.399629	-0.042951	2.379431
170.028089	2468.326237	10.404634	-0.042947	2.380292
170.302981	2470.060343	10.409639	-0.043015	2.381121
170.213223	2471.750895	10.414643	-0.042994	2.381908
170.349476	2473.523149	10.419648	-0.043029	2.382747
170.578332	2475.224869	10.424653	-0.043086	2.383557
170.716276	2476.885494	10.429658	-0.043121	2.384343
170.897872	2478.453881	10.434663	-0.043166	2.385088
171.000922	2480.081581	10.439667	-0.043192	2.385855
171.299655	2481.388177	10.444672	-0.043266	2.386484
171.452818	2482.864103	10.449677	-0.043304	2.387183
171.515965	2484.234454	10.454682	-0.043321	2.387828
171.751082	2485.646634	10.459687	-0.043379	2.388501
171.645605	2486.988234	10.464691	-0.043354	2.389122
171.526927	2488.369235	10.469696	-0.043326	2.389760
171.485824	2489.815515	10.474701	-0.043317	2.390434
171.419064	2491.241638	10.479706	-0.043301	2.391096
171.354269	2492.634126	10.484711	-0.043286	2.391742
171.327785	2494.096171	10.489715	-0.043281	2.392423
171.535997	2495.508827	10.494720	-0.043333	2.393094
171.587005	2496.941359	10.499725	-0.043346	2.393765
171.684075	2498.290252	10.504730	-0.043370	2.394399
171.955185	2499.610957	10.509735	-0.043438	2.395031
172.019640	2500.912366	10.514739	-0.043454	2.395641
172.259811	2501.965550	10.519744	-0.043513	2.396145
172.532555	2503.025676	10.524749	-0.043581	2.396655
172.721735	2504.181857	10.529754	-0.043628	2.397204
173.004989	2505.070541	10.534759	-0.043697	2.397634
173.200755	2506.124469	10.539763	-0.043746	2.398136
173.345505	2506.942092	10.544768	-0.043782	2.398525
173.354390	2507.812187	10.549773	-0.043784	2.398930
173.174435	2508.798338	10.554778	-0.043741	2.399379
173.236054	2509.662904	10.559783	-0.043756	2.399784
173.145755	2510.631279	10.564787	-0.043735	2.400230
172.990262	2511.636401	10.569792	-0.043698	2.400688
172.951377	2512.527938	10.574797	-0.043689	2.401100
172.902008	2513.509912	10.579802	-0.043677	2.401554
173.018488	2514.458192	10.584807	-0.043706	2.402001
172.955826	2515.500626	10.589811	-0.043691	2.402482
172.848003	2516.446339	10.594816	-0.043666	2.402915
173.095151	2517.554855	10.599821	-0.043727	2.403444
173.069130	2518.382291	10.604826	-0.043721	2.403827
173.219410	2519.417448	10.609831	-0.043758	2.404316
173.384823	2520.294259	10.614835	-0.043799	2.404733
173.404731	2521.070412	10.619840	-0.043804	2.405094
173.498335	2522.027675	10.624845	-0.043828	2.405544
173.494558	2522.850745	10.629850	-0.043827	2.405925
173.764883	2523.498909	10.634855	-0.043894	2.406242
173.846794	2524.233609	10.639859	-0.043914	2.406587
173.937480	2524.943781	10.644864	-0.043937	2.406921
174.274991	2525.618668	10.649869	-0.044019	2.407254
174.183272	2526.188515	10.654874	-0.043997	2.407513
174.353618	2526.799956	10.659879	-0.044039	2.407806
174.436165	2527.373775	10.664883	-0.044060	2.408076
174.256524	2527.993343	10.669888	-0.044016	2.408353
174.251259	2528.603345	10.674893	-0.044015	2.408636
174.156580	2529.230125	10.679898	-0.043992	2.408921
174.145834	2529.905629	10.684903	-0.043990	2.409233
174.152864	2530.599255	10.689907	-0.043992	2.409555
174.055582	2531.214788	10.694912	-0.043969	2.409834
174.070209	2531.915405	10.699917	-0.043973	2.410160
174.113017	2532.571197	10.704922	-0.043984	2.410466
174.398796	2533.249856	10.709927	-0.044054	2.410796
174.481898	2533.725557	10.714931	-0.044074	2.411021
174.459671	2534.180843	10.719936	-0.044069	2.411231
174.528253	2534.713048	10.724941	-0.044086	2.411481
174.571974	2535.181580	10.729946	-0.044097	2.411700
174.686624	2535.872850	10.734951	-0.044125	2.412027
174.677882	2536.297662	10.739955	-0.044123	2.412223
174.751151	2536.642281	10.744960	-0.044141	2.412386
174.883523	2537.198651	10.749965	-0.044174	2.412651
174.770987	2537.669701	10.754970	-0.044147	2.412863
174.804851	2538.022623	10.759975	-0.044155	2.413028
174.812505	2538.594096	10.764979	-0.044157	2.413293
174.899588	2539.008064	10.769984	-0.044179	2.413489
175.046952	2539.251652	10.774989	-0.044215	2.413610
174.994154	2539.884010	10.779994	-0.044202	2.413899
175.040616	2540.109285	10.784999	-0.044214	2.414006
175.109048	2540.579690	10.790003	-0.044231	2.414228
175.078142	2540.919480	10.795008	-0.044223	2.414383
175.279089	2541.274796	10.800013	-0.044272	2.414559
175.141567	2541.618233	10.805018	-0.044239	2.414709
175.153921	2541.914970	10.810023	-0.044242	2.414847
175.197202	2542.366335	10.815027	-0.044253	2.415058
175.199649	2542.599141	10.820032	-0.044253	2.415166
175.184268	2543.062140	10.825037	-0.044250	2.415379
175.196512	2543.293439	10.830042	-0.044253	2.415487
175.392524	2543.708330	10.835047	-0.044301	2.415689
175.369980	2544.018583	10.840051	-0.044296	2.415832
175.303292	2544.115321	10.845056	-0.044279	2.415872
175.470937	2544.480711	10.850061	-0.044320	2.416051
175.536150	2544.456909	10.855066	-0.044336	2.416043
175.453920	2544.894129	10.860071	-0.044316	2.416241
175.518285	2545.155972	10.865075	-0.044332	2.416365
175.621312	2545.118756	10.870080	-0.044357	2.416354
175.682503	2545.628045	10.875085	-0.044372	2.416593
175.652811	2545.793621	10.880090	-0.044365	2.416667
175.566541	2545.806598	10.885095	-0.044344	2.416668
175.648514	2546.233982	10.890099	-0.044364	2.416870
175.616136	2546.492858	10.895104	-0.044356	2.416988
175.675218	2546.504281	10.900109	-0.044371	2.416997
175.709972	2546.670452	10.905114	-0.044379	2.417075
175.894671	2547.103268	10.910119	-0.044424	2.417286
175.821595	2547.124095	10.915123	-0.044406	2.417291
175.805518	2547.090623	10.920128	-0.044402	2.417275
175.762519	2547.135493	10.925133	-0.044392	2.417293
175.772093	2547.750699	10.930138	-0.044394	2.417578
175.899576	2547.782843	10.935143	-0.044425	2.417600
175.818470	2547.804989	10.940147	-0.044406	2.417605
175.777098	2547.791510	10.945152	-0.044395	2.417597
175.908037	2548.236076	10.950157	-0.044428	2.417809
175.929170	2548.465854	10.955162	-0.044433	2.417916
175.960454	2548.472232	10.960167	-0.044440	2.417921
176.046872	2548.468827	10.965171	-0.044461	2.417924
176.143852	2548.430654	10.970176	-0.044485	2.417912
176.104778	2548.464570	10.975181	-0.044475	2.417926
176.040342	2548.452554	10.980186	-0.044459	2.417916
175.904100	2548.878105	10.985191	-0.044426	2.418105
176.008697	2549.187669	10.990195	-0.044452	2.418254
176.000229	2549.173882	10.995200	-0.044450	2.418247
175.944321	2549.202080	11.000205	-0.044436	2.418257
175.942427	2549.179710	11.005210	-0.044435	2.418246
175.923315	2549.201382	11.010215	-0.044431	2.418255
175.961744	2549.786928	11.015219	-0.044440	2.418528
175.990220	2549.825786	11.020224	-0.044447	2.418547
176.033418	2549.854727	11.025229	-0.044458	2.418563
176.002450	2549.833879	11.030234	-0.044450	2.418552
176.092391	2549.827004	11.035239	-0.044472	2.418553
176.171127	2549.835367	11.040243	-0.044491	2.418562
176.284293	2549.785404	11.045248	-0.044518	2.418545
176.339396	2549.812552	11.050253	-0.044532	2.418561
176.230149	2549.796872	11.055258	-0.044505	2.418547
176.278782	2549.803840	11.060263	-0.044517	2.418553
176.374338	2549.802030	11.065267	-0.044540	2.418558
176.361295	2549.768843	11.070272	-0.044537	2.418542
176.391166	2549.808208	11.075277	-0.044544	2.418561
176.284910	2549.800619	11.080282	-0.044518	2.418552
176.231045	2549.806245	11.085287	-0.044504	2.418551
176.245632	2549.821771	11.090291	-0.044508	2.418559
176.153176	2550.356412	11.095296	-0.044486	2.418801
176.228996	2550.503153	11.100301	-0.044504	2.418873
176.156267	2550.493830	11.105306	-0.044486	2.418864
176.373681	2550.475104	11.110311	-0.044539	2.418868
176.410614	2550.482151	11.115315	-0.044548	2.418873
176.325510	2550.464530	11.120320	-0.044527	2.418860
176.480770	2550.474033	11.125325	-0.044565	2.418873
176.399087	2550.454303	11.130330	-0.044545	2.418860
176.529081	2550.446596	11.135335	-0.044577	2.418863
176.431530	2550.390918	11.140339	-0.044553	2.418832
176.520746	2549.759702	11.145344	-0.044574	2.418546
176.510279	2549.788098	11.150349	-0.044571	2.418558
176.399714	2549.772241	11.155354	-0.044544	2.418545
176.407189	2549.775783	11.160359	-0.044546	2.418547
176.368876	2549.795406	11.165363	-0.044536	2.418554
176.342351	2549.777397	11.170368	-0.044530	2.418544
176.436513	2549.788610	11.175373	-0.044553	2.418554
176.328392	2549.783616	11.180378	-0.044526	2.418546
176.610538	2549.756636	11.185383	-0.044595	2.418549
176.615704	2549.778387	11.190387	-0.044596	2.418560
176.502547	2549.768258	11.195392	-0.044568	2.418549
176.683825	2549.763075	11.200397	-0.044612	2.418556
176.774817	2549.737807	11.205402	-0.044634	2.418550
176.788710	2549.469637	11.210407	-0.044638	2.418427
176.760893	2549.098690	11.215411	-0.044630	2.418254
176.700783	2549.088847	11.220416	-0.044616	2.418246
176.744250	2549.107943	11.225421	-0.044626	2.418257
176.566529	2549.110446	11.230426	-0.044583	2.418248
176.603111	2549.107386	11.235431	-0.044591	2.418249
176.639841	2549.115807	11.240435	-0.044600	2.418255
176.734539	2548.700829	11.245440	-0.044623	2.418069
176.653670	2548.400336	11.250445	-0.044603	2.417925
176.582034	2548.392582	11.255450	-0.044585	2.417918
176.579114	2548.400436	11.260455	-0.044584	2.417921
176.560015	2548.417370	11.265459	-0.044580	2.417928
176.417244	2548.409182	11.270464	-0.044545	2.417916
176.392037	2548.439712	11.275469	-0.044538	2.417929
176.498300	2548.401756	11.280474	-0.044564	2.417917
176.483792	2548.419143	11.285479	-0.044561	2.417924
176.550348	2548.414447	11.290483	-0.044577	2.417926
176.466726	2548.409173	11.295488	-0.044556	2.417919
176.558430	2548.420677	11.300493	-0.044578	2.417929
176.591745	2548.374393	11.305498	-0.044586	2.417910
176.738372	2547.684318	11.310503	-0.044622	2.417599
176.835339	2547.691792	11.315507	-0.044645	2.417608
176.777465	2547.668497	11.320512	-0.044631	2.417594
176.741948	2547.701637	11.325517	-0.044622	2.417607
176.721455	2547.682900	11.330522	-0.044617	2.417598
176.778321	2547.370699	11.335527	-0.044631	2.417457
176.689301	2547.009755	11.340531	-0.044608	2.417285
176.527462	2547.008982	11.345536	-0.044569	2.417275
176.644894	2547.030177	11.350541	-0.044597	2.417292
176.578872	2547.014306	11.355546	-0.044581	2.417281
176.622898	2547.005600	11.360551	-0.044592	2.417279
176.680422	2547.031079	11.365555	-0.044606	2.417294
176.713087	2546.988265	11.370560	-0.044614	2.417276
176.771822	2546.561617	11.375565	-0.044627	2.417083
176.773615	2546.362354	11.380570	-0.044628	2.416991
176.763366	2546.363666	11.385575	-0.044625	2.416991
176.746146	2546.380027	11.390579	-0.044621	2.416997
176.687637	2546.355467	11.395584	-0.044606	2.416982
176.887028	2546.245281	11.400589	-0.044655	2.416943
176.706984	2545.657947	11.405594	-0.044610	2.416661
176.818268	2545.637295	11.410599	-0.044637	2.416658
176.857030	2545.661002	11.415603	-0.044647	2.416671
176.734685	2545.645270	11.420608	-0.044617	2.416657
176.811099	2545.669779	11.425613	-0.044635	2.416673
176.697472	2545.036880	11.430618	-0.044607	2.416374
176.688144	2544.989416	11.435623	-0.044605	2.416351
176.784006	2544.999375	11.440627	-0.044628	2.416361
176.739831	2544.968002	11.445632	-0.044617	2.416344
176.818067	2544.983496	11.450637	-0.044636	2.416356
176.842178	2544.744391	11.455642	-0.044642	2.416247
176.783087	2544.293814	11.460647	-0.044627	2.416035
176.806372	2544.318393	11.465651	-0.044632	2.416048
176.799100	2544.291634	11.470656	-0.044630	2.416035
176.975930	2544.298776	11.475661	-0.044673	2.416048
176.961661	2543.930596	11.480666	-0.044670	2.415877
177.116834	2543.784289	11.485671	-0.044707	2.415819
177.040146	2543.818396	11.490675	-0.044688	2.415830
176.987443	2543.595160	11.495680	-0.044675	2.415724
177.012771	2543.087731	11.500685	-0.044681	2.415491
176.907134	2543.093962	11.505690	-0.044655	2.415488
176.828794	2543.098542	11.510695	-0.044636	2.415485
176.812344	2542.938802	11.515699	-0.044632	2.415411
176.529113	2542.429356	11.520704	-0.044562	2.415159
176.518453	2542.462470	11.525709	-0.044559	2.415174
176.484166	2542.449837	11.530714	-0.044551	2.415166
176.624252	2542.425316	11.535719	-0.044585	2.415162
176.509104	2542.461425	11.540723	-0.044557	2.415173
176.533500	2542.433502	11.545728	-0.044562	2.415161
176.657114	2542.443423	11.550733	-0.044592	2.415173
176.601076	2542.434128	11.555738	-0.044579	2.415165
176.611489	2542.429534	11.560743	-0.044581	2.415164
176.832814	2541.964090	11.565747	-0.044635	2.414961
176.747167	2541.713903	11.570752	-0.044613	2.414840
176.894012	2541.726715	11.575757	-0.044649	2.414855
176.884868	2541.705266	11.580762	-0.044647	2.414844
176.973112	2541.629676	11.585767	-0.044668	2.414814
176.966960	2541.071923	11.590771	-0.044666	2.414556
177.037363	2541.041748	11.595776	-0.044683	2.414546
177.149886	2541.062134	11.600781	-0.044711	2.414562
177.061680	2540.468902	11.605786	-0.044689	2.414283
177.075073	2540.338340	11.610791	-0.044692	2.414223
177.024486	2540.363164	11.615795	-0.044679	2.414231
176.908451	2540.030687	11.620800	-0.044651	2.414071
177.030504	2539.670084	11.625805	-0.044680	2.413911
176.883096	2539.684486	11.630810	-0.044644	2.413910
176.861844	2539.679720	11.635815	-0.044639	2.413906
176.912629	2539.419354	11.640819	-0.044651	2.413789
176.857458	2538.994088	11.645824	-0.044637	2.413589
176.867537	2539.028692	11.650829	-0.044639	2.413605
176.804800	2539.016183	11.655834	-0.044624	2.413596
176.820710	2539.015980	11.660839	-0.044627	2.413597
176.780525	2538.683084	11.665843	-0.044617	2.413441
176.819848	2538.347893	11.670848	-0.044627	2.413288
176.789811	2538.377620	11.675853	-0.044619	2.413300
176.802274	2538.368051	11.680858	-0.044622	2.413296
176.787219	2538.360842	11.685863	-0.044618	2.413292
177.031467	2537.860165	11.690867	-0.044677	2.413074
176.895457	2537.627162	11.695872	-0.044644	2.412958
177.028062	2537.634929	11.700877	-0.044676	2.412970
177.079316	2537.495071	11.705882	-0.044689	2.412908
176.983064	2536.936318	11.710887	-0.044664	2.412644
177.030412	2536.952505	11.715891	-0.044676	2.412654
177.066171	2536.916800	11.720896	-0.044685	2.412639
176.975646	2536.379677	11.725901	-0.044662	2.412386
177.027847	2536.250867	11.730906	-0.044674	2.412329
177.014661	2536.246132	11.735911	-0.044671	2.412326
177.003890	2536.049138	11.740915	-0.044668	2.412234
176.743578	2535.636488	11.745920	-0.044604	2.412029
176.775867	2535.661598	11.750925	-0.044612	2.412042
176.855865	2535.641053	11.755930	-0.044631	2.412037
176.889700	2535.628530	11.760935	-0.044640	2.412033
176.889648	2535.239326	11.765939	-0.044639	2.411853
176.795191	2534.922103	11.770944	-0.044616	2.411701
176.779689	2534.951720	11.775949	-0.044612	2.411714
176.841653	2534.940132	11.780954	-0.044627	2.411712
176.865631	2534.925445	11.785959	-0.044633	2.411706
176.803080	2534.483928	11.790963	-0.044617	2.411498
176.798240	2534.258622	11.795968	-0.044615	2.411394
176.812913	2534.278801	11.800973	-0.044619	2.411404
176.656254	2534.288631	11.805978	-0.044581	2.411400
176.693645	2534.261846	11.810983	-0.044590	2.411389
176.721900	2534.287104	11.815987	-0.044596	2.411402
176.845511	2533.637009	11.820992	-0.044626	2.411109
176.889566	2533.597605	11.825997	-0.044637	2.411093
176.996353	2533.572088	11.831002	-0.044663	2.411087
176.989474	2533.554107	11.836007	-0.044661	2.411078
176.999138	2533.043494	11.841011	-0.044663	2.410842
176.974959	2533.001676	11.846016	-0.044657	2.410822
177.026955	2533.019294	11.851021	-0.044669	2.410833
177.000488	2532.726913	11.856026	-0.044662	2.410696
176.926489	2532.288003	11.861031	-0.044644	2.410488
176.969469	2532.309419	11.866035	-0.044654	2.410501
176.758901	2532.299582	11.871040	-0.044603	2.410484
176.832943	2532.177959	11.876045	-0.044621	2.410432
176.784765	2531.619978	11.881050	-0.044608	2.410171
176.765780	2531.625400	11.886055	-0.044604	2.410172
176.716519	2531.647347	11.891059	-0.044591	2.410180
176.689512	2531.623754	11.896064	-0.044585	2.410167
176.921178	2531.626728	11.901069	-0.044641	2.410182
176.864548	2531.105569	11.906074	-0.044627	2.409937
176.809667	2530.924299	11.911079	-0.044613	2.409850
177.027926	2530.924192	11.916083	-0.044666	2.409862
176.918717	2530.916086	11.921088	-0.044640	2.409852
176.841014	2530.528679	11.926093	-0.044620	2.409668
176.760566	2530.310131	11.931098	-0.044600	2.409563
176.685292	2530.304266	11.936103	-0.044582	2.409556
176.699824	2530.324782	11.941107	-0.044585	2.409566
176.562703	2530.309998	11.946112	-0.044552	2.409551
176.769021	2530.310338	11.951117	-0.044602	2.409563
176.636779	2530.327305	11.956122	-0.044569	2.409563
176.551022	2529.632968	11.961127	-0.044548	2.409237
176.593660	2529.634867	11.966131	-0.044558	2.409240
176.613190	2529.605236	11.971136	-0.044563	2.409227
176.636748	2529.632052	11.976141	-0.044569	2.409241
176.760204	2529.606844	11.981146	-0.044599	2.409236
176.721712	2529.585011	11.986151	-0.044589	2.409224
176.787495	2529.619446	11.991155	-0.044605	2.409244
176.843329	2529.098501	11.996160	-0.044618	2.409006
176.907108	2528.908462	12.001165	-0.044633	2.408921
176.909870	2528.912224	12.006170	-0.044634	2.408923
176.979061	2528.879866	12.011175	-0.044651	2.408912
177.063204	2528.442086	12.016179	-0.044671	2.408714
176.978607	2528.208309	12.021184	-0.044650	2.408601
177.063989	2528.211018	12.026189	-0.044671	2.408607
176.938698	2528.006504	12.031194	-0.044640	2.408505
176.836776	2527.564706	12.036199	-0.044615	2.408294
176.913495	2527.580265	12.041203	-0.044633	2.408306
176.761778	2527.579425	12.046208	-0.044596	2.408297
176.769417	2527.595049	12.051213	-0.044598	2.408304
176.642823	2527.103113	12.056218	-0.044566	2.408069
176.662339	2526.878506	12.061223	-0.044571	2.407966
176.649332	2526.901716	12.066227	-0.044568	2.407976
176.708641	2526.868893	12.071232	-0.044582	2.407964
176.752937	2526.884389	12.076237	-0.044593	2.407974
176.767980	2526.866434	12.081242	-0.044596	2.407966
176.895000	2526.617514	12.086247	-0.044627	2.407858
176.894679	2526.190296	12.091251	-0.044626	2.407660
176.887467	2526.156558	12.096256	-0.044625	2.407644
176.884541	2526.173476	12.101261	-0.044624	2.407652
176.919466	2526.074288	12.106266	-0.044632	2.407608
176.969364	2525.465868	12.111271	-0.044644	2.407328
177.068844	2525.467504	12.116275	-0.044668	2.407335
176.786571	2525.474647	12.121280	-0.044599	2.407322
176.853696	2525.356028	12.126285	-0.044615	2.407271
176.583581	2524.881622	12.131290	-0.044549	2.407035
176.557952	2524.864633	12.136295	-0.044542	2.407026
176.660208	2524.893528	12.141299	-0.044567	2.407045
176.576862	2524.868822	12.146304	-0.044547	2.407029
176.645029	2524.886758	12.151309	-0.044563	2.407041
176.762171	2524.870061	12.156314	-0.044592	2.407040
176.718340	2524.850934	12.161319	-0.044581	2.407029
176.893118	2524.319535	12.166323	-0.044623	2.406792
176.889300	2524.141331	12.171328	-0.044622	2.406709
176.994589	2524.149987	12.176333	-0.044647	2.406719
176.935308	2524.150602	12.181338	-0.044633	2.406716
176.834693	2523.602305	12.186343	-0.044608	2.406456
176.865620	2523.504663	12.191347	-0.044615	2.406413
176.747255	2523.479900	12.196352	-0.044586	2.406394
176.739327	2523.500453	12.201357	-0.044584	2.406403
176.731733	2523.508850	12.206362	-0.044582	2.406407
176.635258	2523.343416	12.211367	-0.044558	2.406325
176.574861	2522.868338	12.216371	-0.044543	2.406101
176.676492	2522.830324	12.221376	-0.044568	2.406089
176.642079	2522.854468	12.226381	-0.044559	2.406098
176.658855	2522.845061	12.231386	-0.044563	2.406095
176.815527	2522.808354	12.236391	-0.044601	2.406087
176.888000	2522.828439	12.241395	-0.044619	2.406100
176.975612	2522.351014	12.246400	-0.044640	2.405883
177.258046	2522.259135	12.251405	-0.044709	2.405857
177.047121	2522.296576	12.256410	-0.044657	2.405862
176.991725	2521.748974	12.261415	-0.044643	2.405605
177.111133	2521.577568	12.266419	-0.044672	2.405532
176.996478	2521.567845	12.271424	-0.044644	2.405521
176.957535	2521.350324	12.276429	-0.044634	2.405418
176.944831	2520.897142	12.281434	-0.044631	2.405207
176.989300	2520.866501	12.286439	-0.044641	2.405195
176.877664	2520.910569	12.291443	-0.044614	2.405209
176.696934	2520.814461	12.296448	-0.044570	2.405154
176.664314	2520.234295	12.301453	-0.044561	2.404883
176.719499	2520.232944	12.306458	-0.044574	2.404886
176.680100	2520.220698	12.311463	-0.044565	2.404878
176.582054	2520.253001	12.316467	-0.044541	2.404887
176.676500	2520.221258	12.321472	-0.044564	2.404878
176.716901	2520.237198	12.326477	-0.044573	2.404887
176.728643	2520.194107	12.331482	-0.044576	2.404868
176.547004	2519.599394	12.336487	-0.044531	2.404582
176.761400	2519.595598	12.341491	-0.044583	2.404592
176.688338	2519.590861	12.346496	-0.044565	2.404586
176.711920	2519.595752	12.351501	-0.044571	2.404589
176.827080	2519.588027	12.356506	-0.044599	2.404592
176.806213	2519.567449	12.361511	-0.044594	2.404581
176.785472	2518.945946	12.366515	-0.044588	2.404292
176.760647	2518.872397	12.371520	-0.044582	2.404256
176.900257	2518.874100	12.376525	-0.044616	2.404265
176.969068	2518.862662	12.381530	-0.044633	2.404263
177.005813	2518.479934	12.386535	-0.044641	2.404088
177.024056	2518.191966	12.391539	-0.044645	2.403955
177.074318	2518.160286	12.396544	-0.044658	2.403943
177.255081	2517.857368	12.401549	-0.044701	2.403813
177.014697	2517.512864	12.406554	-0.044642	2.403639
177.003412	2517.492798	12.411559	-0.044639	2.403629
177.026560	2517.399580	12.416563	-0.044645	2.403587
177.013519	2516.842255	12.421568	-0.044641	2.403328
176.971846	2516.863915	12.426573	-0.044631	2.403335
176.803728	2516.880308	12.431578	-0.044590	2.403333
176.707085	2516.883193	12.436583	-0.044566	2.403329
176.704812	2516.288983	12.441587	-0.044565	2.403053
176.482599	2516.198451	12.446592	-0.044510	2.402998
176.519662	2516.208732	12.451597	-0.044519	2.403005
176.600898	2516.195088	12.456602	-0.044539	2.403003
176.505314	2516.197510	12.461607	-0.044516	2.402999
176.634435	2516.208550	12.466611	-0.044547	2.403011
176.615547	2516.180353	12.471616	-0.044542	2.402997
176.710776	2516.181452	12.476621	-0.044565	2.403003
176.645144	2516.196317	12.481626	-0.044549	2.403006
176.708021	2515.614995	12.486631	-0.044564	2.402740
176.772284	2515.499273	12.491635	-0.044580	2.402690
176.695589	2515.493994	12.496640	-0.044561	2.402683
176.873501	2515.479193	12.501645	-0.044604	2.402686
176.834952	2515.483664	12.506650	-0.044595	2.402686
176.877129	2515.121345	12.511655	-0.044605	2.402520
176.957972	2514.795612	12.516659	-0.044624	2.402373
176.853557	2514.779642	12.521664	-0.044598	2.402360
176.707277	2514.811163	12.526669	-0.044562	2.402366
176.722971	2514.816679	12.531674	-0.044566	2.402369
176.673531	2514.521802	12.536679	-0.044554	2.402230
176.473865	2514.215557	12.541683	-0.044505	2.402076
176.513939	2514.185818	12.546688	-0.044514	2.402064
176.705124	2514.172395	12.551693	-0.044561	2.402069
176.587179	2514.188668	12.556698	-0.044532	2.402070
176.535937	2514.170854	12.561703	-0.044519	2.402058
176.694646	2514.188980	12.566707	-0.044558	2.402076
176.790875	2514.148290	12.571712	-0.044581	2.402063
176.917999	2513.904587	12.576717	-0.044612	2.401957
177.007496	2513.445178	12.581722	-0.044634	2.401748
177.034199	2513.420448	12.586727	-0.044640	2.401738
176.998566	2513.452106	12.591731	-0.044631	2.401751
176.882327	2512.955958	12.596736	-0.044602	2.401514
176.933773	2512.784435	12.601741	-0.044615	2.401437
176.749326	2512.806894	12.606746	-0.044569	2.401437
176.653433	2512.798959	12.611751	-0.044546	2.401427
176.721650	2512.826880	12.616755	-0.044562	2.401444
176.722538	2512.547410	12.621760	-0.044562	2.401314
176.772364	2512.122227	12.626765	-0.044574	2.401120
176.630662	2512.151844	12.631770	-0.044539	2.401125
176.645286	2512.133982	12.636775	-0.044543	2.401118
176.627946	2512.164050	12.641779	-0.044539	2.401131
176.581632	2512.147320	12.646784	-0.044527	2.401120
176.679428	2512.144388	12.651789	-0.044551	2.401124
176.893500	2511.977018	12.656794	-0.044603	2.401059
176.899906	2511.578048	12.661799	-0.044604	2.400874
177.063654	2511.579741	12.666803	-0.044644	2.400884
176.961296	2511.577311	12.671808	-0.044619	2.400877
176.991145	2511.135525	12.676813	-0.044626	2.400673
176.977911	2510.864935	12.681818	-0.044622	2.400547
176.868592	2510.860346	12.686823	-0.044595	2.400538
176.857279	2510.891344	12.691827	-0.044592	2.400552
176.554469	2510.902896	12.696832	-0.044518	2.400540
176.468954	2510.242105	12.701837	-0.044497	2.400228
176.526212	2510.235437	12.706842	-0.044511	2.400228
176.315329	2510.251437	12.711847	-0.044459	2.400223
176.347072	2510.271749	12.716851	-0.044467	2.400234
176.252620	2510.255596	12.721856	-0.044444	2.400221
176.389595	2510.250509	12.726861	-0.044477	2.400227
176.467783	2510.248308	12.731866	-0.044496	2.400230
176.648752	2510.198185	12.736871	-0.044540	2.400217
176.733781	2510.218974	12.741875	-0.044561	2.400232
176.719330	2510.189261	12.746880	-0.044557	2.400217
176.817555	2510.196674	12.751885	-0.044581	2.400226
176.962677	2510.046577	12.756890	-0.044616	2.400165
176.921672	2509.493501	12.761895	-0.044606	2.399905
177.019178	2509.508047	12.766899	-0.044629	2.399917
176.687698	2509.519462	12.771904	-0.044548	2.399904
176.711023	2509.516643	12.776909	-0.044554	2.399904
176.717612	2509.226246	12.781914	-0.044555	2.399769
176.690887	2508.878226	12.786919	-0.044548	2.399606
176.752262	2508.890512	12.791923	-0.044563	2.399615
176.598474	2508.894780	12.796928	-0.044525	2.399608
176.578423	2508.895970	12.801933	-0.044520	2.399607
176.722185	2508.891044	12.806938	-0.044555	2.399613
176.574655	2508.899237	12.811943	-0.044519	2.399609
176.692753	2508.842105	12.816947	-0.044548	2.399589
176.745382	2508.173260	12.821952	-0.044560	2.399281
176.909685	2508.162774	12.826957	-0.044600	2.399285
176.920229	2508.174954	12.831962	-0.044603	2.399291
176.860010	2508.147547	12.836967	-0.044588	2.399275
176.838868	2507.767706	12.841971	-0.044582	2.399097
176.624748	2507.509342	12.846976	-0.044530	2.398965
176.660377	2507.504668	12.851981	-0.044538	2.398964
176.664410	2507.524359	12.856986	-0.044539	2.398974
176.514997	2507.506960	12.861991	-0.044502	2.398957
176.655812	2507.527215	12.866995	-0.044537	2.398975
176.589722	2507.521005	12.872000	-0.044521	2.398968
176.448983	2507.541789	12.877005	-0.044486	2.398969
176.542922	2507.540318	12.882010	-0.044509	2.398974
176.397948	2507.534450	12.887015	-0.044473	2.398963
176.518758	2507.189477	12.892019	-0.044502	2.398809
176.564187	2506.848461	12.897024	-0.044513	2.398653
176.711231	2506.840768	12.902029	-0.044549	2.398658
176.651413	2506.847540	12.907034	-0.044534	2.398658
176.752658	2506.818999	12.912039	-0.044559	2.398650
176.774758	2506.852895	12.917043	-0.044564	2.398667
176.856919	2506.816310	12.922048	-0.044584	2.398655
176.857679	2506.195377	12.927053	-0.044584	2.398366
176.820081	2506.181965	12.932058	-0.044574	2.398358
176.765902	2506.157854	12.937063	-0.044561	2.398343
176.837117	2506.178302	12.942067	-0.044578	2.398357
176.830015	2506.133957	12.947072	-0.044577	2.398336
176.737098	2505.471685	12.952077	-0.044553	2.398022
176.750495	2505.477468	12.957082	-0.044556	2.398026
176.486895	2505.489619	12.962087	-0.044492	2.398016
176.407825	2505.532642	12.967091	-0.044472	2.398032
176.396673	2505.508255	12.972096	-0.044470	2.398020
176.315310	2505.522385	12.977101	-0.044450	2.398021
176.358532	2505.529515	12.982106	-0.044460	2.398027
176.253871	2505.522711	12.987111	-0.044434	2.398018
176.447996	2505.527976	12.992115	-0.044482	2.398032
176.462228	2505.507497	12.997120	-0.044485	2.398023
176.573566	2505.488778	13.002125	-0.044512	2.398020
176.743227	2505.482643	13.007130	-0.044553	2.398027
176.727245	2505.464553	13.012135	-0.044549	2.398018
176.742969	2505.018996	13.017139	-0.044553	2.397811
176.703994	2504.791818	13.022144	-0.044543	2.397703
176.908381	2504.769653	13.027149	-0.044593	2.397705
177.004382	2504.766239	13.032154	-0.044616	2.397709
177.041353	2504.498506	13.037159	-0.044625	2.397586
176.944907	2504.096049	13.042163	-0.044601	2.397393
176.910276	2504.085298	13.047168	-0.044592	2.397386
176.919670	2504.087549	13.052173	-0.044595	2.397388
176.934379	2503.923517	13.057178	-0.044598	2.397312
176.883636	2503.444393	13.062183	-0.044585	2.397086
176.753413	2503.494734	13.067187	-0.044553	2.397102
176.665158	2503.476194	13.072192	-0.044531	2.397088
176.746822	2503.466500	13.077197	-0.044551	2.397089
176.649881	2503.503007	13.082202	-0.044527	2.397100
176.467039	2503.502187	13.087207	-0.044483	2.397089
176.514924	2502.830593	13.092211	-0.044494	2.396779
176.488357	2502.806784	13.097216	-0.044487	2.396766
176.509540	2502.805901	13.102221	-0.044492	2.396767
176.590909	2502.815348	13.107226	-0.044512	2.396776
176.403871	2502.808349	13.112231	-0.044466	2.396762
176.469518	2502.834822	13.117235	-0.044482	2.396778
176.527749	2502.808915	13.122240	-0.044496	2.396770
176.580483	2502.792402	13.127245	-0.044509	2.396765
176.586823	2502.801398	13.132250	-0.044510	2.396769
176.543849	2502.775930	13.137255	-0.044500	2.396755
176.656658	2502.800932	13.142259	-0.044527	2.396773
176.665144	2502.779161	13.147264	-0.044529	2.396763
176.748926	2502.135391	13.152269	-0.044549	2.396468
176.655095	2502.132634	13.157274	-0.044526	2.396462
176.670305	2502.098303	13.162279	-0.044530	2.396447
176.792678	2502.109382	13.167283	-0.044559	2.396459
176.705879	2502.105085	13.172288	-0.044538	2.396452
176.646571	2502.121522	13.177293	-0.044523	2.396456
176.616665	2501.789468	13.182298	-0.044516	2.396299
176.527261	2501.458088	13.187303	-0.044494	2.396140
176.684447	2501.464523	13.192307	-0.044532	2.396152
176.619669	2501.446450	13.197312	-0.044516	2.396140
176.666028	2501.452508	13.202317	-0.044527	2.396145
176.599122	2501.479937	13.207322	-0.044511	2.396154
176.584197	2501.448330	13.212327	-0.044507	2.396139
176.554993	2501.480147	13.217331	-0.044500	2.396152
176.513951	2501.476901	13.222336	-0.044490	2.396148
176.537641	2501.465319	13.227341	-0.044495	2.396144
176.589363	2501.102446	13.232346	-0.044508	2.395978
176.691081	2500.979356	13.237351	-0.044532	2.395926
176.764799	2500.997109	13.242355	-0.044550	2.395939
176.759442	2500.977725	13.247360	-0.044549	2.395929
176.796665	2500.967487	13.252365	-0.044558	2.395927
176.879654	2500.982753	13.257370	-0.044578	2.395938
176.841736	2500.294603	13.262375	-0.044568	2.395616
176.873697	2500.267258	13.267379	-0.044576	2.395605
176.677609	2500.283183	13.272384	-0.044528	2.395601
176.681029	2500.273439	13.277389	-0.044528	2.395596
176.764666	2500.278569	13.282394	-0.044549	2.395604
176.771100	2499.945492	13.287399	-0.044550	2.395449
176.731978	2499.589931	13.292403	-0.044540	2.395281
176.590947	2499.587664	13.297408	-0.044505	2.395272
176.627130	2499.584924	13.302413	-0.044514	2.395272
176.604976	2499.602127	13.307418	-0.044509	2.395279
176.631177	2499.571477	13.312423	-0.044515	2.395266
176.739586	2499.585265	13.317427	-0.044541	2.395279
176.713475	2499.349044	13.322432	-0.044534	2.395167
176.683959	2498.889176	13.327437	-0.044527	2.394951
176.781277	2498.892942	13.332442	-0.044550	2.394959
176.683115	2498.882364	13.337447	-0.044526	2.394948
176.753866	2498.904488	13.342451	-0.044544	2.394962
176.726544	2498.886155	13.347456	-0.044537	2.394952
176.885637	2498.551704	13.352461	-0.044575	2.394805
176.851613	2498.248858	13.357466	-0.044567	2.394662
176.707401	2498.234939	13.362471	-0.044531	2.394647
176.865559	2498.243567	13.367475	-0.044570	2.394661
176.938757	2498.220172	13.372480	-0.044588	2.394654
176.801810	2497.704708	13.377485	-0.044554	2.394406
176.667482	2497.566345	13.382490	-0.044521	2.394333
176.678374	2497.547979	13.387495	-0.044523	2.394325
176.707428	2497.566209	13.392499	-0.044530	2.394336
176.608966	2497.569742	13.397504	-0.044506	2.394332
176.603274	2497.555772	13.402509	-0.044504	2.394325
176.594688	2497.589709	13.407514	-0.044502	2.394340
176.486990	2497.569940	13.412519	-0.044476	2.394325
176.491113	2497.069918	13.417523	-0.044476	2.394092
176.510175	2496.905570	13.422528	-0.044481	2.394016
176.560555	2496.895043	13.427533	-0.044493	2.394014
176.434639	2496.933783	13.432538	-0.044462	2.394025
176.506053	2496.885164	13.437543	-0.044479	2.394006
176.761343	2496.886783	13.442547	-0.044542	2.394022
176.686266	2496.888430	13.447552	-0.044523	2.394018
176.695502	2496.876298	13.452557	-0.044525	2.394013
176.738136	2496.893514	13.457562	-0.044536	2.394023
176.740994	2496.478407	13.462567	-0.044536	2.393830
176.835820	2496.205273	13.467571	-0.044559	2.393708
176.689736	2496.210688	13.472576	-0.044523	2.393702
176.479036	2496.232469	13.477581	-0.044471	2.393700
176.559556	2496.238297	13.482586	-0.044491	2.393707
176.446234	2496.216560	13.487591	-0.044463	2.393691
176.603144	2496.228335	13.492595	-0.044501	2.393705
176.645663	2496.209407	13.497600	-0.044512	2.393699
176.611327	2496.145089	13.502605	-0.044503	2.393667
176.797510	2495.563759	13.507610	-0.044548	2.393406
176.685060	2495.543928	13.512615	-0.044520	2.393391
176.664761	2495.575620	13.517619	-0.044515	2.393404
176.663475	2495.563788	13.522624	-0.044515	2.393399
176.648427	2495.560689	13.527629	-0.044511	2.393396
176.706720	2495.568930	13.532634	-0.044525	2.393404
176.531564	2495.561212	13.537639	-0.044482	2.393390
176.566161	2494.934784	13.542643	-0.044490	2.393100
176.308681	2494.888066	13.547648	-0.044427	2.393063
176.489369	2494.865759	13.552653	-0.044471	2.393063
176.545094	2494.885024	13.557658	-0.044485	2.393075
176.599108	2494.846938	13.562663	-0.044498	2.393060
176.703358	2494.856181	13.567667	-0.044523	2.393071
176.762076	2494.841609	13.572672	-0.044537	2.393067
176.739004	2494.831136	13.577677	-0.044532	2.393061
176.901655	2494.763538	13.582682	-0.044571	2.393039
176.747902	2494.143112	13.587687	-0.044533	2.392741
176.874956	2494.143838	13.592691	-0.044564	2.392748
176.799999	2494.145480	13.597696	-0.044546	2.392745
176.687296	2494.158154	13.602701	-0.044518	2.392744
176.632709	2494.185383	13.607706	-0.044504	2.392754
176.567881	2493.977971	13.612711	-0.044488	2.392653
176.672635	2493.496618	13.617715	-0.044513	2.392434
176.441778	2493.508868	13.622720	-0.044457	2.392427
176.401199	2493.517967	13.627725	-0.044447	2.392429
176.450546	2493.526637	13.632730	-0.044459	2.392436
176.294196	2493.519290	13.637735	-0.044421	2.392423
176.373809	2493.535253	13.642739	-0.044440	2.392435
176.429981	2493.517316	13.647744	-0.044454	2.392430
176.470991	2493.502259	13.652749	-0.044463	2.392425
176.484124	2493.530135	13.657754	-0.044467	2.392439
176.490564	2493.491254	13.662759	-0.044468	2.392421
176.393251	2493.539164	13.667763	-0.044444	2.392438
176.330002	2493.544712	13.672768	-0.044429	2.392437
176.291488	2493.530469	13.677773	-0.044419	2.392428
176.402930	2493.537807	13.682778	-0.044446	2.392438
176.350672	2493.519244	13.687783	-0.044433	2.392426
176.592583	2493.514777	13.692787	-0.044492	2.392438
176.631715	2493.499952	13.697792	-0.044502	2.392433
176.591553	2493.489259	13.702797	-0.044492	2.392426
176.685474	2493.507801	13.707802	-0.044515	2.392440
176.667090	2492.906577	13.712807	-0.044510	2.392158
176.691665	2492.851403	13.717811	-0.044515	2.392134
176.525794	2492.877692	13.722816	-0.044475	2.392137
176.409965	2492.880386	13.727821	-0.044446	2.392131
176.525046	2492.892957	13.732826	-0.044474	2.392144
176.490235	2492.861531	13.737831	-0.044466	2.392127
176.317657	2492.908053	13.742835	-0.044423	2.392139
176.364060	2492.891994	13.747840	-0.044435	2.392134
176.407356	2492.880335	13.752845	-0.044445	2.392131
176.400234	2492.912054	13.757850	-0.044443	2.392145
176.350050	2492.880525	13.762855	-0.044431	2.392128
176.480219	2492.881525	13.767859	-0.044463	2.392136
176.538374	2492.875051	13.772864	-0.044477	2.392136
176.501431	2492.869649	13.777869	-0.044467	2.392131
176.633478	2492.883798	13.782874	-0.044500	2.392145
176.731662	2492.657593	13.787879	-0.044523	2.392045
176.723617	2492.167578	13.792883	-0.044521	2.391816
176.674877	2492.161633	13.797888	-0.044509	2.391811
176.648143	2492.167679	13.802893	-0.044502	2.391812
176.769139	2492.171483	13.807898	-0.044532	2.391821
176.608967	2492.160273	13.812903	-0.044492	2.391806
176.637407	2492.176879	13.817907	-0.044499	2.391816
176.668501	2491.870374	13.822912	-0.044507	2.391674
176.580449	2491.499379	13.827917	-0.044485	2.391496
176.628218	2491.514926	13.832922	-0.044496	2.391506
176.530075	2491.498045	13.837927	-0.044472	2.391492
176.488712	2491.515938	13.842931	-0.044462	2.391498
176.516597	2491.503847	13.847936	-0.044469	2.391494
176.503431	2491.512895	13.852941	-0.044465	2.391498
176.607184	2491.514148	13.857946	-0.044491	2.391504
176.631319	2491.479778	13.862951	-0.044496	2.391490
176.716011	2491.500115	13.867955	-0.044517	2.391504
176.851972	2491.018122	13.872960	-0.044550	2.391287
176.784558	2490.807823	13.877965	-0.044533	2.391185
176.859560	2490.823335	13.882970	-0.044551	2.391196
176.831539	2490.798107	13.887975	-0.044544	2.391183
176.783150	2490.836265	13.892979	-0.044532	2.391198
176.717051	2490.309814	13.897984	-0.044516	2.390948
176.699925	2490.279895	13.902989	-0.044511	2.390933
176.599856	2490.328133	13.907994	-0.044487	2.390950
176.453955	2490.318518	13.912999	-0.044451	2.390937
176.467147	2490.326305	13.918003	-0.044454	2.390941
176.360499	2490.336905	13.923008	-0.044428	2.390940
176.220746	2490.355285	13.928013	-0.044394	2.390941
176.376771	2490.355738	13.933018	-0.044432	2.390950
176.433134	2490.320056	13.938023	-0.044445	2.390936
176.344211	2490.352869	13.943027	-0.044423	2.390947
176.402101	2490.334385	13.948032	-0.044437	2.390941
176.597064	2490.298582	13.953037	-0.044485	2.390936
176.763532	2490.305432	13.958042	-0.044526	2.390949
176.736874	2490.285388	13.963047	-0.044519	2.390938
176.741444	2489.707110	13.968051	-0.044519	2.390668
176.814852	2489.577041	13.973056	-0.044537	2.390611
176.793806	2489.562992	13.978061	-0.044532	2.390604
176.819560	2489.583263	13.983066	-0.044538	2.390614
176.843784	2489.552904	13.988071	-0.044544	2.390602
176.728594	2489.032005	13.993075	-0.044515	2.390352
176.692235	2488.901183	13.998080	-0.044506	2.390289
176.593962	2488.901724	14.003085	-0.044482	2.390283
176.642714	2488.915463	14.008090	-0.044494	2.390292
176.425635	2488.913348	14.013095	-0.044441	2.390279
176.478004	2488.932989	14.018099	-0.044453	2.390291
176.422015	2488.934306	14.023104	-0.044440	2.390288
176.456703	2488.916694	14.028109	-0.044448	2.390282
176.530487	2488.932344	14.033114	-0.044466	2.390294
176.334551	2488.923262	14.038119	-0.044418	2.390278
176.291423	2488.951064	14.043123	-0.044407	2.390288
176.403505	2488.930544	14.048128	-0.044434	2.390285
176.461415	2488.905374	14.053133	-0.044449	2.390277
176.471458	2488.931933	14.058138	-0.044451	2.390290
176.480329	2488.908161	14.063143	-0.044453	2.390279
176.534798	2488.926874	14.068147	-0.044466	2.390291
176.505431	2488.532791	14.073152	-0.044459	2.390105
176.546395	2488.223605	14.078157	-0.044468	2.389963
176.736991	2488.227443	14.083162	-0.044515	2.389976
176.689278	2488.197653	14.088167	-0.044503	2.389959
176.826079	2488.210834	14.093171	-0.044536	2.389973
176.891440	2488.198110	14.098176	-0.044552	2.389971
176.833944	2487.940918	14.103181	-0.044538	2.389848
176.734867	2487.592312	14.108186	-0.044513	2.389679
176.629450	2487.584387	14.113191	-0.044487	2.389669
176.734144	2487.578149	14.118195	-0.044513	2.389672
176.695447	2487.578662	14.123200	-0.044503	2.389670
176.594970	2487.588506	14.128205	-0.044478	2.389669
176.496148	2487.619867	14.133210	-0.044454	2.389678
176.409367	2487.602280	14.138215	-0.044433	2.389665
176.560876	2487.604273	14.143219	-0.044470	2.389674
176.576903	2487.439927	14.148224	-0.044473	2.389599
176.499996	2486.895470	14.153229	-0.044454	2.389340
176.686855	2486.900090	14.158234	-0.044500	2.389353
176.624199	2486.880185	14.163239	-0.044484	2.389340
176.636213	2486.888111	14.168243	-0.044487	2.389344
176.484124	2486.919060	14.173248	-0.044450	2.389350
176.586952	2486.888657	14.178253	-0.044475	2.389341
176.539975	2486.921609	14.183258	-0.044463	2.389354
176.517664	2486.896366	14.188263	-0.044458	2.389341
176.481258	2486.912635	14.193267	-0.044449	2.389346
176.456651	2486.915078	14.198272	-0.044443	2.389346
176.445606	2486.894787	14.203277	-0.044440	2.389336
176.429955	2486.907145	14.208282	-0.044436	2.389341
176.335860	2486.630176	14.213287	-0.044412	2.389206
176.356083	2486.919098	14.218291	-0.044418	2.389342
176.330738	2486.935332	14.223296	-0.044411	2.389348
176.319757	2486.906679	14.228301	-0.044408	2.389334
176.527213	2486.625058	14.233306	-0.044459	2.389215
176.367741	2486.241614	14.238311	-0.044419	2.389026
176.564349	2486.223635	14.243315	-0.044467	2.389029
176.553746	2486.237037	14.248320	-0.044465	2.389035
176.535740	2486.207589	14.253325	-0.044460	2.389020
176.799084	2486.213407	14.258330	-0.044524	2.389038
176.739449	2486.198143	14.263335	-0.044510	2.389027
176.743197	2486.219789	14.268339	-0.044510	2.389038
176.516784	2486.241583	14.273344	-0.044455	2.389035
176.611820	2486.013356	14.278349	-0.044478	2.388933
176.594321	2485.581949	14.283354	-0.044473	2.388731
176.303816	2485.590987	14.288359	-0.044402	2.388718
176.249697	2485.601434	14.293363	-0.044389	2.388720
176.277268	2485.607761	14.298368	-0.044395	2.388724
176.376307	2485.575824	14.303373	-0.044420	2.388715
176.289896	2485.609653	14.308378	-0.044398	2.388726
176.137593	2485.996755	14.313383	-0.044361	2.388898
176.252954	2486.263813	14.318387	-0.044390	2.389029
176.377913	2486.250712	14.323392	-0.044420	2.389031
176.499412	2486.218996	14.328397	-0.044449	2.389023
176.589048	2485.677068	14.333402	-0.044471	2.388775
176.480281	2485.557660	14.338407	-0.044444	2.388713
176.443405	2485.584342	14.343411	-0.044435	2.388723
176.623318	2485.567762	14.348416	-0.044479	2.388726
176.630446	2485.539209	14.353421	-0.044480	2.388713
176.734383	2485.553100	14.358426	-0.044506	2.388725
176.648833	2485.537715	14.363431	-0.044485	2.388713
176.698863	2485.544930	14.368435	-0.044497	2.388719
176.640011	2485.555631	14.373440	-0.044482	2.388721
176.468544	2484.943615	14.378445	-0.044440	2.388425
176.490475	2484.925922	14.383450	-0.044445	2.388418
176.714507	2484.869793	14.388455	-0.044500	2.388404
176.590509	2484.893921	14.393459	-0.044469	2.388408
176.562847	2484.910440	14.398464	-0.044462	2.388415
176.652708	2484.875968	14.403469	-0.044484	2.388404
176.651847	2484.917219	14.408474	-0.044484	2.388423
176.412320	2484.924283	14.413479	-0.044425	2.388412
176.435330	2484.926831	14.418483	-0.044431	2.388415
176.398899	2484.937757	14.423488	-0.044422	2.388418
176.336702	2484.918143	14.428493	-0.044406	2.388405
176.377566	2484.946534	14.433498	-0.044416	2.388420
176.252697	2484.940709	14.438503	-0.044386	2.388411
176.354055	2484.941887	14.443507	-0.044410	2.388417
176.344790	2484.948106	14.448512	-0.044408	2.388419
176.308063	2484.930343	14.453517	-0.044399	2.388409
176.475486	2484.938355	14.458522	-0.044440	2.388422
176.366716	2484.930198	14.463527	-0.044413	2.388412
176.503325	2484.913642	14.468531	-0.044446	2.388412
176.501186	2484.927327	14.473536	-0.044446	2.388418
176.593007	2484.423668	14.478541	-0.044468	2.388188
176.611292	2484.210381	14.483546	-0.044472	2.388090
176.686861	2484.175012	14.488551	-0.044490	2.388078
176.751683	2484.183058	14.493555	-0.044506	2.388085
176.666415	2484.194701	14.498560	-0.044485	2.388086
176.609607	2484.182105	14.503565	-0.044471	2.388076
176.600228	2484.214053	14.508570	-0.044468	2.388091
176.525845	2484.196625	14.513575	-0.044450	2.388078
176.526926	2483.788783	14.518579	-0.044450	2.387888
176.404714	2483.548213	14.523584	-0.044420	2.387768
176.500404	2483.521035	14.528589	-0.044443	2.387761
176.693853	2483.518456	14.533594	-0.044490	2.387771
176.414943	2483.529422	14.538599	-0.044422	2.387760
176.328878	2483.547510	14.543603	-0.044401	2.387763
176.464813	2483.542719	14.548608	-0.044434	2.387769
176.587828	2483.511148	14.553613	-0.044464	2.387761
176.590379	2483.539609	14.558618	-0.044464	2.387775
176.670076	2483.512746	14.563623	-0.044484	2.387767
176.677352	2483.522588	14.568627	-0.044485	2.387772
176.638528	2483.532475	14.573632	-0.044476	2.387774
176.444431	2483.536588	14.578637	-0.044428	2.387765
176.533802	2483.292477	14.583642	-0.044450	2.387656
176.541393	2482.842831	14.588647	-0.044451	2.387446
176.482603	2482.852859	14.593651	-0.044437	2.387447
176.285705	2482.893052	14.598656	-0.044389	2.387454
176.330425	2482.865524	14.603661	-0.044399	2.387444
176.382833	2482.892466	14.608666	-0.044412	2.387460
176.462363	2482.861284	14.613671	-0.044431	2.387450
176.666217	2482.837040	14.618675	-0.044481	2.387450
176.758828	2482.838959	14.623680	-0.044504	2.387456
176.822221	2482.809446	14.628685	-0.044519	2.387446
176.759057	2482.854742	14.633690	-0.044503	2.387464
176.745335	2482.573373	14.638695	-0.044500	2.387331
176.738034	2482.198747	14.643699	-0.044498	2.387156
176.677366	2482.209342	14.648704	-0.044483	2.387157
176.566628	2482.205122	14.653709	-0.044455	2.387149
176.605999	2482.224998	14.658714	-0.044465	2.387160
176.538317	2482.217101	14.663719	-0.044448	2.387153
176.411698	2482.236552	14.668723	-0.044417	2.387154
176.349146	2482.256396	14.673728	-0.044402	2.387160
176.316478	2482.229797	14.678733	-0.044394	2.387146
176.355950	2482.256003	14.683738	-0.044403	2.387160
176.288920	2482.236675	14.688743	-0.044387	2.387147
176.443124	2482.238622	14.693747	-0.044424	2.387157
176.448449	2482.239689	14.698752	-0.044426	2.387158
176.395018	2482.226351	14.703757	-0.044412	2.387148
176.552521	2482.240575	14.708762	-0.044451	2.387164
176.674720	2482.146342	14.713767	-0.044480	2.387127
176.631597	2481.518162	14.718771	-0.044469	2.386831
176.535603	2481.545161	14.723776	-0.044446	2.386838
176.371834	2481.535180	14.728781	-0.044406	2.386824
176.597572	2481.537585	14.733786	-0.044461	2.386838
176.563507	2481.510497	14.738791	-0.044452	2.386823
176.464283	2481.535895	14.743795	-0.044428	2.386829
176.451031	2481.553956	14.748800	-0.044425	2.386837
176.390964	2481.529429	14.753805	-0.044410	2.386822
176.352154	2481.562012	14.758810	-0.044400	2.386835
176.454335	2481.534363	14.763815	-0.044425	2.386828
176.543713	2481.528664	14.768819	-0.044447	2.386830
176.602315	2481.540474	14.773824	-0.044461	2.386839
176.589648	2481.515068	14.778829	-0.044458	2.386827
176.655584	2481.427830	14.783834	-0.044474	2.386790
176.651176	2480.847332	14.788839	-0.044472	2.386518
176.594642	2480.857416	14.793843	-0.044458	2.386519
176.647103	2480.866313	14.798848	-0.044471	2.386527
176.556749	2480.855231	14.803853	-0.044449	2.386516
176.522440	2480.877908	14.808858	-0.044440	2.386525
176.513659	2480.862036	14.813863	-0.044438	2.386517
176.446941	2480.872717	14.818867	-0.044421	2.386518
176.474599	2480.890368	14.823872	-0.044428	2.386528
176.366812	2480.880784	14.828877	-0.044402	2.386517
176.305282	2480.920192	14.833882	-0.044387	2.386532
176.137991	2480.912657	14.838887	-0.044346	2.386518
176.171695	2480.904192	14.843891	-0.044354	2.386516
176.231856	2480.915136	14.848896	-0.044368	2.386525
176.246862	2480.889302	14.853901	-0.044372	2.386514
176.301532	2480.907603	14.858906	-0.044385	2.386525
176.360292	2480.892021	14.863911	-0.044399	2.386522
176.492039	2480.879056	14.868915	-0.044431	2.386523
176.451606	2480.892814	14.873920	-0.044421	2.386527
176.506016	2480.856078	14.878925	-0.044434	2.386513
176.591184	2480.870259	14.883930	-0.044455	2.386525
176.668845	2480.843318	14.888935	-0.044474	2.386517
176.697708	2480.844799	14.893939	-0.044481	2.386519
176.667813	2480.233493	14.898944	-0.044473	2.386231
176.560254	2480.186510	14.903949	-0.044447	2.386203
176.552320	2480.208912	14.908954	-0.044445	2.386213
176.587415	2480.188928	14.913959	-0.044453	2.386206
176.584526	2480.192683	14.918963	-0.044452	2.386207
176.542086	2480.217369	14.923968	-0.044442	2.386216
176.470990	2480.195557	14.928973	-0.044424	2.386202
176.535822	2480.213593	14.933978	-0.044440	2.386214
176.477386	2480.205226	14.938983	-0.044426	2.386207
176.414015	2480.218162	14.943987	-0.044410	2.386209
176.438994	2480.230470	14.948992	-0.044416	2.386216
176.341966	2480.214549	14.953997	-0.044392	2.386203
176.572010	2480.219406	14.959002	-0.044448	2.386219
176.270534	2480.225208	14.964007	-0.044375	2.386204
176.246347	2480.227270	14.969011	-0.044368	2.386203
176.473360	2480.217153	14.974016	-0.044424	2.386212
176.497424	2480.138471	14.979021	-0.044430	2.386176
176.529859	2479.713713	14.984026	-0.044437	2.385980
176.545587	2479.707481	14.989031	-0.044441	2.385978
176.494106	2479.696584	14.994035	-0.044428	2.385969
176.503897	2479.727126	14.999040	-0.044430	2.385984
176.434515	2479.706441	15.004045	-0.044413	2.385971
176.470922	2479.729673	15.009050	-0.044422	2.385983
176.368024	2479.727832	15.014055	-0.044397	2.385977
176.334659	2479.727698	15.019059	-0.044389	2.385975
176.579535	2479.719695	15.024064	-0.044448	2.385985
176.453420	2479.703054	15.029069	-0.044417	2.385970
176.457892	2479.715904	15.034074	-0.044418	2.385976
176.480405	2479.717838	15.039079	-0.044424	2.385978
176.557511	2479.689300	15.044083	-0.044442	2.385969
176.544872	2479.709281	15.049088	-0.044439	2.385978
176.507026	2479.685012	15.054093	-0.044430	2.385964
176.495698	2479.714173	15.059098	-0.044427	2.385977
176.405456	2479.713097	15.064103	-0.044405	2.385972
176.391909	2479.715840	15.069107	-0.044401	2.385972
176.385971	2479.738326	15.074112	-0.044400	2.385982
176.271085	2479.725628	15.079117	-0.044372	2.385970
176.385677	2479.734810	15.084122	-0.044400	2.385980
176.459557	2479.627591	15.089127	-0.044417	2.385935
176.429879	2479.003403	15.094131	-0.044410	2.385641
176.461685	2479.016192	15.099136	-0.044417	2.385649
176.530446	2478.987357	15.104141	-0.044434	2.385639
176.614370	2479.004013	15.109146	-0.044454	2.385652
176.569210	2478.988664	15.114151	-0.044443	2.385642
176.604929	2478.987289	15.119155	-0.044452	2.385643
176.676876	2478.989419	15.124160	-0.044469	2.385648
176.556680	2478.983059	15.129165	-0.044440	2.385638
176.665333	2478.988636	15.134170	-0.044466	2.385647
176.604506	2478.985243	15.139175	-0.044451	2.385642
176.516299	2478.468147	15.144179	-0.044429	2.385395
176.462803	2478.332410	15.149184	-0.044416	2.385328
176.406997	2478.318721	15.154189	-0.044402	2.385319
176.504390	2478.337702	15.159194	-0.044426	2.385333
176.426993	2478.327030	15.164199	-0.044407	2.385324
176.341359	2478.327055	15.169203	-0.044386	2.385319
176.409311	2478.343356	15.174208	-0.044402	2.385330
176.346956	2478.323142	15.179213	-0.044387	2.385317
176.448103	2478.334984	15.184218	-0.044411	2.385329
176.452339	2478.319172	15.189223	-0.044412	2.385321

176.450664	2478.317772	15.194227	-0.044412	2.385321
176.542020	2478.318488	15.199232	-0.044434	2.385326
176.526031	2478.082691	15.204237	-0.044430	2.385215
176.568100	2477.647231	15.209242	-0.044440	2.385014
176.504729	2477.605468	15.214247	-0.044424	2.384990
176.623439	2476.979427	15.219251	-0.044453	2.384704
176.577844	2476.701018	15.224256	-0.044441	2.384571
176.462157	2476.289952	15.229261	-0.044412	2.384372
176.537528	2475.641114	15.234266	-0.044430	2.384073
176.466819	2475.127868	15.239271	-0.044412	2.383828
176.493081	2474.559950	15.244275	-0.044418	2.383564
176.474045	2473.949399	15.249280	-0.044413	2.383277
176.235461	2473.245597	15.254285	-0.044354	2.382933
176.319675	2472.563055	15.259290	-0.044374	2.382618
176.308766	2471.862785	15.264295	-0.044371	2.382290
176.225155	2471.068731	15.269299	-0.044350	2.381913
176.447560	2470.107152	15.274304	-0.044403	2.381475
176.185919	2469.361183	15.279309	-0.044339	2.381110
176.238559	2468.502623	15.284314	-0.044351	2.380710
176.232928	2467.455398	15.289319	-0.044349	2.380219
176.348019	2466.424964	15.294323	-0.044376	2.379742
176.407454	2465.337112	15.299328	-0.044390	2.379236
176.273134	2464.101325	15.304333	-0.044356	2.378648
176.296547	2462.911704	15.309338	-0.044361	2.378091
176.119662	2461.710105	15.314343	-0.044316	2.377516
176.032714	2460.476651	15.319347	-0.044294	2.376932
175.887434	2459.285352	15.324352	-0.044258	2.376364
175.765115	2458.159597	15.329357	-0.044227	2.375828
175.610296	2456.877396	15.334362	-0.044188	2.375216
175.647652	2455.568215	15.339367	-0.044196	2.374603
175.536378	2454.189299	15.344371	-0.044168	2.373948
175.602659	2452.816129	15.349376	-0.044183	2.373307
175.549532	2451.328188	15.354381	-0.044169	2.372603
175.610850	2449.872817	15.359386	-0.044183	2.371922
175.669417	2448.347570	15.364391	-0.044196	2.371208
175.550002	2446.729692	15.369395	-0.044165	2.370439
175.433979	2445.188150	15.374400	-0.044136	2.369706
175.438598	2443.446469	15.379405	-0.044136	2.368886
175.476544	2441.761817	15.384410	-0.044143	2.368094
175.413005	2440.005035	15.389415	-0.044127	2.367262
175.293551	2438.221477	15.394419	-0.044096	2.366414
175.196942	2436.549840	15.399424	-0.044071	2.365619
175.052915	2434.737239	15.404429	-0.044035	2.364755
174.930082	2432.917702	15.409434	-0.044003	2.363889
174.704707	2431.060183	15.414439	-0.043947	2.362998
174.558990	2429.252186	15.419443	-0.043910	2.362135
174.580483	2427.502436	15.424448	-0.043914	2.361310
174.390146	2425.648566	15.429453	-0.043866	2.360422
174.408245	2423.751046	15.434458	-0.043869	2.359525
174.356433	2421.788504	15.439463	-0.043854	2.358594
174.329418	2419.760982	15.444467	-0.043846	2.357632
174.481729	2417.720262	15.449472	-0.043882	2.356675
174.492604	2415.697519	15.454477	-0.043883	2.355717
174.516350	2413.552796	15.459482	-0.043887	2.354702
174.327868	2411.317617	15.464487	-0.043839	2.353631
174.326046	2409.063871	15.469491	-0.043837	2.352561
174.374602	2406.859700	15.474496	-0.043847	2.351518
174.339121	2404.519213	15.479501	-0.043837	2.350405
174.186448	2402.187107	15.484506	-0.043798	2.349288
174.017146	2399.823438	15.489511	-0.043755	2.348154
173.849480	2397.439404	15.494515	-0.043712	2.347010
173.798688	2395.225140	15.499520	-0.043698	2.345954
173.639926	2392.807187	15.504525	-0.043657	2.344793
173.440944	2390.430303	15.509530	-0.043607	2.343650
173.226465	2388.057896	15.514535	-0.043553	2.342506
173.081085	2385.734561	15.519539	-0.043515	2.341390
172.946471	2383.423102	15.524544	-0.043481	2.340280
172.895393	2381.001081	15.529549	-0.043466	2.339121
172.826606	2378.537735	15.534554	-0.043448	2.337941
172.838588	2376.043478	15.539559	-0.043449	2.336750
172.745013	2373.621733	15.544563	-0.043424	2.335587
172.739322	2371.049986	15.549568	-0.043421	2.334357
172.573119	2368.440348	15.554573	-0.043378	2.333099
172.628909	2365.869061	15.559578	-0.043390	2.331871
172.453490	2363.294724	15.564583	-0.043345	2.330628
172.438095	2360.585088	15.569587	-0.043339	2.329329
172.319523	2357.912285	15.574592	-0.043308	2.328040
172.098822	2355.231594	15.579597	-0.043252	2.326741
172.011144	2352.621282	15.584602	-0.043229	2.325483
172.020142	2349.872309	15.589607	-0.043229	2.324163
171.926046	2347.062094	15.594611	-0.043204	2.322807
171.820307	2344.360209	15.599616	-0.043176	2.321502
171.759794	2341.542792	15.604621	-0.043159	2.320143
171.645834	2338.732276	15.609626	-0.043129	2.318783
171.513295	2335.863607	15.614631	-0.043095	2.317393
171.395275	2333.137965	15.619635	-0.043064	2.316072
171.359327	2330.287162	15.624640	-0.043053	2.314695
171.076653	2327.344624	15.629645	-0.042982	2.313258
171.009937	2324.508075	15.634650	-0.042963	2.311885
171.015344	2321.616772	15.639655	-0.042962	2.310488
170.816469	2318.669600	15.644659	-0.042912	2.309052
170.707131	2315.721155	15.649664	-0.042883	2.307619
170.462338	2312.859121	15.654669	-0.042821	2.306218
170.334406	2309.978638	15.659674	-0.042787	2.304815
170.316929	2306.951047	15.664679	-0.042781	2.303347
170.100217	2304.002972	15.669683	-0.042726	2.301904
170.017621	2301.116965	15.674688	-0.042703	2.300499
170.007631	2298.027577	15.679693	-0.042699	2.298999
169.927363	2294.965699	15.684698	-0.042677	2.297506
169.975675	2292.005694	15.689703	-0.042686	2.296070
169.655388	2288.894194	15.694707	-0.042606	2.294537
169.709740	2285.751608	15.699712	-0.042617	2.293010
169.625994	2282.611741	15.704717	-0.042594	2.291476
169.590702	2279.452013	15.709722	-0.042583	2.289933
169.533567	2276.185922	15.714727	-0.042566	2.288337
169.346047	2273.006246	15.719731	-0.042518	2.286773
169.347634	2269.804156	15.724736	-0.042516	2.285209
169.111716	2266.494423	15.729741	-0.042456	2.283577
168.851740	2263.318842	15.734746	-0.042390	2.282007
168.691342	2260.149732	15.739751	-0.042349	2.280446
168.315377	2256.929440	15.744755	-0.042254	2.278844
168.177810	2253.811838	15.749760	-0.042219	2.277307
168.061062	2250.709880	15.754765	-0.042188	2.275779
167.891364	2247.508547	15.759770	-0.042144	2.274197
167.789774	2244.298023	15.764775	-0.042117	2.272613
167.661641	2241.142460	15.769779	-0.042083	2.271054
167.645035	2237.876738	15.774784	-0.042076	2.269447
167.484331	2234.585967	15.779789	-0.042035	2.267817
167.466574	2231.400170	15.784794	-0.042028	2.266247
167.465725	2228.063971	15.789799	-0.042025	2.264602
167.282769	2224.656403	15.794803	-0.041978	2.262910
167.256860	2221.421071	15.799808	-0.041969	2.261311
167.195900	2217.976568	15.804813	-0.041952	2.259606
166.890099	2214.565084	15.809818	-0.041875	2.257899
166.836876	2211.281909	15.814823	-0.041859	2.256272
166.661755	2207.837239	15.819827	-0.041814	2.254555
166.518135	2204.441789	15.824832	-0.041776	2.252863
166.449862	2201.061311	15.829837	-0.041757	2.251183
166.268020	2197.596520	15.834842	-0.041710	2.249452
166.123271	2194.146820	15.839847	-0.041672	2.247729
166.135250	2190.751875	15.844851	-0.041673	2.246043
165.916135	2187.272481	15.849856	-0.041616	2.244298
165.785284	2183.780690	15.854861	-0.041582	2.242551
165.744054	2180.324234	15.859866	-0.041569	2.240827
165.597637	2176.802428	15.864871	-0.041531	2.239061
165.437781	2173.305252	15.869875	-0.041489	2.237306
165.355436	2169.861488	15.874880	-0.041467	2.235581
165.225861	2166.266814	15.879885	-0.041432	2.233776
165.200106	2162.740804	15.884890	-0.041423	2.232011
164.809615	2159.204240	15.889895	-0.041325	2.230215
164.653137	2155.637202	15.894899	-0.041284	2.228418
164.587690	2152.197568	15.899904	-0.041266	2.226689
164.234706	2148.663802	15.904909	-0.041177	2.224893
164.097821	2145.128614	15.909914	-0.041141	2.223109
164.050341	2141.713815	15.914919	-0.041127	2.221389
163.804774	2138.151379	15.919923	-0.041064	2.219581
163.837037	2134.594936	15.924928	-0.041069	2.217794
163.892500	2131.055583	15.929933	-0.041080	2.216014
163.819421	2127.380334	15.934938	-0.041060	2.214157
163.577486	2123.766783	15.939943	-0.040998	2.212317
163.494676	2120.118516	15.944947	-0.040975	2.210469
163.489656	2116.416533	15.949952	-0.040971	2.208598
163.417519	2112.740005	15.954957	-0.040951	2.206733
163.158879	2109.027978	15.959962	-0.040885	2.204836
162.988742	2105.358704	15.964967	-0.040840	2.202965
162.822897	2101.699716	15.969971	-0.040797	2.201098
162.678859	2097.994208	15.974976	-0.040759	2.199208
162.363729	2094.360556	15.979981	-0.040680	2.197340
162.340567	2090.746086	15.984986	-0.040671	2.195501
162.000506	2087.052209	15.989991	-0.040585	2.193598
161.707552	2083.486075	15.994995	-0.040511	2.191761
161.590183	2079.861222	16.000000	-0.040480	2.189905
161.311827	2076.239034	16.005005	-0.040409	2.188038
161.180493	2072.741212	16.010010	-0.040375	2.186243
161.032785	2069.106858	16.015015	-0.040336	2.184375
160.988340	2065.482034	16.020019	-0.040322	2.182518
160.988063	2061.876235	16.025024	-0.040319	2.180672
160.893962	2058.117876	16.030029	-0.040294	2.178740
160.824531	2054.468748	16.035034	-0.040274	2.176864
160.797872	2050.703853	16.040039	-0.040265	2.174930
160.630074	2046.919399	16.045043	-0.040221	2.172974
160.665744	2043.159116	16.050048	-0.040227	2.171043
160.291236	2039.340107	16.055053	-0.040133	2.169051
160.230317	2035.622902	16.060058	-0.040115	2.167132
160.054181	2031.846736	16.065063	-0.040069	2.165172
159.640246	2028.094907	16.070067	-0.039965	2.163207
159.549064	2024.479605	16.075072	-0.039940	2.161333
159.277354	2020.723875	16.080077	-0.039871	2.159372
159.202948	2017.041594	16.085082	-0.039850	2.157462
159.002361	2013.397152	16.090087	-0.039798	2.155560
158.905306	2009.603861	16.095091	-0.039772	2.153587
158.865264	2005.940942	16.100096	-0.039759	2.151683
158.788435	2002.075433	16.105101	-0.039738	2.149670
158.812404	1998.308308	16.110106	-0.039741	2.147714
158.770226	1994.497371	16.115111	-0.039728	2.145728
158.570637	1990.553262	16.120115	-0.039676	2.143660
158.448501	1986.823808	16.125120	-0.039643	2.141707
158.403442	1982.870299	16.130125	-0.039630	2.139641
158.296313	1979.022747	16.135130	-0.039600	2.137624
158.022540	1975.196627	16.140135	-0.039531	2.135604
157.699264	1971.308641	16.145139	-0.039449	2.133546
157.568853	1967.554700	16.150144	-0.039414	2.131571
157.336490	1963.662813	16.155149	-0.039355	2.129513
157.120065	1959.906649	16.160154	-0.039299	2.127526
156.968712	1956.100737	16.165159	-0.039259	2.125516
156.594200	1952.307054	16.170163	-0.039165	2.123494
156.530363	1948.622288	16.175168	-0.039147	2.121551
156.453257	1944.755562	16.180173	-0.039125	2.119508
156.299563	1941.033806	16.185178	-0.039085	2.117535
156.363578	1937.178967	16.190183	-0.039097	2.115505
155.984654	1933.357936	16.195187	-0.039002	2.113459
156.059721	1929.560916	16.200192	-0.039017	2.111456
155.805436	1925.655359	16.205197	-0.038952	2.109370
155.879888	1921.846617	16.210202	-0.038968	2.107358
155.710717	1917.919774	16.215207	-0.038924	2.105263
155.519320	1914.035885	16.220211	-0.038874	2.103187
155.402320	1910.211794	16.225216	-0.038843	2.101146
155.358333	1906.198129	16.230221	-0.038829	2.099008
155.059560	1902.418183	16.235226	-0.038753	2.096973
154.787834	1898.533682	16.240231	-0.038684	2.094883
154.624568	1894.649838	16.245235	-0.038641	2.092799
154.519147	1890.784540	16.250240	-0.038612	2.090726
154.344923	1886.882344	16.255245	-0.038567	2.088627
154.364344	1883.021174	16.260250	-0.038569	2.086563
154.169116	1879.050316	16.265255	-0.038518	2.084421
153.912931	1875.204283	16.270259	-0.038453	2.082339
153.877066	1871.281519	16.275264	-0.038441	2.080231
153.674132	1867.406789	16.280269	-0.038389	2.078134
153.482958	1863.539016	16.285274	-0.038339	2.076039
153.309564	1859.625738	16.290279	-0.038294	2.073919
153.074297	1855.774837	16.295283	-0.038234	2.071826
152.933324	1851.883539	16.300288	-0.038196	2.069716
152.651500	1848.052451	16.305293	-0.038125	2.067626
152.558787	1844.194038	16.310298	-0.038099	2.065533
152.435883	1840.343879	16.315303	-0.038066	2.063440
152.190020	1836.504865	16.320307	-0.038003	2.061342
152.249574	1832.573818	16.325312	-0.038015	2.059215
152.077304	1828.748103	16.330317	-0.037970	2.057125
151.972210	1824.801283	16.335322	-0.037941	2.054972
151.751713	1820.934554	16.340327	-0.037885	2.052852
151.680408	1816.974567	16.345331	-0.037864	2.050690
151.684117	1813.040649	16.350336	-0.037862	2.048546
151.532034	1809.076893	16.355341	-0.037822	2.046372
151.492429	1805.049823	16.360346	-0.037810	2.044169
151.416331	1801.124522	16.365351	-0.037788	2.042017
151.090563	1797.070029	16.370355	-0.037706	2.039772
150.979620	1793.198435	16.375360	-0.037676	2.037641
150.746677	1789.196645	16.380365	-0.037616	2.035428
150.539729	1785.270551	16.385370	-0.037562	2.033255
150.335157	1781.337603	16.390375	-0.037509	2.031077
150.142088	1777.372703	16.395379	-0.037459	2.028879
150.046816	1773.508750	16.400384	-0.037433	2.026743
149.759954	1769.525302	16.405389	-0.037360	2.024523
149.744709	1765.655609	16.410394	-0.037353	2.022385
149.454001	1761.707452	16.415399	-0.037280	2.020180
149.365218	1757.798419	16.420403	-0.037255	2.018010
149.302635	1753.849822	16.425408	-0.037237	2.015817
148.963645	1749.924340	16.430413	-0.037151	2.013613
148.879637	1745.983337	16.435418	-0.037128	2.011419
148.765704	1742.034460	16.440423	-0.037097	2.009215
148.590134	1738.110997	16.445427	-0.037051	2.007018
148.407850	1734.162065	16.450432	-0.037004	2.004803
148.271488	1730.260389	16.455437	-0.036967	2.002617
148.046578	1726.315028	16.460442	-0.036910	2.000396
147.991974	1722.441096	16.465447	-0.036893	1.998227
147.819820	1718.485956	16.470451	-0.036848	1.996000
147.634252	1714.585173	16.475456	-0.036800	1.993800
147.629772	1710.600744	16.480461	-0.036796	1.991566
147.546250	1706.585126	16.485466	-0.036773	1.989305
147.328699	1702.683442	16.490471	-0.036717	1.987094
146.981065	1698.681883	16.495475	-0.036629	1.984814
146.932005	1694.851420	16.500480	-0.036614	1.982653
146.813769	1690.820338	16.505485	-0.036582	1.980370
146.548635	1686.931091	16.510490	-0.036514	1.978152
146.572750	1682.965608	16.515495	-0.036517	1.975913
146.418599	1678.971328	16.520499	-0.036477	1.973640
146.357624	1674.987793	16.525504	-0.036459	1.971379
146.052726	1670.996723	16.530509	-0.036382	1.969090
145.898960	1667.079312	16.535514	-0.036341	1.966853
145.588853	1663.132171	16.540519	-0.036262	1.964583
145.420776	1659.227090	16.545523	-0.036218	1.962347
145.245486	1655.279400	16.550528	-0.036173	1.960083
144.997394	1651.475958	16.555533	-0.036109	1.957892
144.834493	1647.541832	16.560538	-0.036067	1.955632
144.766519	1643.672455	16.565543	-0.036047	1.953414
144.484532	1639.728893	16.570547	-0.035975	1.951133
144.424000	1635.864676	16.575552	-0.035958	1.948914
144.257952	1631.952050	16.580557	-0.035914	1.946655
144.242018	1628.024125	16.585562	-0.035907	1.944398
144.087874	1624.109965	16.590567	-0.035867	1.942134
144.000645	1620.109423	16.595571	-0.035843	1.939823
143.965352	1616.213119	16.600576	-0.035831	1.937574
143.737162	1612.166317	16.605581	-0.035772	1.935219
143.774466	1608.190162	16.610586	-0.035779	1.932925
143.657845	1604.124953	16.615591	-0.035747	1.930564
143.484581	1600.139509	16.620595	-0.035702	1.928240
143.357362	1596.093928	16.625600	-0.035668	1.925883
143.214447	1592.080425	16.630605	-0.035630	1.923541
142.847302	1588.084042	16.635610	-0.035537	1.921186
142.771493	1584.135010	16.640615	-0.035516	1.918881
142.347682	1580.195122	16.645619	-0.035409	1.916548
142.150954	1576.297451	16.650624	-0.035358	1.914257
141.974420	1572.361958	16.655629	-0.035312	1.911942
141.935763	1568.407334	16.660634	-0.035300	1.909626
141.720129	1564.523097	16.665639	-0.035244	1.907333
141.496353	1560.561554	16.670643	-0.035187	1.904990
141.300351	1556.740582	16.675648	-0.035136	1.902730
141.128450	1552.770601	16.680653	-0.035091	1.900382
141.000481	1548.973149	16.685658	-0.035057	1.898136
140.827678	1545.035546	16.690663	-0.035012	1.895801
140.690812	1541.142650	16.695667	-0.034976	1.893492
140.647400	1537.175149	16.700672	-0.034962	1.891146
140.428798	1533.295350	16.705677	-0.034906	1.888832
140.309969	1529.327254	16.710682	-0.034874	1.886472
140.129200	1525.465427	16.715687	-0.034827	1.884166
139.984673	1521.498276	16.720691	-0.034789	1.881799
139.932798	1517.612655	16.725696	-0.034773	1.879485
139.722464	1513.701156	16.730701	-0.034719	1.877139
139.477342	1509.782125	16.735706	-0.034656	1.874782
139.357294	1505.896920	16.740711	-0.034624	1.872453
139.096785	1501.958614	16.745715	-0.034557	1.870078
139.053548	1498.116693	16.750720	-0.034544	1.867776
138.849776	1494.152403	16.755725	-0.034491	1.865384
138.777973	1490.292029	16.760730	-0.034471	1.863063
138.590447	1486.322691	16.765735	-0.034422	1.860663
138.362645	1482.482556	16.770739	-0.034363	1.858334
138.327940	1478.535309	16.775744	-0.034352	1.855956
138.114741	1474.633965	16.780749	-0.034297	1.853585
137.779116	1470.715115	16.785754	-0.034212	1.851190
137.765002	1466.854884	16.790759	-0.034206	1.848856
137.520977	1462.943047	16.795763	-0.034143	1.846467
137.380005	1459.109902	16.800768	-0.034106	1.844132
137.287090	1455.173178	16.805773	-0.034081	1.841736
137.080677	1451.334366	16.810778	-0.034027	1.839386
137.019704	1447.446830	16.815783	-0.034009	1.837016
136.826279	1443.518651	16.820787	-0.033959	1.834607
136.848077	1439.608815	16.825792	-0.033962	1.832225
136.652432	1435.688822	16.830797	-0.033911	1.829814
136.644285	1431.726211	16.835802	-0.033906	1.827391
136.396539	1427.809997	16.840807	-0.033843	1.824971
136.226562	1423.885516	16.845811	-0.033798	1.822550
136.148832	1419.951779	16.850816	-0.033776	1.820128
135.877176	1416.077741	16.855821	-0.033707	1.817722
135.822160	1412.101565	16.860826	-0.033691	1.815270
135.631163	1408.193161	16.865831	-0.033641	1.812843
135.326845	1404.256350	16.870835	-0.033564	1.810385
135.257099	1400.412776	16.875840	-0.033544	1.808004
135.233799	1396.419047	16.880845	-0.033535	1.805531
134.934898	1392.545727	16.885850	-0.033460	1.803103
134.841647	1388.614527	16.890855	-0.033434	1.800655
134.637397	1384.746200	16.895859	-0.033381	1.798232
134.629675	1380.785043	16.900864	-0.033376	1.795768
134.474762	1376.871093	16.905869	-0.033336	1.793315
134.125435	1372.940174	16.910874	-0.033247	1.790829
134.028793	1369.111466	16.915879	-0.033221	1.788428
133.762724	1365.152333	16.920883	-0.033153	1.785926
133.665831	1361.347961	16.925888	-0.033126	1.783534
133.480370	1357.403426	16.930893	-0.033078	1.781041
133.264521	1353.600153	16.935898	-0.033023	1.778632
133.046143	1349.715212	16.940903	-0.032966	1.776167
133.065566	1345.825905	16.945907	-0.032968	1.773719
132.783952	1341.925945	16.950912	-0.032897	1.771232
132.501030	1338.132570	16.955917	-0.032825	1.768808
132.402792	1334.237995	16.960922	-0.032798	1.766335
132.303451	1330.438011	16.965927	-0.032771	1.763919
132.029856	1326.536926	16.970931	-0.032701	1.761417
132.066698	1322.757848	16.975936	-0.032707	1.759021
131.917041	1318.835009	16.980941	-0.032668	1.756511
131.654506	1315.013559	16.985946	-0.032601	1.754051
131.545508	1311.135650	16.990951	-0.032571	1.751567
131.406043	1307.302790	16.995955	-0.032534	1.749105
131.351236	1303.402230	17.000960	-0.032518	1.746605
131.100118	1299.595606	17.005965	-0.032454	1.744141
130.877515	1295.711881	17.010970	-0.032397	1.741628
130.679419	1291.975929	17.015975	-0.032346	1.739208
130.513063	1288.086954	17.020979	-0.032302	1.736689
130.491278	1284.265970	17.025984	-0.032294	1.734226
130.303991	1280.369121	17.030989	-0.032245	1.731693
130.227736	1276.549977	17.035994	-0.032224	1.729217
130.153228	1272.644432	17.040999	-0.032203	1.726683
130.022437	1268.787563	17.046003	-0.032168	1.724171
129.779572	1264.913128	17.051008	-0.032106	1.721631
129.533422	1261.159064	17.056013	-0.032043	1.719166
129.504544	1257.237024	17.061018	-0.032033	1.716611
129.402405	1253.427555	17.066023	-0.032005	1.714118
129.280098	1249.467968	17.071027	-0.031972	1.711520
129.083455	1245.675237	17.076032	-0.031921	1.709021
128.842038	1241.796901	17.081037	-0.031860	1.706456
128.704767	1237.985144	17.086042	-0.031823	1.703943
128.437535	1234.141223	17.091047	-0.031755	1.701391
128.195855	1230.370965	17.096051	-0.031693	1.698886
128.008479	1226.552893	17.101056	-0.031645	1.696352
127.781605	1222.764928	17.106061	-0.031586	1.693829
127.683917	1218.931951	17.111066	-0.031560	1.691287
127.606156	1215.177500	17.116071	-0.031538	1.688795
127.308765	1211.371913	17.121075	-0.031462	1.686242
127.250479	1207.604240	17.126080	-0.031445	1.683736
127.185068	1203.784196	17.131085	-0.031427	1.681190
127.154558	1199.994101	17.136090	-0.031416	1.678665
126.878850	1196.171129	17.141095	-0.031346	1.676087
126.761144	1192.356453	17.146099	-0.031315	1.673528
126.774297	1188.508319	17.151104	-0.031315	1.670956
126.503329	1184.703195	17.156109	-0.031246	1.668379
126.342590	1180.884375	17.161114	-0.031204	1.665800
126.301052	1177.069422	17.166119	-0.031191	1.663233
126.115942	1173.247934	17.171123	-0.031143	1.660642
125.826273	1169.474913	17.176128	-0.031069	1.658068
125.621477	1165.691801	17.181133	-0.031016	1.655493
125.312465	1161.917514	17.186138	-0.030938	1.652908
125.156785	1158.195786	17.191143	-0.030897	1.650371
124.799757	1154.455534	17.196147	-0.030807	1.647796
124.757565	1150.763095	17.201152	-0.030794	1.645283
124.652365	1147.007676	17.206157	-0.030766	1.642718
124.547564	1143.300238	17.211162	-0.030737	1.640181
124.333048	1139.564112	17.216167	-0.030682	1.637608
124.357930	1135.802205	17.221171	-0.030686	1.635040
124.385813	1131.983486	17.226176	-0.030690	1.632429
124.296917	1128.206315	17.231181	-0.030665	1.629830
124.309236	1124.322572	17.236186	-0.030665	1.627165
124.127020	1120.539371	17.241191	-0.030618	1.624543
123.746180	1116.717888	17.246195	-0.030522	1.621867
123.500930	1112.984218	17.251200	-0.030459	1.619263
123.227069	1109.226600	17.256205	-0.030390	1.616635
123.063230	1105.481735	17.261210	-0.030347	1.614024
122.945658	1101.730913	17.266215	-0.030315	1.611410
122.724095	1098.008024	17.271219	-0.030258	1.608800
122.491720	1094.302700	17.276224	-0.030199	1.606195
122.456504	1090.565923	17.281229	-0.030188	1.603588
122.195165	1086.875797	17.286234	-0.030121	1.600983
122.094154	1083.173211	17.291239	-0.030094	1.598383
121.804260	1079.484869	17.296243	-0.030020	1.595767
121.824372	1075.743149	17.301248	-0.030022	1.593145
121.698099	1072.053040	17.306253	-0.029989	1.590538
121.671720	1068.256788	17.311258	-0.029979	1.587864
121.597746	1064.556237	17.316263	-0.029959	1.585247
121.398567	1060.746658	17.321267	-0.029907	1.582534
121.333771	1057.068580	17.326272	-0.029888	1.579925
121.217180	1053.258539	17.331277	-0.029857	1.577213
121.050167	1049.485657	17.336282	-0.029814	1.574516
120.748181	1045.774162	17.341287	-0.029737	1.571842
120.516752	1042.056112	17.346291	-0.029678	1.569167
120.297826	1038.370427	17.351296	-0.029622	1.566512
120.170050	1034.668317	17.356301	-0.029588	1.563852
119.888122	1031.017794	17.361306	-0.029516	1.561206
119.776227	1027.367730	17.366311	-0.029486	1.558576
119.487496	1023.705085	17.371315	-0.029413	1.555911
119.451023	1020.019865	17.376320	-0.029401	1.553255
119.191318	1016.396113	17.381325	-0.029335	1.550613
118.926651	1012.748808	17.386330	-0.029268	1.547948
118.941501	1009.134839	17.391335	-0.029268	1.545337
118.994077	1005.386304	17.396339	-0.029279	1.542628
118.826893	1001.762060	17.401344	-0.029235	1.539978
118.670917	998.032181	17.406349	-0.029194	1.537248
118.544618	994.347521	17.411354	-0.029161	1.534550
118.418871	990.654769	17.416359	-0.029127	1.531841
118.285742	986.939749	17.421363	-0.029092	1.529110
118.150928	983.271979	17.426368	-0.029056	1.526408
117.934304	979.591304	17.431373	-0.029001	1.523683
117.748211	975.950836	17.436378	-0.028952	1.520985
117.548733	972.288859	17.441383	-0.028901	1.518265
117.257196	968.681581	17.446387	-0.028827	1.515570
117.139970	965.028127	17.451392	-0.028796	1.512857
117.048653	961.418238	17.456397	-0.028771	1.510174
116.878080	957.744190	17.461402	-0.028726	1.507430
116.769967	954.153137	17.466407	-0.028697	1.504749
116.631805	950.486801	17.471411	-0.028661	1.502004
116.459739	946.883382	17.476416	-0.028616	1.499297
116.261448	943.259855	17.481421	-0.028565	1.496567
115.945829	939.650126	17.486426	-0.028485	1.493827
115.855518	936.089454	17.491431	-0.028460	1.491147
115.743216	932.445456	17.496435	-0.028430	1.488397
115.486845	928.901245	17.501440	-0.028365	1.485699
115.433989	925.267895	17.506445	-0.028349	1.482954
115.314131	921.727012	17.511450	-0.028317	1.480266
115.135337	918.120116	17.516455	-0.028271	1.477515
114.921581	914.527806	17.521459	-0.028216	1.474765
114.741859	910.969192	17.526464	-0.028170	1.472041
114.592055	907.406640	17.531469	-0.028130	1.469312
114.402454	903.853649	17.536474	-0.028081	1.466580
114.523258	900.230101	17.541479	-0.028108	1.463830
114.306996	896.662050	17.546483	-0.028053	1.461073
114.175159	893.045364	17.551488	-0.028018	1.458284
114.079234	889.454735	17.556493	-0.027992	1.455515
113.981665	885.808008	17.561498	-0.027965	1.452697
113.837843	882.234361	17.566503	-0.027928	1.449924
113.602575	878.621623	17.571507	-0.027867	1.447103
113.501897	875.034600	17.576512	-0.027840	1.444315
113.364929	871.469602	17.581517	-0.027804	1.441533
113.031003	867.897624	17.586522	-0.027720	1.438714
112.950687	864.366807	17.591527	-0.027698	1.435956
112.618003	860.793386	17.596531	-0.027614	1.433125
112.530190	857.293668	17.601536	-0.027590	1.430379
112.414666	853.727958	17.606541	-0.027559	1.427572
112.180560	850.202963	17.611546	-0.027499	1.424776
112.005150	846.720187	17.616551	-0.027453	1.422016
111.827028	843.184320	17.621555	-0.027407	1.419207
111.754259	839.674415	17.626560	-0.027387	1.416428
111.665135	836.110324	17.631565	-0.027362	1.413599
111.389021	832.637139	17.636570	-0.027292	1.410810
111.264804	829.122830	17.641575	-0.027259	1.408004
111.051637	825.626779	17.646579	-0.027205	1.405194
110.918562	822.144390	17.651584	-0.027170	1.402401
110.938931	818.627526	17.656589	-0.027172	1.399596
110.736029	815.120326	17.661594	-0.027120	1.396762
110.650621	811.586462	17.666599	-0.027096	1.393917
110.435567	808.114845	17.671603	-0.027041	1.391098
110.213277	804.615206	17.676608	-0.026984	1.388250
110.089271	801.148218	17.681613	-0.026951	1.385436
109.999650	797.635120	17.686618	-0.026927	1.382584
109.863648	794.153320	17.691623	-0.026891	1.379745
109.779997	790.623003	17.696627	-0.026868	1.376868
109.476186	787.141502	17.701632	-0.026791	1.373993
109.458154	783.668428	17.706637	-0.026784	1.371160
109.337170	780.140389	17.711642	-0.026752	1.368262
109.237332	776.659849	17.716647	-0.026725	1.365399
108.878728	773.205349	17.721651	-0.026635	1.362514
108.834100	769.743466	17.726656	-0.026622	1.359662
108.597070	766.307541	17.731661	-0.026561	1.356799
108.443169	762.808807	17.736666	-0.026521	1.353888
108.386622	759.388017	17.741671	-0.026505	1.351051
108.076940	755.934239	17.746675	-0.026426	1.348143
107.962865	752.509376	17.751680	-0.026396	1.345281
107.824290	749.085453	17.756685	-0.026359	1.342411
107.456127	745.691213	17.761690	-0.026267	1.339526
107.318248	742.330231	17.766695	-0.026231	1.336695
107.118846	738.903617	17.771699	-0.026180	1.333795
107.097675	735.521575	17.776704	-0.026172	1.330952
106.793352	732.151235	17.781709	-0.026095	1.328071
106.740487	728.744760	17.786714	-0.026080	1.325191
106.659896	725.394756	17.791719	-0.026057	1.322347
106.483083	721.972098	17.796723	-0.026012	1.319422
106.301360	718.631739	17.801728	-0.025965	1.316560
106.249460	715.226493	17.806733	-0.025950	1.313655
106.230554	711.803629	17.811738	-0.025942	1.310734
106.266688	708.375362	17.816743	-0.025949	1.307810
105.972417	704.967146	17.821747	-0.025874	1.304846
105.999725	701.594350	17.826752	-0.025878	1.301955
105.755256	698.173308	17.831757	-0.025816	1.298975
105.516579	694.771894	17.836762	-0.025755	1.296006
105.502456	691.351698	17.841767	-0.025749	1.293048
105.219387	687.963738	17.846771	-0.025678	1.290070
105.103978	684.579005	17.851776	-0.025647	1.287113
105.011650	681.169553	17.856781	-0.025622	1.284132
104.746303	677.825396	17.861786	-0.025554	1.281174
104.420683	674.508043	17.866791	-0.025472	1.278223
104.149539	671.176640	17.871795	-0.025404	1.275262
104.014835	667.887780	17.876800	-0.025368	1.272352
103.841271	664.559988	17.881805	-0.025323	1.269395
103.567068	661.309173	17.886810	-0.025254	1.266483
103.501455	658.006247	17.891815	-0.025236	1.263552
103.245985	654.753514	17.896819	-0.025171	1.260628
103.260324	651.443216	17.901824	-0.025172	1.257688
103.068840	648.140009	17.906829	-0.025123	1.254716
102.885415	644.883999	17.911834	-0.025075	1.251780
102.845170	641.580009	17.916839	-0.025063	1.248817
102.776625	638.265610	17.921843	-0.025044	1.245833
102.806514	634.963374	17.926848	-0.025049	1.242868
102.547977	631.663340	17.931853	-0.024983	1.239852
102.472732	628.359860	17.936858	-0.024962	1.236855
102.275504	625.071753	17.941863	-0.024912	1.233845
102.140588	621.773049	17.946867	-0.024876	1.230828
101.877098	618.521938	17.951872	-0.024809	1.227826
101.530805	615.293772	17.956877	-0.024722	1.224824
101.241897	612.108410	17.961882	-0.024649	1.221863
101.267693	608.850823	17.966887	-0.024653	1.218880
100.989050	605.616593	17.971891	-0.024583	1.215862
100.911843	602.414823	17.976896	-0.024561	1.212899
100.844533	599.163280	17.981901	-0.024543	1.209884
100.622742	595.969879	17.986906	-0.024486	1.206890
100.754563	592.702310	17.991911	-0.024516	1.203879
100.609981	589.470256	17.996915	-0.024478	1.200847
100.394400	586.252725	18.001920	-0.024423	1.197808
100.183686	583.019613	18.006925	-0.024369	1.194749
99.895613	579.866541	18.011930	-0.024296	1.191743
100.009828	576.628731	18.016935	-0.024322	1.188718
99.578561	573.456090	18.021939	-0.024214	1.185655
99.386000	570.331307	18.026944	-0.024165	1.182669
99.110934	567.189028	18.031949	-0.024095	1.179645
98.875794	564.058467	18.036954	-0.024035	1.176632
98.871322	560.911297	18.041959	-0.024032	1.173634
98.656148	557.759928	18.046963	-0.023977	1.170588
98.571419	554.649196	18.051968	-0.023954	1.167596
98.656567	551.455304	18.056973	-0.023972	1.164545
98.513493	548.312364	18.061978	-0.023935	1.161496
98.434821	545.157830	18.066983	-0.023914	1.158439
98.449738	541.923635	18.071987	-0.023915	1.155313
98.541450	538.727792	18.076992	-0.023935	1.152230
98.449971	535.494075	18.081997	-0.023910	1.149068
98.128190	532.315693	18.087002	-0.023829	1.145912
97.985958	529.175045	18.092007	-0.023792	1.142815
97.637737	526.026498	18.097011	-0.023705	1.139666
97.382075	522.900180	18.102016	-0.023640	1.136547
97.094344	519.822084	18.107021	-0.023567	1.133460
96.844909	516.717398	18.112026	-0.023504	1.130346
96.783648	513.652120	18.117031	-0.023487	1.127296
96.518332	510.572638	18.122035	-0.023420	1.124187
96.300425	507.537580	18.127040	-0.023364	1.121121
96.083549	504.509833	18.132045	-0.023309	1.118056
95.930492	501.444806	18.137050	-0.023269	1.114955
95.768062	498.442672	18.142055	-0.023227	1.111908
95.729949	495.388389	18.147059	-0.023216	1.108822
95.722404	492.306066	18.152064	-0.023211	1.105705
95.507235	489.323317	18.157069	-0.023157	1.102642
95.353559	486.257748	18.162074	-0.023117	1.099498
95.487354	483.166684	18.167079	-0.023147	1.096372
95.341065	480.108424	18.172083	-0.023109	1.093218
95.211614	477.030544	18.177088	-0.023075	1.090038
95.129388	473.975778	18.182093	-0.023053	1.086882
94.924511	470.943079	18.187098	-0.023001	1.083716
94.748615	467.918607	18.192103	-0.022955	1.080554
94.513732	464.904323	18.197107	-0.022896	1.077383
94.318832	461.897683	18.202112	-0.022846	1.074218
94.095445	458.905683	18.207117	-0.022789	1.071054
94.065917	455.904508	18.212122	-0.022780	1.067907
94.015835	452.887730	18.217127	-0.022765	1.064731
93.806158	449.888896	18.222131	-0.022712	1.061533
93.709374	446.880118	18.227136	-0.022686	1.058337
93.660268	443.857476	18.232141	-0.022671	1.055126
93.607385	440.825530	18.237146	-0.022656	1.051895
93.452369	437.831741	18.242151	-0.022616	1.048674
93.126880	434.864958	18.247155	-0.022534	1.045439
93.035401	431.903087	18.252160	-0.022510	1.042245
92.948563	428.920514	18.257165	-0.022486	1.039020
92.544197	425.979284	18.262170	-0.022385	1.035766
92.360458	423.082857	18.267175	-0.022338	1.032595
92.129373	420.168333	18.272179	-0.022280	1.029384
91.934709	417.259579	18.277184	-0.022230	1.026177
91.699867	414.435780	18.282189	-0.022170	1.023045
91.532144	411.527569	18.287194	-0.022127	1.019825
91.312645	408.666407	18.292199	-0.022072	1.016635
91.129846	405.831354	18.297203	-0.022025	1.013471
91.154205	402.938271	18.302208	-0.022029	1.010276
91.078666	400.063182	18.307213	-0.022008	1.007070
91.049059	397.187485	18.312218	-0.021999	1.003862
91.152037	394.253042	18.317223	-0.022021	1.000606
91.004316	391.354467	18.322227	-0.021983	0.997328
91.026861	388.423039	18.327232	-0.021987	0.994037
90.735476	385.555101	18.332237	-0.021913	0.990741
90.574321	382.676275	18.337242	-0.021872	0.987449
90.338080	379.827432	18.342247	-0.021812	0.984165
90.061874	376.988552	18.347251	-0.021742	0.980872
89.945792	374.126343	18.352256	-0.021712	0.977576
89.592105	371.356606	18.357261	-0.021623	0.974324
89.416375	368.531570	18.362266	-0.021578	0.971035
89.296361	365.756908	18.367271	-0.021547	0.967805
89.104853	362.981578	18.372275	-0.021498	0.964548
89.017547	360.184687	18.377280	-0.021474	0.961278
88.937237	357.391993	18.382285	-0.021453	0.958003
88.806133	354.606880	18.387290	-0.021419	0.954714
88.676541	351.826925	18.392295	-0.021385	0.951421
88.653171	349.034488	18.397299	-0.021377	0.948124
88.693452	346.217594	18.402304	-0.021385	0.944801
88.509952	343.436639	18.407309	-0.021338	0.941460
88.351342	340.644182	18.412314	-0.021297	0.938099
88.318778	337.858771	18.417319	-0.021287	0.934761
87.995697	335.104711	18.422323	-0.021206	0.931385
87.804659	332.370441	18.427328	-0.021157	0.928050
87.659904	329.643699	18.432333	-0.021120	0.924722
87.469871	326.901979	18.437338	-0.021071	0.921354
87.304967	324.195689	18.442343	-0.021029	0.918022
87.059643	321.509893	18.447347	-0.020967	0.914685
87.056606	318.768052	18.452352	-0.020964	0.911322
86.804839	316.105645	18.457357	-0.020901	0.907988
86.795384	313.386028	18.462362	-0.020896	0.904626
86.657181	310.687390	18.467367	-0.020861	0.901248
86.522470	307.984418	18.472371	-0.020826	0.897853
86.360223	305.310141	18.477376	-0.020784	0.894474
86.317101	302.609368	18.482381	-0.020771	0.891077
86.028665	299.951498	18.487386	-0.020699	0.887663
86.003297	297.304225	18.492391	-0.020691	0.884312
85.828195	294.636103	18.497395	-0.020646	0.880886
85.676902	291.977943	18.502400	-0.020607	0.877465
85.487663	289.372056	18.507405	-0.020559	0.874088
85.228441	286.752188	18.512410	-0.020493	0.870663
85.107244	284.141163	18.517415	-0.020462	0.867270
84.894264	281.577379	18.522419	-0.020408	0.863902
84.768924	278.968115	18.527424	-0.020375	0.860483
84.541096	276.393659	18.532429	-0.020318	0.857071
84.435940	273.822871	18.537434	-0.020290	0.853680
84.321117	271.256483	18.542439	-0.020260	0.850279
84.161769	268.685800	18.547443	-0.020219	0.846848
84.040034	266.148505	18.552448	-0.020188	0.843456
84.171277	263.543160	18.557453	-0.020218	0.840024
83.889385	260.990138	18.562458	-0.020147	0.836543
83.926201	258.416409	18.567463	-0.020154	0.833101
83.826092	255.852018	18.572467	-0.020128	0.829622
83.723771	253.287641	18.577472	-0.020101	0.826127
83.598114	250.739737	18.582477	-0.020068	0.822635
83.283751	248.229017	18.587482	-0.019989	0.819129
83.260115	245.678096	18.592487	-0.019982	0.815629
83.084204	243.152803	18.597491	-0.019937	0.812109
82.832769	240.661786	18.602496	-0.019873	0.808601
82.633577	238.205926	18.607501	-0.019823	0.805141
82.546177	235.697727	18.612506	-0.019800	0.801623
82.518577	233.191841	18.617511	-0.019791	0.798107
82.366242	230.721056	18.622515	-0.019752	0.794593
82.255005	228.233304	18.627520	-0.019723	0.791050
82.140672	225.764779	18.632525	-0.019693	0.787517
81.926898	223.331786	18.637530	-0.019639	0.783992
81.808048	220.880441	18.642535	-0.019608	0.780451
81.764994	218.405844	18.647539	-0.019596	0.776881
81.564822	215.967657	18.652544	-0.019545	0.773304
81.361075	213.578092	18.657549	-0.019493	0.769780
81.188580	211.158782	18.662554	-0.019449	0.766205
81.034425	208.771564	18.667559	-0.019410	0.762665
80.837430	206.389306	18.672563	-0.019360	0.759104
80.783181	203.993844	18.677568	-0.019345	0.755547
80.712851	201.601374	18.682573	-0.019326	0.751973
80.464348	199.237213	18.687578	-0.019263	0.748374
80.492514	196.855781	18.692583	-0.019268	0.744810
80.204481	194.511840	18.697587	-0.019196	0.741195
80.002423	192.163031	18.702592	-0.019145	0.737580
79.966830	189.822859	18.707597	-0.019135	0.734008
79.833450	187.485434	18.712602	-0.019100	0.730394
79.698126	185.164113	18.717607	-0.019065	0.726787
79.544819	182.852519	18.722611	-0.019026	0.723171
79.383635	180.557133	18.727616	-0.018985	0.719560
79.296421	178.255254	18.732621	-0.018962	0.715943
78.998935	175.988586	18.737626	-0.018888	0.712300
78.828516	173.734687	18.742631	-0.018844	0.708696
78.659110	171.501503	18.747635	-0.018801	0.705107
78.583932	169.236753	18.752640	-0.018781	0.701478
78.522447	166.968071	18.757645	-0.018764	0.697828
78.376703	164.728669	18.762650	-0.018727	0.694180
78.228622	162.513746	18.767655	-0.018689	0.690552
78.115428	160.285824	18.772659	-0.018660	0.686895
77.856604	158.096745	18.777664	-0.018595	0.683235
77.813632	155.891631	18.782669	-0.018583	0.679598
77.571292	153.717028	18.787674	-0.018522	0.675928
77.355350	151.562145	18.792679	-0.018468	0.672279
77.232693	149.396123	18.797683	-0.018436	0.668622
77.054623	147.257113	18.802688	-0.018391	0.664972
77.023589	145.090408	18.807693	-0.018382	0.661303
76.765089	142.958225	18.812698	-0.018317	0.657598
76.678109	140.830341	18.817703	-0.018294	0.653936
76.619741	138.698552	18.822707	-0.018278	0.650255
76.511767	136.576091	18.827712	-0.018250	0.646554
76.374508	134.476098	18.832717	-0.018215	0.642860
76.247670	132.359131	18.837722	-0.018182	0.639119
76.198894	130.265732	18.842727	-0.018169	0.635424
76.118178	128.165493	18.847731	-0.018147	0.631684
75.829916	126.110284	18.852736	-0.018075	0.627930
75.716786	124.061940	18.857741	-0.018046	0.624227
75.568251	122.001814	18.862746	-0.018008	0.620469
75.522622	119.945273	18.867751	-0.017996	0.616730
75.370180	117.901740	18.872755	-0.017957	0.612954
75.149616	115.887944	18.877760	-0.017901	0.609185
75.106796	113.883298	18.882765	-0.017889	0.605473
74.981222	111.860911	18.887770	-0.017857	0.601676
74.976830	109.833964	18.892775	-0.017854	0.597889
74.823423	107.837698	18.897779	-0.017815	0.594082
74.612267	105.873864	18.902784	-0.017762	0.590291
74.581307	103.886617	18.907789	-0.017753	0.586497
74.427477	101.912031	18.912794	-0.017714	0.582657
74.382092	99.931501	18.917799	-0.017702	0.578821
74.062080	98.019257	18.922803	-0.017622	0.574988
73.930583	96.087496	18.927808	-0.017588	0.571163
73.840134	94.167997	18.932813	-0.017565	0.567352
73.639822	92.263240	18.937818	-0.017514	0.563503
73.408250	90.387770	18.942823	-0.017456	0.559673
73.241868	88.521370	18.947827	-0.017414	0.555861
73.063452	86.660446	18.952832	-0.017369	0.552028
72.966445	84.800757	18.957837	-0.017344	0.548204
72.875875	82.945286	18.962842	-0.017320	0.544364
72.857688	81.086600	18.967847	-0.017315	0.540518
72.519987	79.296641	18.972851	-0.017231	0.536660
72.483403	77.454883	18.977856	-0.017220	0.532787
72.444969	75.633329	18.982861	-0.017210	0.528928
72.334735	73.828954	18.987866	-0.017181	0.525048
72.216457	72.035799	18.992871	-0.017151	0.521159
72.000298	70.270461	18.997875	-0.017097	0.517261
71.770169	68.523986	19.002880	-0.017039	0.513368
71.581859	66.787086	19.007885	-0.016992	0.509484
71.476991	65.054557	19.012890	-0.016965	0.505615
71.383514	63.315164	19.017895	-0.016941	0.501707
71.391929	61.564043	19.022899	-0.016941	0.497785
71.102630	59.878525	19.027904	-0.016869	0.493851
71.093522	58.157985	19.032909	-0.016866	0.489929
70.987315	56.470869	19.037914	-0.016839	0.486009
70.826002	54.798104	19.042919	-0.016798	0.482065
70.635796	53.136680	19.047923	-0.016750	0.478103
70.522535	51.479083	19.052928	-0.016721	0.474151
70.425753	49.836310	19.057933	-0.016696	0.470209
70.255794	48.215537	19.062938	-0.016653	0.466253
69.981105	46.627970	19.067943	-0.016585	0.462294
69.820935	45.030974	19.072947	-0.016545	0.458332
69.606828	43.458435	19.077952	-0.016491	0.454369
69.471663	41.894503	19.082957	-0.016457	0.450432
69.275959	40.357964	19.087962	-0.016408	0.446499
69.192615	38.807680	19.092967	-0.016386	0.442551
69.097187	37.262380	19.097971	-0.016362	0.438575
68.934439	35.741864	19.102976	-0.016321	0.434592
68.832739	34.234029	19.107981	-0.016295	0.430636
68.669122	32.739587	19.112986	-0.016254	0.426647
68.676143	31.221135	19.117991	-0.016254	0.422645
68.576611	29.731506	19.122995	-0.016229	0.418627
68.575951	28.228350	19.128000	-0.016227	0.414584
68.461277	26.762201	19.133005	-0.016198	0.410543
68.241358	25.336285	19.138010	-0.016143	0.406515
68.212064	23.879429	19.143015	-0.016135	0.402465
68.078871	22.449765	19.148019	-0.016101	0.398392
67.822483	21.059255	19.153024	-0.016037	0.394321
67.562965	19.694701	19.158029	-0.015973	0.390279
67.430235	18.322262	19.163034	-0.015939	0.386244
67.286275	16.961769	19.168039	-0.015903	0.382196
66.962081	15.646615	19.173043	-0.015823	0.378133
66.650916	14.352949	19.178048	-0.015746	0.374099
66.435038	13.064064	19.183053	-0.015692	0.370091
66.107497	11.816819	19.188058	-0.015611	0.366100
65.148436	10.721864	19.193063	-0.015376	0.362154
63.844838	9.745532	19.198067	-0.015057	0.358324
63.231905	8.685488	19.203072	-0.014906	0.354615
63.263367	7.523849	19.208077	-0.014913	0.350945
62.736128	6.476468	19.213082	-0.014783	0.347252
62.424686	5.409370	19.218087	-0.014706	0.343593
61.531184	4.480206	19.223091	-0.014487	0.339973
60.894875	3.544322	19.228096	-0.014331	0.336460
60.673895	2.553295	19.233101	-0.014276	0.332997
60.216507	1.613488	19.238106	-0.014163	0.329515
59.511832	0.760199	19.243111	-0.013990	0.326126
58.951308	-0.097077	19.248115	-0.013853	0.322786
58.430812	-0.944870	19.253120	-0.013725	0.319472
58.151486	-1.809485	19.258125	-0.013656	0.316230
57.390383	-2.566095	19.263130	-0.013469	0.313004
56.743644	-3.314064	19.268135	-0.013311	0.309856
55.972083	-4.004979	19.273139	-0.013122	0.306794
53.590449	-4.352011	19.278144	-0.012539	0.303805
42.345401	-2.687898	19.283149	-0.009793	0.301796
42.408826	-3.093178	19.288154	-0.009808	0.300333
40.303420	-2.942919	19.293159	-0.009293	0.299349
37.241552	-2.574795	19.298163	-0.008546	0.298476
37.144813	-2.741067	19.303168	-0.008522	0.297779
35.703354	-2.597282	19.308173	-0.008169	0.297254
34.468879	-2.480070	19.313178	-0.007868	0.296781
34.709975	-2.615803	19.318183	-0.007926	0.296447
34.014514	-2.577780	19.323187	-0.007756	0.296073
33.506437	-2.570279	19.328192	-0.007632	0.295724
33.253401	-2.590908	19.333197	-0.007570	0.295457
32.625871	-2.526311	19.338202	-0.007417	0.295234
32.758701	-2.611066	19.343207	-0.007449	0.295010
32.705157	-2.671588	19.348211	-0.007436	0.294740
32.713973	-2.755522	19.353216	-0.007438	0.294427
32.139647	-2.715565	19.358221	-0.007297	0.294149
31.880792	-2.715645	19.363226	-0.007234	0.293955
31.821030	-2.745825	19.368231	-0.007219	0.293794
31.047213	-2.659494	19.373235	-0.007030	0.293544
31.136488	-2.734406	19.378240	-0.007052	0.293324
30.592693	-2.651004	19.383245	-0.006919	0.293234
30.344300	-2.678140	19.388250	-0.006858	0.292944
29.887288	-2.598534	19.393255	-0.006746	0.292904
28.955612	-2.415791	19.398259	-0.006519	0.292903
28.682439	-2.364192	19.403264	-0.006452	0.292895
28.413284	-2.307614	19.408269	-0.006386	0.292909
28.252614	-2.279682	19.413274	-0.006347	0.292895
28.495081	-2.325259	19.418279	-0.006406	0.292902
28.322161	-2.291686	19.423283	-0.006364	0.292901
28.671357	-2.387189	19.428288	-0.006449	0.292797
28.494331	-2.400796	19.433293	-0.006405	0.292611
28.714163	-2.447527	19.438298	-0.006459	0.292597
29.128376	-2.599138	19.443303	-0.006560	0.292328
29.172899	-2.662960	19.448307	-0.006571	0.292116
29.189658	-2.746540	19.453312	-0.006574	0.291807
28.854995	-2.744487	19.458317	-0.006493	0.291562
28.242512	-2.681832	19.463322	-0.006343	0.291340
27.952372	-2.708926	19.468327	-0.006272	0.291016
27.289451	-2.584383	19.473331	-0.006110	0.290994
26.666719	-2.539483	19.478336	-0.005958	0.290695
26.638354	-2.530896	19.483341	-0.005951	0.290707
26.261561	-2.460546	19.488346	-0.005858	0.290692
26.386538	-2.511867	19.493351	-0.005889	0.290588
25.840065	-2.457111	19.498355	-0.005755	0.290385
25.786420	-2.448380	19.503360	-0.005742	0.290378
25.712927	-2.429870	19.508365	-0.005724	0.290393
25.634590	-2.449486	19.513370	-0.005705	0.290258
25.293447	-2.425435	19.518375	-0.005621	0.290091
24.997411	-2.367787	19.523379	-0.005549	0.290089
25.027833	-2.375620	19.528384	-0.005556	0.290082
25.324288	-2.476080	19.533389	-0.005628	0.289918
24.585044	-2.373761	19.538394	-0.005448	0.289752
24.896841	-2.432488	19.543399	-0.005524	0.289761
24.848415	-2.496336	19.548403	-0.005512	0.289477
24.590451	-2.454350	19.553408	-0.005449	0.289443
24.331230	-2.467630	19.558413	-0.005385	0.289194
23.849474	-2.388489	19.563418	-0.005267	0.289133
24.144860	-2.457797	19.568423	-0.005339	0.289089
23.658674	-2.403565	19.573427	-0.005221	0.288929
23.801982	-2.437115	19.578432	-0.005255	0.288907
23.430834	-2.443908	19.583437	-0.005165	0.288598
23.374040	-2.435434	19.588442	-0.005151	0.288587
23.526649	-2.527902	19.593447	-0.005188	0.288343
23.167244	-2.476607	19.598451	-0.005100	0.288268
22.862239	-2.498192	19.603456	-0.005025	0.287950
22.810187	-2.487873	19.608461	-0.005012	0.287951
22.379673	-2.479622	19.613466	-0.004907	0.287653
22.596334	-2.527933	19.618471	-0.004960	0.287630
21.947656	-2.476541	19.623475	-0.004801	0.287333
21.805579	-2.450138	19.628480	-0.004766	0.287327
21.852138	-2.500223	19.633485	-0.004778	0.287167
21.137104	-2.400933	19.638490	-0.004603	0.287006
21.094204	-2.390119	19.643495	-0.004592	0.287015
20.913873	-2.390389	19.648499	-0.004548	0.286875
20.703202	-2.394854	19.653504	-0.004497	0.286695
21.062892	-2.466161	19.658509	-0.004584	0.286692
20.474394	-2.426759	19.663514	-0.004440	0.286394
20.577810	-2.446052	19.668519	-0.004466	0.286397
20.346461	-2.457735	19.673523	-0.004409	0.286173
19.906552	-2.399266	19.678528	-0.004301	0.286063
19.527273	-2.321706	19.683533	-0.004209	0.286075
19.210351	-2.312182	19.688538	-0.004131	0.285868
18.933887	-2.286728	19.693543	-0.004063	0.285754
18.917468	-2.283395	19.698547	-0.004059	0.285754
19.035827	-2.308090	19.703552	-0.004088	0.285748
19.262251	-2.379466	19.708557	-0.004143	0.285642
18.788825	-2.340552	19.713562	-0.004027	0.285430
19.124062	-2.435723	19.718567	-0.004109	0.285314
18.605551	-2.378582	19.723571	-0.003982	0.285138
18.841169	-2.470674	19.728576	-0.004040	0.284957
18.771495	-2.492276	19.733581	-0.004023	0.284818
18.453086	-2.507992	19.738586	-0.003945	0.284509
18.526744	-2.555603	19.743591	-0.003963	0.284378
17.643839	-2.428128	19.748595	-0.003747	0.284197
17.904412	-2.521264	19.753600	-0.003810	0.284030
17.694397	-2.498129	19.758605	-0.003759	0.283959
17.409219	-2.520096	19.763610	-0.003689	0.283650
17.281614	-2.511143	19.768615	-0.003658	0.283586
16.226110	-2.377072	19.773619	-0.003400	0.283296
15.817243	-2.299044	19.778624	-0.003300	0.283286
15.652769	-2.262983	19.783629	-0.003260	0.283301
15.486669	-2.233604	19.788634	-0.003219	0.283288
15.464252	-2.227300	19.793639	-0.003213	0.283295
15.220663	-2.178420	19.798643	-0.003154	0.283299
15.434375	-2.244981	19.803648	-0.003206	0.283201
14.970381	-2.209612	19.808653	-0.003092	0.282980
14.846587	-2.186928	19.813658	-0.003062	0.282973
15.573990	-2.329364	19.818663	-0.003240	0.282974
15.591086	-2.403384	19.823667	-0.003244	0.282693
15.532684	-2.436679	19.828672	-0.003229	0.282515
15.166654	-2.404812	19.833677	-0.003140	0.282356
15.001202	-2.449642	19.838682	-0.003099	0.282048
14.808522	-2.442178	19.843687	-0.003052	0.281927
13.996875	-2.333396	19.848691	-0.002854	0.281725
14.403032	-2.446925	19.853696	-0.002953	0.281590
13.774763	-2.364406	19.858701	-0.002799	0.281427
13.671182	-2.357138	19.863706	-0.002774	0.281374
13.659708	-2.427142	19.868711	-0.002771	0.281086
13.443704	-2.390607	19.873715	-0.002718	0.281062
12.879558	-2.354259	19.878720	-0.002580	0.280764
12.873325	-2.349650	19.883725	-0.002578	0.280777
12.854110	-2.386360	19.888730	-0.002573	0.280615
12.232776	-2.305284	19.893735	-0.002421	0.280451
12.364716	-2.330930	19.898739	-0.002454	0.280452
12.358268	-2.393753	19.903744	-0.002452	0.280195
11.996831	-2.330527	19.908749	-0.002363	0.280163
11.642696	-2.302756	19.913754	-0.002277	0.279995
11.455409	-2.307415	19.918759	-0.002231	0.279829
11.505841	-2.315976	19.923763	-0.002243	0.279834
11.578630	-2.387568	19.928768	-0.002261	0.279604
11.044809	-2.301335	19.933773	-0.002130	0.279529
10.953617	-2.314143	19.938778	-0.002108	0.279405
10.586213	-2.289344	19.943783	-0.002018	0.279214
10.404648	-2.252130	19.948787	-0.001974	0.279220
10.284899	-2.252513	19.953792	-0.001944	0.279124
10.042576	-2.237502	19.958797	-0.001885	0.278992
10.147820	-2.260477	19.963802	-0.001910	0.278983
10.314265	-2.348772	19.968807	-0.001951	0.278759
9.659541	-2.246764	19.973811	-0.001791	0.278651
9.703045	-2.306224	19.978816	-0.001801	0.278446
9.693404	-2.331827	19.983821	-0.001799	0.278334
9.683827	-2.380653	19.988826	-0.001796	0.278130
9.600998	-2.397050	19.993831	-0.001776	0.277997
9.406740	-2.428577	19.998835	-0.001728	0.277716
9.289147	-2.447856	20.003840	-0.001700	0.277544
8.710131	-2.372440	20.008845	-0.001558	0.277389
8.552288	-2.401963	20.013850	-0.001519	0.277143
8.089504	-2.329590	20.018855	-0.001406	0.277068
7.721596	-2.256661	20.023859	-0.001316	0.277070
7.848637	-2.358916	20.028864	-0.001347	0.276757
7.939925	-2.374844	20.033869	-0.001369	0.276764
7.182182	-2.296974	20.038874	-0.001184	0.276476
7.045428	-2.275640	20.043879	-0.001151	0.276453
6.900461	-2.245333	20.048883	-0.001115	0.276460
6.551999	-2.235108	20.053888	-0.001030	0.276223
5.856201	-2.121941	20.058893	-0.000860	0.276127
5.857157	-2.123807	20.063898	-0.000860	0.276120
6.246806	-2.199754	20.068903	-0.000955	0.276122
6.011926	-2.152184	20.073907	-0.000897	0.276128
5.823486	-2.167033	20.078912	-0.000851	0.275916
5.837119	-2.195961	20.083917	-0.000854	0.275809
5.952441	-2.228612	20.088922	-0.000882	0.275768
5.889091	-2.285631	20.093927	-0.000867	0.275485
6.032944	-2.335609	20.098931	-0.000902	0.275396
5.848182	-2.351893	20.103936	-0.000857	0.275181
5.876362	-2.430553	20.108941	-0.000863	0.274883
5.402041	-2.382679	20.113946	-0.000747	0.274697
5.179609	-2.376286	20.118951	-0.000693	0.274545
5.024457	-2.417233	20.123955	-0.000655	0.274252
4.724018	-2.385939	20.128960	-0.000581	0.274138
4.389403	-2.348572	20.133965	-0.000499	0.274022
4.288802	-2.390002	20.138970	-0.000475	0.273770
3.611080	-2.279102	20.143975	-0.000309	0.273679
3.240214	-2.204291	20.148979	-0.000218	0.273687
3.435593	-2.312241	20.153984	-0.000266	0.273401
3.075242	-2.248742	20.158989	-0.000178	0.273370
2.657168	-2.168864	20.163994	-0.000076	0.273361
2.706008	-2.235153	20.168999	-0.000087	0.273128
2.390636	-2.193127	20.174003	-0.000010	0.273045
1.891622	-2.097381	20.179008	0.000112	0.273035
2.083424	-2.131799	20.184013	0.000065	0.273048
2.038732	-2.159455	20.189018	0.000076	0.272898
