Sun Feb 26 13:41:07 2017

Number of Points = 3626
Depth (nm)	Load (µN)	Time (s)	Depth (V)	Load (V)
0.683120	-0.099523	0.000000	-0.000123	0.280466

0.665459	-0.097605	0.005005	-0.000119	0.280459
0.733418	-0.110787	0.010010	-0.000135	0.280460
0.934983	-0.197152	0.015014	-0.000184	0.280272
0.883118	-0.215601	0.020019	-0.000171	0.280157
0.657898	-0.217348	0.025024	-0.000116	0.279972
0.587261	-0.235821	0.030029	-0.000099	0.279842
0.578516	-0.268934	0.035034	-0.000096	0.279702
0.501518	-0.295326	0.040038	-0.000077	0.279534
0.213606	-0.269243	0.045043	-0.000007	0.279412
0.114143	-0.295324	0.050048	0.000017	0.279228
0.101230	-0.296476	0.055053	0.000021	0.279213
0.221349	-0.375949	0.060058	-0.000008	0.278987
0.198422	-0.390543	0.065062	-0.000003	0.278910
0.100958	-0.435317	0.070067	0.000021	0.278652
0.235267	-0.508757	0.075072	-0.000011	0.278462
0.400522	-0.594078	0.080077	-0.000051	0.278248
0.459339	-0.671743	0.085082	-0.000066	0.277981
0.427203	-0.727481	0.090086	-0.000057	0.277730
0.381263	-0.802802	0.095091	-0.000046	0.277388
0.599392	-0.914207	0.100096	-0.000099	0.277110
0.631764	-1.010974	0.105101	-0.000107	0.276744
0.558641	-1.083793	0.110106	-0.000089	0.276389
0.471362	-1.155499	0.115110	-0.000067	0.276028
0.114082	-1.170481	0.120115	0.000020	0.275681
0.183160	-1.262052	0.125120	0.000004	0.275363
0.022955	-1.313735	0.130125	0.000043	0.275023
-0.142983	-1.365616	0.135130	0.000084	0.274677
-0.434607	-1.383792	0.140134	0.000155	0.274368
-0.393448	-1.457579	0.145139	0.000145	0.274099
-0.291137	-1.550513	0.150144	0.000120	0.273800
-0.326662	-1.631791	0.155149	0.000129	0.273438
-0.436592	-1.700970	0.160154	0.000156	0.273064
-0.267560	-1.826158	0.165158	0.000115	0.272685
-0.169383	-1.942743	0.170163	0.000092	0.272284
-0.033369	-2.067215	0.175168	0.000059	0.271880
-0.310872	-2.130435	0.180173	0.000127	0.271393
-1.250046	-2.043986	0.185178	0.000356	0.270987
-1.960266	-1.958774	0.190182	0.000530	0.270761
-2.588168	-1.892035	0.195187	0.000683	0.270526
-2.173566	-2.018735	0.200192	0.000582	0.270338
-2.579453	-1.971234	0.205197	0.000682	0.270203
-2.536551	-2.051291	0.210202	0.000671	0.269905
-2.233754	-2.154030	0.215206	0.000597	0.269725
-2.638344	-2.133178	0.220211	0.000696	0.269480
-2.783662	-2.151304	0.225216	0.000732	0.269285
-2.931219	-2.176421	0.230221	0.000768	0.269059
-2.887421	-2.228231	0.235226	0.000758	0.268878
-3.442588	-2.154020	0.240230	0.000894	0.268732
-3.693481	-2.178950	0.245235	0.000955	0.268421
-3.892462	-2.142094	0.250240	0.001004	0.268411
-4.481050	-2.075203	0.255245	0.001148	0.268207
-5.203983	-1.963331	0.260250	0.001324	0.268080
-5.149350	-1.970686	0.265254	0.001311	0.268094
-5.361843	-1.932737	0.270259	0.001363	0.268077
-5.262008	-1.949511	0.275264	0.001339	0.268088
-5.383337	-1.925906	0.280269	0.001369	0.268087
-5.214805	-1.960685	0.285274	0.001328	0.268079
-5.127799	-1.974859	0.290278	0.001307	0.268091
-5.202225	-1.962959	0.295283	0.001325	0.268079
-4.835189	-2.069468	0.300288	0.001236	0.267935
-5.084847	-2.054586	0.305293	0.001297	0.267791
-4.963217	-2.112342	0.310298	0.001267	0.267649
-5.694991	-2.012019	0.315302	0.001446	0.267466
-5.424946	-2.068254	0.320307	0.001380	0.267452
-5.186893	-2.143827	0.325312	0.001322	0.267330
-5.926955	-2.041056	0.330317	0.001503	0.267151
-5.751707	-2.076658	0.335322	0.001461	0.267145
-5.673437	-2.137719	0.340326	0.001442	0.266953
-6.369485	-2.029687	0.345331	0.001612	0.266831
-6.445462	-2.012561	0.350336	0.001631	0.266840
-6.785442	-1.946584	0.355341	0.001714	0.266836
-6.459534	-2.029270	0.360346	0.001634	0.266757
-6.544823	-2.064837	0.365350	0.001655	0.266536
-6.597521	-2.058704	0.370355	0.001668	0.266518
-6.457201	-2.093865	0.375360	0.001634	0.266486
-6.918753	-2.071532	0.380365	0.001747	0.266197
-6.952012	-2.066960	0.385370	0.001755	0.266188
-7.253554	-2.004277	0.390374	0.001829	0.266202
-7.053055	-2.076108	0.395379	0.001780	0.266065
-7.319086	-2.066850	0.400384	0.001846	0.265883
-7.371649	-2.056292	0.405389	0.001859	0.265883
-7.285421	-2.074649	0.410394	0.001838	0.265877
-7.644537	-2.075421	0.415398	0.001926	0.265575
-8.184003	-1.972985	0.420403	0.002057	0.265559
-8.433147	-1.922175	0.425408	0.002118	0.265566
-8.515849	-1.905223	0.430413	0.002139	0.265569
-8.429079	-1.924811	0.435418	0.002118	0.265558
-8.660781	-1.875554	0.440422	0.002174	0.265573
-8.727946	-1.864933	0.445427	0.002191	0.265561
-8.461461	-1.915181	0.450432	0.002126	0.265570
-8.388660	-1.930372	0.455437	0.002108	0.265566
-8.089325	-2.039069	0.460442	0.002036	0.265354
-8.256757	-2.024738	0.465446	0.002077	0.265275
-7.985581	-2.116752	0.470451	0.002011	0.265111
-7.766049	-2.199159	0.475456	0.001957	0.264944
-7.832166	-2.255723	0.480461	0.001973	0.264648
-8.123522	-2.237521	0.485466	0.002045	0.264482
-8.779710	-2.144108	0.490470	0.002205	0.264331
-8.794178	-2.178571	0.495475	0.002209	0.264172
-9.376437	-2.087109	0.500480	0.002351	0.264074
-9.882353	-1.987807	0.505485	0.002475	0.264072
-9.890953	-1.988032	0.510490	0.002477	0.264064
-10.002992	-1.963316	0.515494	0.002505	0.264075
-10.383685	-1.890574	0.520499	0.002598	0.264065
-10.293266	-1.906226	0.525504	0.002576	0.264074
-10.189413	-1.927326	0.530509	0.002551	0.264070
-9.957113	-2.015032	0.535514	0.002494	0.263891
-9.979908	-2.045484	0.540518	0.002500	0.263742
-10.332998	-1.978783	0.545523	0.002586	0.263730
-10.495194	-1.945321	0.550528	0.002626	0.263736
-10.584882	-1.941084	0.555533	0.002648	0.263679
-10.899074	-1.942382	0.560538	0.002725	0.263410
-11.095004	-1.899720	0.565542	0.002773	0.263427
-11.106400	-1.900544	0.570547	0.002776	0.263413
-10.611909	-1.996383	0.575552	0.002655	0.263418
-11.176406	-1.884196	0.580557	0.002793	0.263423
-11.113968	-1.907213	0.585562	0.002778	0.263377
-10.939013	-2.005272	0.590566	0.002736	0.263105
-10.641715	-2.066551	0.595571	0.002663	0.263092
-10.996898	-2.044767	0.600576	0.002750	0.262887
-11.041076	-2.055651	0.605581	0.002761	0.262802
-10.237482	-2.263119	0.610586	0.002565	0.262590
-10.678432	-2.218598	0.615590	0.002673	0.262409
-11.545329	-2.107879	0.620595	0.002885	0.262154
-11.475338	-2.120351	0.625600	0.002868	0.262159
-11.803488	-2.098310	0.630605	0.002948	0.261976
-12.293904	-2.034163	0.635610	0.003068	0.261837
-12.462978	-1.997529	0.640614	0.003110	0.261851
-13.283340	-1.838999	0.645619	0.003310	0.261839
-13.362239	-1.821891	0.650624	0.003330	0.261846
-13.408367	-1.808306	0.655629	0.003341	0.261865
-13.002602	-1.836013	0.660634	0.003242	0.262087
-13.115665	-1.868448	0.665638	0.003270	0.261852
-12.867372	-1.919415	0.670643	0.003209	0.261842
-12.779605	-1.935902	0.675648	0.003188	0.261845
-13.084288	-1.875258	0.680653	0.003263	0.261848
-13.243151	-1.846147	0.685658	0.003302	0.261838
-13.165842	-1.886219	0.690662	0.003283	0.261731
-13.536172	-1.859642	0.695667	0.003373	0.261532
-12.859328	-1.990806	0.700672	0.003208	0.261540
-12.713167	-2.052093	0.705677	0.003173	0.261399
-13.010059	-2.040277	0.710682	0.003245	0.261199
-12.717144	-2.141830	0.715686	0.003174	0.261009
-13.182841	-2.078333	0.720691	0.003288	0.260888
-13.316311	-2.116090	0.725696	0.003321	0.260612
-13.584763	-2.071527	0.730701	0.003387	0.260576
-13.856076	-2.063630	0.735706	0.003453	0.260380
-14.070942	-2.043371	0.740710	0.003506	0.260285
-13.939515	-2.071424	0.745715	0.003474	0.260274
-13.589567	-2.190988	0.750720	0.003388	0.260055
-14.171678	-2.099406	0.755725	0.003531	0.259956
-14.260221	-2.131788	0.760730	0.003552	0.259740
-14.853153	-2.036272	0.765734	0.003697	0.259649
-15.353789	-1.940182	0.770739	0.003820	0.259638
-15.655913	-1.879163	0.775744	0.003894	0.259645
-15.994497	-1.811563	0.780749	0.003977	0.259649
-15.945209	-1.819234	0.785754	0.003965	0.259657
-15.891980	-1.760000	0.790758	0.003952	0.259957
-15.795171	-1.781531	0.795763	0.003928	0.259946
-15.537067	-1.865275	0.800768	0.003865	0.259803
-16.370195	-1.714323	0.805773	0.004069	0.259747
-16.312635	-1.680215	0.810778	0.004055	0.259943
-16.436124	-1.652703	0.815782	0.004085	0.259956
-15.578429	-1.837266	0.820787	0.003876	0.259887
-14.930698	-2.020170	0.825792	0.003718	0.259646
-14.978245	-2.050166	0.830797	0.003730	0.259475
-14.930682	-2.100399	0.835802	0.003719	0.259298
-13.832155	-2.382168	0.840806	0.003451	0.259012
-14.434968	-2.354306	0.845811	0.003598	0.258618
-15.499938	-2.192323	0.850816	0.003858	0.258412
-15.323595	-2.291459	0.855821	0.003815	0.258131
-15.133219	-2.384402	0.860826	0.003769	0.257889
-16.470345	-2.149487	0.865830	0.004096	0.257767
-17.789615	-1.941324	0.870835	0.004418	0.257543
-17.397348	-1.952536	0.875840	0.004322	0.257830
-18.267762	-1.780388	0.880845	0.004535	0.257834
-19.122732	-1.614004	0.885850	0.004744	0.257826
-18.721012	-1.625815	0.890854	0.004646	0.258118
-18.513568	-1.664568	0.895859	0.004595	0.258126
-18.896308	-1.574802	0.900864	0.004689	0.258189
-18.547639	-1.581812	0.905869	0.004604	0.258456
-17.498236	-1.791295	0.910874	0.004348	0.258441
-16.876987	-1.971577	0.915878	0.004196	0.258188
-17.230913	-1.916858	0.920883	0.004283	0.258123
-16.985899	-2.029655	0.925888	0.004223	0.257841
-16.620791	-2.135887	0.930893	0.004134	0.257690
-17.125003	-2.092361	0.935898	0.004258	0.257447
-17.230703	-2.127534	0.940902	0.004284	0.257203
-17.228962	-2.175705	0.945907	0.004284	0.256993
-17.585108	-2.138489	0.950912	0.004371	0.256850
-18.195995	-2.080374	0.955917	0.004520	0.256578
-18.358649	-2.050966	0.960922	0.004560	0.256566
-18.937612	-1.934811	0.965926	0.004701	0.256576
-19.743537	-1.778908	0.970931	0.004898	0.256564
-20.132318	-1.700469	0.975936	0.004993	0.256573
-20.299289	-1.666159	0.980941	0.005034	0.256579
-20.117962	-1.704882	0.985946	0.004990	0.256564
-19.855941	-1.695407	0.990950	0.004926	0.256831
-19.533105	-1.780454	0.995955	0.004848	0.256736
-18.675689	-1.985104	1.000960	0.004639	0.256577

-18.247589	-2.156581	1.010957	0.004534	0.256194
-18.339250	-2.232503	1.020954	0.004557	0.255781
-19.654212	-2.013362	1.030950	0.004879	0.255607
-20.432175	-1.845674	1.040947	0.005069	0.255670
-20.520757	-1.766581	1.050944	0.005091	0.255940
-20.731357	-1.650216	1.060941	0.005142	0.256268
-20.090340	-1.706662	1.070938	0.004986	0.256571
-19.134412	-1.894097	1.080934	0.004753	0.256572
-18.346163	-2.074549	1.090931	0.004561	0.256460
-18.343486	-2.139508	1.100928	0.004561	0.256176
-18.527609	-2.159892	1.110925	0.004606	0.255927
-19.121975	-2.069648	1.120922	0.004751	0.255809
-20.141973	-1.842289	1.130918	0.005001	0.255926
-20.316438	-1.737498	1.140915	0.005043	0.256234
-19.676143	-1.784838	1.150912	0.004887	0.256577
-19.230183	-1.872916	1.160909	0.004779	0.256574
-18.713989	-1.974502	1.170906	0.004653	0.256573
-18.640153	-1.988277	1.180902	0.004635	0.256575
-18.758493	-1.964581	1.190899	0.004665	0.256576
-19.330665	-1.851815	1.200896	0.004805	0.256576
-19.382690	-1.798080	1.210893	0.004818	0.256765
-19.346196	-1.778857	1.220890	0.004809	0.256879
-18.986280	-1.786470	1.230886	0.004721	0.257154
-18.039330	-2.000012	1.240883	0.004490	0.257033
-17.543908	-2.133758	1.250880	0.004370	0.256874
-17.156632	-2.293359	1.260877	0.004275	0.256507
-18.156996	-2.157337	1.270874	0.004520	0.256241
-19.090124	-1.970286	1.280870	0.004748	0.256255
-20.016574	-1.695991	1.290867	0.004975	0.256658
-19.901061	-1.623954	1.300864	0.004947	0.257071
-19.541074	-1.601166	1.310861	0.004859	0.257478
-18.162383	-1.790302	1.320858	0.004523	0.257834
-17.587788	-1.971137	1.330854	0.004383	0.257537
-17.315503	-2.045209	1.340851	0.004317	0.257447
-17.765059	-2.013879	1.350848	0.004427	0.257197
-17.401109	-2.084869	1.360845	0.004338	0.257198
-17.714030	-2.041537	1.370842	0.004415	0.257118
-18.349073	-1.910835	1.380838	0.004570	0.257142
-18.490705	-1.870928	1.390835	0.004605	0.257194
-18.112703	-1.891315	1.400832	0.004513	0.257428
-18.175416	-1.861752	1.410829	0.004529	0.257502
-18.179037	-1.861011	1.420826	0.004530	0.257501
-17.801271	-1.865598	1.430822	0.004438	0.257804
-17.948238	-1.830000	1.440819	0.004474	0.257832
-17.881391	-1.842941	1.450816	0.004458	0.257832
-17.758969	-1.866389	1.460813	0.004428	0.257833
-17.610596	-1.840873	1.470810	0.004392	0.258070
-17.310713	-1.885853	1.480806	0.004320	0.258130
-16.850329	-2.031880	1.490803	0.004207	0.257887
-16.480966	-2.118527	1.500800	0.004118	0.257825
-16.790393	-2.130777	1.510797	0.004193	0.257505
-17.212935	-2.048372	1.520794	0.004297	0.257502
-17.599677	-1.972351	1.530790	0.004392	0.257500
-18.077119	-1.805500	1.540787	0.004509	0.257818
-18.301859	-1.703161	1.550784	0.004564	0.258070
-18.142606	-1.654437	1.560781	0.004525	0.258417
-17.272918	-1.761925	1.570778	0.004313	0.258691
-16.856821	-1.826463	1.580774	0.004212	0.258765
-16.430542	-1.944912	1.590771	0.004108	0.258613
-16.003396	-2.065801	1.600768	0.004004	0.258452
-15.907277	-2.146046	1.610765	0.003981	0.258184
-16.468368	-2.049024	1.620762	0.004118	0.258126
-16.738123	-1.994765	1.630758	0.004184	0.258130
-17.307896	-1.882018	1.640755	0.004324	0.258132
-17.483819	-1.781129	1.650752	0.004367	0.258419
-17.086000	-1.805517	1.660749	0.004270	0.258652
-16.388952	-1.916162	1.670746	0.004100	0.258765
-16.340232	-1.924958	1.680742	0.004089	0.258768
-16.416902	-1.908549	1.690739	0.004108	0.258772
-16.334648	-1.925589	1.700736	0.004088	0.258768
-16.252249	-1.941726	1.710733	0.004068	0.258767
-16.757567	-1.843432	1.720730	0.004192	0.258761
-16.354445	-1.867865	1.730726	0.004093	0.258998
-15.937433	-1.994733	1.740723	0.003992	0.258802
-16.081362	-1.974226	1.750720	0.004027	0.258767
-15.973104	-1.995815	1.760717	0.004001	0.258765
-15.895704	-2.011527	1.770714	0.003983	0.258762
-15.988893	-1.992114	1.780710	0.004006	0.258765
-16.378948	-1.845807	1.790707	0.004101	0.259066
-16.098432	-1.892032	1.800704	0.004033	0.259104
-16.244489	-1.840185	1.810701	0.004069	0.259203
-15.856558	-1.886054	1.820698	0.003975	0.259333
-15.710363	-1.913562	1.830694	0.003939	0.259338
-15.265459	-2.000335	1.840691	0.003831	0.259340
-15.529505	-1.948234	1.850688	0.003896	0.259339
-15.549256	-1.943981	1.860685	0.003901	0.259340
-15.650197	-1.924577	1.870682	0.003926	0.259337
-15.710750	-1.911654	1.880678	0.003941	0.259340
-15.823871	-1.887739	1.890675	0.003969	0.259347
-15.258999	-1.970261	1.900672	0.003831	0.259469
-15.171083	-1.986128	1.910669	0.003810	0.259474
-14.774878	-2.095259	1.920666	0.003713	0.259338
-15.135159	-2.024482	1.930662	0.003802	0.259336
-15.409071	-1.969869	1.940659	0.003869	0.259339
-15.499624	-1.908846	1.950656	0.003891	0.259525
-15.713857	-1.837326	1.960653	0.003944	0.259651
-15.836775	-1.754363	1.970650	0.003974	0.259904
-15.439191	-1.789103	1.980646	0.003877	0.260090
-14.568101	-1.943008	1.990643	0.003665	0.260164
-14.512212	-2.001490	2.000640	0.003652	0.259958
-13.844721	-2.136196	2.010637	0.003489	0.259942
-14.144749	-2.145068	2.020634	0.003563	0.259647
-14.615995	-2.051911	2.030630	0.003678	0.259649
-15.385300	-1.892550	2.040627	0.003866	0.259683
-15.431837	-1.818405	2.050624	0.003878	0.259963
-15.256266	-1.791347	2.060621	0.003835	0.260227
-14.966470	-1.833848	2.070618	0.003765	0.260289
-14.003584	-2.000145	2.080614	0.003530	0.260387
-13.761665	-2.071555	2.090611	0.003471	0.260283
-13.860480	-2.100865	2.100608	0.003496	0.260071
-14.246544	-2.050988	2.110605	0.003590	0.259958
-14.577563	-1.946231	2.120602	0.003671	0.260128
-14.776381	-1.871650	2.130598	0.003720	0.260281
-15.053347	-1.772272	2.140595	0.003788	0.260473
-14.680817	-1.796176	2.150592	0.003697	0.260685
-13.951656	-1.889813	2.160589	0.003519	0.260898
-13.424856	-2.047593	2.170586	0.003391	0.260663
-13.274441	-2.097012	2.180582	0.003355	0.260576
-13.146598	-2.171821	2.190579	0.003324	0.260361
-13.507563	-2.117932	2.200576	0.003412	0.260287
-14.031846	-2.015493	2.210573	0.003541	0.260283
-14.621861	-1.874956	2.220570	0.003685	0.260388
-14.686034	-1.799254	2.230566	0.003701	0.260659
-14.432227	-1.792710	2.240563	0.003639	0.260901
-13.803202	-1.844146	2.250560	0.003486	0.261210
-13.526443	-1.898566	2.260557	0.003419	0.261209
-13.201548	-1.962534	2.270554	0.003340	0.261207
-13.131561	-2.014051	2.280550	0.003323	0.261044
-12.998224	-2.075312	2.290547	0.003291	0.260892
-12.624331	-2.148325	2.300544	0.003200	0.260893
-13.153433	-2.081033	2.310541	0.003329	0.260734
-13.214957	-2.106079	2.320538	0.003345	0.260573
-13.737720	-1.933752	2.330534	0.003472	0.260872
-13.793693	-1.908591	2.340531	0.003486	0.260931
-13.621707	-1.878078	2.350528	0.003445	0.261207
-13.563312	-1.867644	2.360525	0.003431	0.261300
-13.261803	-1.871581	2.370522	0.003357	0.261537
-13.286450	-1.866379	2.380518	0.003364	0.261537
-12.898232	-1.941650	2.390515	0.003269	0.261541
-12.456425	-2.028041	2.400512	0.003162	0.261541
-12.153821	-2.088378	2.410509	0.003088	0.261537
-12.231182	-2.143031	2.420506	0.003107	0.261236
-12.667718	-2.064159	2.430502	0.003214	0.261205
-13.010004	-1.987743	2.440499	0.003298	0.261243
-12.630464	-2.013052	2.450496	0.003206	0.261454
-12.668680	-1.985302	2.460493	0.003215	0.261540
-13.164055	-1.887620	2.470490	0.003336	0.261540
-13.023631	-1.851048	2.480486	0.003302	0.261814
-12.891818	-1.868423	2.490483	0.003271	0.261850
-12.770312	-1.825393	2.500480	0.003241	0.262135
-12.545110	-1.863051	2.510477	0.003186	0.262163
-12.488181	-1.874443	2.520474	0.003173	0.262161
-12.172634	-1.936896	2.530470	0.003096	0.262158
-11.163485	-2.133720	2.540467	0.002850	0.262163
-10.989829	-2.227032	2.550464	0.002808	0.261909
-11.315619	-2.219173	2.560461	0.002888	0.261667
-11.834833	-2.145892	2.570458	0.003015	0.261542
-13.034236	-1.878279	2.580454	0.003308	0.261678
-13.321111	-1.734220	2.590451	0.003378	0.262053
-13.008379	-1.705861	2.600448	0.003302	0.262436
-12.373936	-1.755584	2.610445	0.003148	0.262756
-11.955067	-1.827255	2.620442	0.003046	0.262800
-10.874580	-2.039025	2.630438	0.002782	0.262802
-10.475027	-2.183847	2.640435	0.002685	0.262517
-10.746741	-2.202941	2.650432	0.002752	0.262206
-10.880465	-2.195398	2.660429	0.002785	0.262125
-11.859257	-2.022130	2.670426	0.003024	0.262042
-12.825145	-1.781744	2.680422	0.003260	0.262257
-12.845224	-1.679311	2.690419	0.003265	0.262678
-12.232273	-1.715595	2.700416	0.003116	0.263036
-11.599763	-1.825434	2.710413	0.002962	0.263097
-10.409892	-2.059239	2.720410	0.002671	0.263096
-9.664759	-2.253044	2.730406	0.002490	0.262893
-10.009205	-2.274810	2.740403	0.002574	0.262509
-10.907467	-2.155440	2.750400	0.002794	0.262264
-11.554592	-1.979246	2.760397	0.002952	0.262472
-12.212243	-1.807629	2.770394	0.003113	0.262652
-11.893853	-1.789675	2.780390	0.003035	0.262995
-11.874564	-1.741796	2.790387	0.003031	0.263215
-11.464487	-1.774028	2.800384	0.002931	0.263420
-10.748756	-1.842913	2.810381	0.002757	0.263725
-10.076820	-2.041087	2.820378	0.002593	0.263442
-9.584100	-2.168668	2.830374	0.002473	0.263310
-9.746618	-2.199911	2.840371	0.002513	0.263039
-10.371207	-2.132454	2.850368	0.002666	0.262802
-10.876036	-2.021027	2.860365	0.002789	0.262853
-10.641006	-2.009677	2.870362	0.002732	0.263098
-10.915238	-1.955742	2.880358	0.002800	0.263097
-11.656767	-1.757196	2.890355	0.002981	0.263321
-11.203321	-1.758094	2.900352	0.002870	0.263696
-10.652081	-1.832871	2.910349	0.002736	0.263838
-9.694571	-2.035011	2.920346	0.002503	0.263777
-9.828242	-2.018884	2.930342	0.002536	0.263733
-9.537665	-2.100004	2.940339	0.002465	0.263630
-9.960230	-2.065613	2.950336	0.002568	0.263422
-10.179194	-2.015329	2.960333	0.002622	0.263451
-10.001289	-2.008914	2.970330	0.002579	0.263627
-9.938386	-1.996579	2.980326	0.002564	0.263731
-9.937652	-1.995542	2.990323	0.002564	0.263735
-10.299753	-1.923014	3.000320	0.002653	0.263740
-10.337839	-1.885200	3.010317	0.002662	0.263868
-10.228178	-1.858709	3.020314	0.002636	0.264071
-10.051896	-1.885696	3.030310	0.002593	0.264102
-9.470520	-1.993656	3.040307	0.002451	0.264128
-9.284140	-2.042831	3.050304	0.002406	0.264074
-9.690451	-1.963530	3.060301	0.002506	0.264070
-9.568032	-1.985763	3.070298	0.002476	0.264077
-9.739279	-1.893931	3.080294	0.002518	0.264323
-9.812194	-1.878340	3.090291	0.002536	0.264328
-9.545360	-1.930223	3.100288	0.002472	0.264329
-9.116985	-2.014953	3.110285	0.002367	0.264326
-8.656822	-2.105368	3.120282	0.002255	0.264325
-8.234984	-2.210890	3.130278	0.002152	0.264228
-8.906455	-2.115551	3.140275	0.002317	0.264071
-9.542763	-1.989702	3.150272	0.002472	0.264073
-10.062337	-1.834428	3.160269	0.002600	0.264298
-10.302283	-1.713070	3.170266	0.002658	0.264612
-9.979944	-1.696415	3.180262	0.002580	0.264950
-8.524809	-1.936006	3.190259	0.002225	0.265146
-7.887391	-2.108660	3.200256	0.002070	0.264944
-7.839662	-2.186716	3.210253	0.002058	0.264652
-8.137477	-2.157478	3.220250	0.002131	0.264526
-8.632376	-2.107759	3.230246	0.002253	0.264323
-8.989785	-2.014338	3.240243	0.002340	0.264421
-9.033789	-1.954410	3.250240	0.002351	0.264637
-8.903210	-1.979896	3.260237	0.002320	0.264637
-8.656675	-1.967034	3.270234	0.002260	0.264896
-8.574938	-1.971945	3.280230	0.002240	0.264942
-8.979976	-1.891999	3.290227	0.002339	0.264943
-9.302569	-1.767290	3.300224	0.002418	0.265201
-8.967757	-1.764628	3.310221	0.002337	0.265490
-7.974694	-1.942284	3.320218	0.002094	0.265563
-7.347547	-2.106939	3.330214	0.001942	0.265387
-7.039833	-2.222550	3.340211	0.001867	0.265152
-7.418069	-2.197373	3.350208	0.001960	0.264943
-7.937847	-2.095054	3.360205	0.002087	0.264943
-8.642044	-1.956132	3.370202	0.002259	0.264944
-8.363687	-1.972401	3.380198	0.002191	0.265106
-8.304282	-1.944814	3.390195	0.002177	0.265271
-8.100615	-1.983795	3.400192	0.002128	0.265274
-8.542993	-1.849668	3.410189	0.002236	0.265473
-8.464548	-1.813673	3.420186	0.002217	0.265689
-7.835367	-1.890442	3.430182	0.002064	0.265886
-7.502854	-1.954978	3.440179	0.001983	0.265889
-7.237675	-2.007901	3.450176	0.001918	0.265884
-7.176116	-2.043035	3.460173	0.001904	0.265786
-7.158786	-2.098390	3.470170	0.001900	0.265565
-7.137818	-2.102100	3.480166	0.001895	0.265566
-7.019766	-2.124764	3.490163	0.001866	0.265567
-7.667378	-1.996983	3.500160	0.002025	0.265568
-7.621875	-2.005954	3.510157	0.002014	0.265567
-7.835433	-1.924059	3.520154	0.002066	0.265735
-8.002462	-1.841721	3.530150	0.002108	0.265943
-7.221640	-1.934759	3.540147	0.001917	0.266197
-7.261415	-1.925994	3.550144	0.001927	0.266200
-7.828852	-1.786464	3.560141	0.002066	0.266317
-6.717237	-1.954348	3.570138	0.001795	0.266529
-6.346570	-2.091562	3.580134	0.001705	0.266257
-5.919272	-2.214050	3.590131	0.001601	0.266093
-6.540301	-2.141372	3.600128	0.001753	0.265884
-6.765720	-2.097102	3.610125	0.001808	0.265883
-7.671132	-1.874170	3.620122	0.002029	0.266072
-7.582212	-1.848607	3.630118	0.002008	0.266252
-7.855126	-1.701105	3.640115	0.002075	0.266647
-6.486893	-1.923105	3.650112	0.001741	0.266843
-5.429977	-2.156731	3.660109	0.001483	0.266733
-5.308786	-2.268569	3.670106	0.001454	0.266361
-5.765966	-2.217593	3.680102	0.001566	0.266196
-6.808908	-2.018853	3.690099	0.001821	0.266169
-7.538625	-1.839097	3.700096	0.001999	0.266321
-7.226107	-1.814200	3.710093	0.001923	0.266684
-7.493955	-1.693910	3.720090	0.001989	0.266967
-6.379586	-1.867763	3.730086	0.001717	0.267156
-5.911164	-1.959252	3.740083	0.001603	0.267157
-4.942764	-2.174206	3.750080	0.001367	0.267053
-4.942255	-2.234519	3.760077	0.001367	0.266798
-5.094880	-2.267456	3.770074	0.001405	0.266532
-5.952720	-2.143422	3.780070	0.001615	0.266344
-6.838194	-1.923947	3.790067	0.001831	0.266534
-7.263232	-1.757901	3.800064	0.001935	0.266881
-6.925127	-1.736905	3.810061	0.001853	0.267247
-5.775093	-1.911424	3.820058	0.001572	0.267462
-5.514775	-1.962138	3.830054	0.001509	0.267463
-5.038449	-2.070729	3.840051	0.001393	0.267399
-5.027509	-2.130590	3.850048	0.001391	0.267156
-4.865368	-2.174403	3.860045	0.001351	0.267104
-5.528741	-2.077914	3.870042	0.001514	0.266961
-5.430842	-2.119810	3.880038	0.001490	0.266865
-6.364410	-1.866518	3.890035	0.001718	0.267157
-5.932352	-1.885459	3.900032	0.001613	0.267433
-5.645480	-1.934139	3.910029	0.001543	0.267464
-5.291006	-1.960122	3.920026	0.001457	0.267647
-4.950007	-2.043486	3.930022	0.001374	0.267577
-4.787500	-2.101088	3.940019	0.001335	0.267468
-4.692749	-2.119895	3.950016	0.001312	0.267466
-4.824976	-2.093108	3.960013	0.001344	0.267469
-5.194739	-2.021260	3.970010	0.001435	0.267464
-5.476173	-1.964911	3.980006	0.001504	0.267468
-5.602346	-1.870015	3.990003	0.001535	0.267761
-5.178167	-1.944916	4.000000	0.001432	0.267795
-4.919047	-1.937576	4.009997	0.001369	0.268038
-4.547216	-2.031014	4.019994	0.001278	0.267952
-4.323457	-2.085600	4.029990	0.001224	0.267906
-4.410737	-2.094443	4.039987	0.001246	0.267796
-4.602430	-2.056381	4.049984	0.001293	0.267797
-4.878875	-1.985834	4.059981	0.001361	0.267864
-4.403561	-2.065277	4.069978	0.001245	0.267921
-4.264398	-2.111486	4.079974	0.001211	0.267841
-4.517866	-2.058707	4.089971	0.001273	0.267853
-4.345369	-2.034681	4.099968	0.001231	0.268094
-4.814700	-1.942072	4.109965	0.001346	0.268095
-5.060510	-1.843474	4.119962	0.001407	0.268305
-4.686024	-1.890739	4.129958	0.001315	0.268414
-4.013219	-2.001402	4.139955	0.001151	0.268503
-3.650763	-2.092254	4.149952	0.001063	0.268420
-3.278523	-2.166687	4.159949	0.000973	0.268413
-3.476203	-2.204243	4.169946	0.001021	0.268092
-3.824748	-2.134893	4.179942	0.001107	0.268095
-4.163266	-2.067508	4.189939	0.001190	0.268098
-4.350462	-1.988833	4.199936	0.001236	0.268272
-4.353053	-1.953362	4.209933	0.001237	0.268417
-4.537388	-1.856109	4.219930	0.001282	0.268671
-4.448707	-1.814734	4.229926	0.001261	0.268916
-3.965053	-1.872107	4.239923	0.001143	0.269072
-3.268554	-2.009054	4.249920	0.000973	0.269071
-3.006186	-2.061441	4.259917	0.000909	0.269066
-2.509614	-2.230355	4.269914	0.000788	0.268767
-2.668183	-2.247592	4.279910	0.000827	0.268564
-3.406385	-2.137810	4.289907	0.001008	0.268416
-3.878809	-2.013162	4.299904	0.001124	0.268548
-3.916027	-1.961314	4.309901	0.001133	0.268733
-3.935631	-1.894949	4.319898	0.001138	0.268993
-3.870447	-1.874787	4.329894	0.001122	0.269129
-3.089523	-1.986889	4.339891	0.000932	0.269300
-2.681305	-2.079250	4.349888	0.000833	0.269249
-3.004968	-2.058036	4.359885	0.000912	0.269071
-2.697866	-2.118806	4.369882	0.000837	0.269068
-2.867548	-2.084901	4.379878	0.000879	0.269070
-3.519536	-1.935695	4.389875	0.001038	0.269157
-3.381023	-1.928088	4.399872	0.001005	0.269301
-2.955344	-1.960504	4.409869	0.000901	0.269513
-2.490579	-2.056517	4.419866	0.000788	0.269493
-2.499619	-2.100972	4.429862	0.000791	0.269299
-2.261141	-2.146860	4.439859	0.000733	0.269302
-2.669098	-2.066473	4.449856	0.000833	0.269302
-3.235081	-1.920972	4.459853	0.000971	0.269444
-3.289532	-1.865308	4.469850	0.000985	0.269630
-2.840536	-1.884218	4.479846	0.000875	0.269917
-2.268737	-1.995250	4.489843	0.000736	0.269922
-2.016091	-2.044808	4.499840	0.000675	0.269921
-1.845970	-2.099472	4.509837	0.000633	0.269832
-2.256981	-2.054666	4.519834	0.000734	0.269681
-2.285266	-2.000538	4.529830	0.000741	0.269882
-2.012964	-2.043913	4.539827	0.000675	0.269923
-1.959078	-2.064842	4.549824	0.000662	0.269879
-2.011279	-2.071198	4.559821	0.000675	0.269809
-2.185034	-2.010761	4.569818	0.000718	0.269918
-2.223323	-2.002692	4.579814	0.000728	0.269919
-2.402760	-1.960330	4.589811	0.000772	0.269947
-2.012641	-1.965221	4.599808	0.000677	0.270245
-1.681769	-2.029801	4.609805	0.000596	0.270245
-1.502817	-2.065226	4.619802	0.000553	0.270243
-1.553408	-2.054303	4.629798	0.000565	0.270246
-1.853004	-1.994952	4.639795	0.000639	0.270247
-1.666999	-2.031316	4.649792	0.000594	0.270247
-1.654523	-2.033424	4.659789	0.000591	0.270247
-1.532684	-2.057910	4.669786	0.000562	0.270244
-1.561144	-2.051815	4.679782	0.000569	0.270245
-1.553539	-2.024702	4.689779	0.000567	0.270363
-1.585774	-1.974045	4.699776	0.000575	0.270546
-1.561935	-1.979313	4.709773	0.000570	0.270542
-1.425761	-2.007012	4.719770	0.000537	0.270538
-1.304363	-2.023353	4.729766	0.000508	0.270568
-1.260346	-1.961813	4.739763	0.000497	0.270858
-1.153619	-1.981831	4.749760	0.000471	0.270861
-1.081659	-1.996338	4.759757	0.000454	0.270858
-1.405281	-1.933305	4.769754	0.000533	0.270855
-1.525753	-1.852184	4.779750	0.000563	0.271092
-1.176230	-1.900693	4.789747	0.000478	0.271174
-1.209687	-1.874646	4.799744	0.000486	0.271254
-1.068362	-1.841334	4.809741	0.000452	0.271505
-0.761065	-1.901949	4.819738	0.000377	0.271503
-0.717938	-1.909932	4.829734	0.000367	0.271504
-0.840421	-1.885462	4.839731	0.000397	0.271505
-0.844510	-1.859767	4.849728	0.000399	0.271607
-0.775227	-1.823398	4.859725	0.000382	0.271812
-0.982039	-1.782912	4.869722	0.000433	0.271811
-0.791317	-1.784005	4.879718	0.000387	0.271960
-0.846954	-1.732810	4.889715	0.000400	0.272125
-0.760037	-1.730502	4.899712	0.000380	0.272204
-0.526322	-1.719543	4.909709	0.000323	0.272437
-0.340096	-1.756366	4.919706	0.000278	0.272435
-0.268041	-1.769965	4.929702	0.000260	0.272437
-0.268597	-1.768971	4.939699	0.000261	0.272439
-0.520778	-1.684371	4.949696	0.000323	0.272583
-0.789361	-1.586356	4.959693	0.000388	0.272768
-0.842320	-1.510530	4.969690	0.000402	0.273036
-0.813529	-1.459260	4.979686	0.000395	0.273269
-0.799744	-1.396275	4.989683	0.000392	0.273538
-0.498361	-1.411101	4.999680	0.000318	0.273719
-0.268174	-1.379147	5.009677	0.000262	0.274034
-0.169233	-1.399371	5.019674	0.000239	0.274030
-0.091039	-1.365858	5.029670	0.000220	0.274229
-0.224809	-1.329900	5.039667	0.000253	0.274267
-0.315686	-1.248612	5.049664	0.000275	0.274526
-0.373512	-1.189920	5.059661	0.000290	0.274718
-0.312835	-1.147134	5.069658	0.000275	0.274941
-0.408428	-1.060095	5.079654	0.000299	0.275218
-0.356649	-0.998447	5.089651	0.000286	0.275510
-0.276016	-0.944178	5.099648	0.000267	0.275794
-0.074711	-0.917594	5.109645	0.000218	0.276062
0.033509	-0.893330	5.119642	0.000192	0.276246
0.123269	-0.855977	5.129638	0.000170	0.276469
0.194611	-0.803362	5.139635	0.000153	0.276738
0.141807	-0.757781	5.149632	0.000166	0.276880
0.007004	-0.665870	5.159629	0.000199	0.277144
-0.020709	-0.590375	5.169626	0.000206	0.277427
0.077478	-0.534078	5.179622	0.000183	0.277731
0.136115	-0.471816	5.189619	0.000169	0.278028
0.334868	-0.439944	5.199616	0.000120	0.278313
0.365242	-0.389991	5.209613	0.000113	0.278538
0.471725	-0.354807	5.219610	0.000087	0.278763
0.309381	-0.257054	5.229606	0.000127	0.279027
0.232293	-0.179822	5.239603	0.000146	0.279275
0.002937	-0.041784	5.249600	0.000203	0.279648
0.000000	0.019851	5.259597	0.000204	0.279892

0.096836	0.074025	5.264602	0.000180	0.280185
0.092385	0.129098	5.269606	0.000181	0.280401
0.129432	0.182365	5.274611	0.000172	0.280643
0.155420	0.248214	5.279616	0.000166	0.280926
0.299403	0.292300	5.284621	0.000131	0.281215
0.413260	0.349855	5.289626	0.000103	0.281533
0.442709	0.419885	5.294630	0.000096	0.281835
0.557827	0.478842	5.299635	0.000068	0.282159
0.681649	0.541207	5.304640	0.000038	0.282503
0.656707	0.628917	5.309645	0.000044	0.282831
0.609736	0.733313	5.314650	0.000056	0.283208
0.621726	0.835097	5.319654	0.000053	0.283620
0.618901	0.946604	5.324659	0.000054	0.284058
0.633298	1.038415	5.329664	0.000050	0.284431
0.535434	1.186799	5.334669	0.000074	0.284940
0.616950	1.293844	5.339674	0.000054	0.285424
0.529277	1.441506	5.344678	0.000076	0.285936
0.575908	1.585032	5.349683	0.000064	0.286534
0.693136	1.705450	5.354688	0.000036	0.287095
0.772147	1.836675	5.359693	0.000017	0.287667
0.983787	1.945382	5.364698	-0.000035	0.288253
1.081190	2.076747	5.369702	-0.000059	0.288837
1.036130	2.219626	5.374707	-0.000048	0.289357
1.141695	2.362699	5.379712	-0.000073	0.289992
1.271640	2.495620	5.384717	-0.000105	0.290604
1.338933	2.655983	5.389722	-0.000121	0.291273
1.354770	2.823803	5.394726	-0.000125	0.291930
1.609243	2.949125	5.399731	-0.000187	0.292603
1.603583	3.124113	5.404736	-0.000186	0.293268
1.551163	3.309881	5.409741	-0.000173	0.293939
1.626463	3.481595	5.414746	-0.000192	0.294649
1.608762	3.676150	5.419750	-0.000187	0.295376
1.580479	3.882020	5.424755	-0.000180	0.296136
1.674708	4.078806	5.429760	-0.000203	0.296950
1.682550	4.286420	5.434765	-0.000205	0.297739
1.607128	4.524813	5.439770	-0.000187	0.298580
1.724404	4.714722	5.444774	-0.000215	0.299379
1.690279	4.952240	5.449779	-0.000207	0.300242
1.815822	5.169149	5.454784	-0.000238	0.301143
1.822295	5.408528	5.459789	-0.000239	0.302038
1.934400	5.640379	5.464794	-0.000267	0.302980
1.869924	5.902654	5.469798	-0.000251	0.303903
1.902996	6.148713	5.474803	-0.000259	0.304833
1.923067	6.414885	5.479808	-0.000264	0.305826
2.033488	6.665642	5.484813	-0.000291	0.306823
2.068514	6.940120	5.489818	-0.000300	0.307850
2.167130	7.197744	5.494822	-0.000324	0.308858
2.137417	7.474536	5.499827	-0.000317	0.309841
2.270591	7.745823	5.504832	-0.000349	0.310916
2.332236	8.033031	5.509837	-0.000364	0.311994
2.451613	8.313582	5.514842	-0.000394	0.313085
2.334938	8.636802	5.519846	-0.000365	0.314159
2.394739	8.937619	5.524851	-0.000380	0.315273
2.576416	9.227423	5.529856	-0.000424	0.316429
2.677968	9.533146	5.534861	-0.000449	0.317581
2.776317	9.840950	5.539866	-0.000473	0.318735
2.993759	10.111613	5.544870	-0.000526	0.319835
3.062844	10.434978	5.549875	-0.000543	0.321015
3.061923	10.779714	5.554880	-0.000543	0.322217
3.108171	11.116219	5.559885	-0.000555	0.323418
3.357560	11.406120	5.564890	-0.000616	0.324591
3.310982	11.767504	5.569894	-0.000604	0.325806
3.445866	12.102696	5.574899	-0.000637	0.327049
3.479822	12.463751	5.579904	-0.000646	0.328308
3.467560	12.813874	5.584909	-0.000643	0.329494
3.410035	13.211053	5.589914	-0.000629	0.330805
3.485081	13.586428	5.594918	-0.000647	0.332126
3.476137	13.986795	5.599923	-0.000645	0.333469
3.605171	14.356146	5.604928	-0.000677	0.334794
3.629851	14.755798	5.609933	-0.000683	0.336147
3.673260	15.174702	5.614938	-0.000694	0.337571
3.910144	15.535052	5.619942	-0.000752	0.338920
3.915933	15.953263	5.624947	-0.000753	0.340305
4.188798	16.331699	5.629952	-0.000820	0.341726
4.279894	16.742273	5.634957	-0.000843	0.343130
4.451130	17.130649	5.639962	-0.000885	0.344506
4.544848	17.551663	5.644966	-0.000908	0.345934
4.529326	17.995615	5.649971	-0.000904	0.347361
4.582119	18.440434	5.654976	-0.000917	0.348828
4.500585	18.902396	5.659981	-0.000897	0.350260
4.552930	19.373069	5.664986	-0.000910	0.351797
4.713522	19.813077	5.669990	-0.000950	0.353297
4.818195	20.255230	5.674995	-0.000975	0.354763
4.763522	20.761910	5.680000	-0.000962	0.356328
4.952470	21.221643	5.685005	-0.001009	0.357889
5.102625	21.671028	5.690010	-0.001045	0.359386
5.145779	22.165880	5.695014	-0.001056	0.360954
5.271208	22.654497	5.700019	-0.001087	0.362546
5.346689	23.145653	5.705024	-0.001106	0.364108
5.320736	23.667067	5.710029	-0.001100	0.365695
5.602833	24.148784	5.715034	-0.001169	0.367339
5.579839	24.668714	5.720038	-0.001163	0.368910
5.597017	25.196601	5.725043	-0.001168	0.370522
5.767058	25.725656	5.730048	-0.001209	0.372221
5.829732	26.249390	5.735053	-0.001225	0.373833
5.917053	26.789488	5.740058	-0.001247	0.375501
5.968457	27.353131	5.745062	-0.001259	0.377211
6.065641	27.894102	5.750067	-0.001283	0.378873
6.119458	28.467644	5.755072	-0.001297	0.380599
6.146211	29.049121	5.760077	-0.001303	0.382324
6.211153	29.636751	5.765082	-0.001320	0.384082
6.326811	30.214952	5.770086	-0.001348	0.385833
6.397838	30.818418	5.775091	-0.001366	0.387624
6.635029	31.363718	5.780096	-0.001424	0.389333
6.887003	31.931751	5.785101	-0.001486	0.391107
6.863874	32.560891	5.790106	-0.001480	0.392895
7.146975	33.113719	5.795110	-0.001550	0.394628
7.336306	33.709973	5.800115	-0.001596	0.396424
7.541090	34.294692	5.805120	-0.001647	0.398188
7.504762	34.917143	5.810125	-0.001638	0.399918
7.705920	35.533920	5.815130	-0.001688	0.401754
7.812609	36.153258	5.820134	-0.001714	0.403538
7.824877	36.798643	5.825139	-0.001717	0.405335
7.947754	37.445057	5.830144	-0.001747	0.407186
7.944972	38.092499	5.835149	-0.001747	0.408965
7.903152	38.789385	5.840154	-0.001737	0.410850
8.053398	39.456171	5.845158	-0.001774	0.412746
8.078724	40.130541	5.850163	-0.001781	0.414589
8.134686	40.845586	5.855168	-0.001795	0.416549
8.281357	41.520504	5.860173	-0.001831	0.418439
8.478632	42.200680	5.865178	-0.001880	0.420362
8.725165	42.883241	5.870182	-0.001940	0.422307
9.039689	43.528078	5.875187	-0.002017	0.424179
9.265487	44.212034	5.880192	-0.002073	0.426100
9.368784	44.907272	5.885197	-0.002098	0.427980
9.511427	45.597674	5.890202	-0.002133	0.429858
9.660307	46.307791	5.895206	-0.002170	0.431783
9.970964	46.965215	5.900211	-0.002246	0.433644
9.990271	47.699777	5.905216	-0.002252	0.435550
9.946133	48.454040	5.910221	-0.002241	0.437467
10.005337	49.188677	5.915226	-0.002256	0.439376
9.838197	50.005823	5.920230	-0.002216	0.441375
9.893326	50.777448	5.925235	-0.002229	0.443359
10.018746	51.557612	5.930240	-0.002260	0.445390
10.213917	52.321597	5.935245	-0.002309	0.447406
10.358448	53.089949	5.940250	-0.002344	0.449398
10.434813	53.888897	5.945254	-0.002363	0.451425
10.646364	54.662606	5.950259	-0.002415	0.453446
10.815605	55.454115	5.955264	-0.002457	0.455481
10.998754	56.249844	5.960269	-0.002502	0.457524
11.149070	57.037955	5.965274	-0.002539	0.459524
11.308260	57.853868	5.970278	-0.002579	0.461587
11.532023	58.639451	5.975283	-0.002634	0.463598
11.602596	59.477966	5.980288	-0.002652	0.465655
11.644737	60.318716	5.985293	-0.002662	0.467696
11.865581	61.121183	5.990298	-0.002717	0.469720
11.779398	62.021807	5.995302	-0.002696	0.471826
11.894555	62.858165	6.000307	-0.002725	0.473863
12.097727	63.720243	6.005312	-0.002775	0.475993
12.000867	64.627053	6.010317	-0.002752	0.478081
12.104209	65.514226	6.015322	-0.002777	0.480205
12.119810	66.442336	6.020326	-0.002782	0.482375
12.311676	67.325982	6.025331	-0.002829	0.484512
12.481139	68.245725	6.030336	-0.002871	0.486713
12.592629	69.134743	6.035341	-0.002899	0.488808
12.766790	70.063451	6.040346	-0.002942	0.491012
12.883713	70.988852	6.045350	-0.002971	0.493173
13.086519	71.905477	6.050355	-0.003021	0.495343
13.349464	72.821843	6.055360	-0.003086	0.497529
13.508937	73.738768	6.060365	-0.003125	0.499662
13.858790	74.647292	6.065370	-0.003211	0.501849
13.950206	75.578779	6.070374	-0.003234	0.503966
14.075137	76.536033	6.075379	-0.003265	0.506146
14.247257	77.472528	6.080384	-0.003307	0.508291
14.278146	78.446333	6.085389	-0.003315	0.510449
14.396988	79.419544	6.090394	-0.003345	0.512634
14.440910	80.407793	6.095398	-0.003356	0.514810
14.431625	81.433699	6.100403	-0.003355	0.517037
14.589609	82.418429	6.105408	-0.003394	0.519235
14.683938	83.442858	6.110413	-0.003417	0.521483
14.819912	84.455195	6.115418	-0.003451	0.523713
14.883833	85.509232	6.120422	-0.003467	0.525992
15.077892	86.511254	6.125427	-0.003515	0.528204
15.327073	87.534313	6.130432	-0.003577	0.530475
15.572385	88.545831	6.135437	-0.003637	0.532709
15.840310	89.556504	6.140442	-0.003703	0.534942
16.187606	90.555886	6.145446	-0.003789	0.537174
16.245919	91.586587	6.150451	-0.003804	0.539346
16.424222	92.641153	6.155456	-0.003848	0.541606
16.373609	93.711544	6.160461	-0.003836	0.543798
16.728815	94.750097	6.165466	-0.003923	0.546077
16.829563	95.796688	6.170470	-0.003949	0.548263
16.957585	96.868002	6.175475	-0.003980	0.550501
17.113933	97.942594	6.180480	-0.004019	0.552747
17.066345	99.056907	6.185485	-0.004008	0.554985
17.174674	100.171070	6.190490	-0.004035	0.557275
17.379683	101.256769	6.195494	-0.004086	0.559535
17.484398	102.383241	6.200499	-0.004112	0.561829
17.762470	103.475788	6.205504	-0.004181	0.564113
17.865482	104.608286	6.210509	-0.004207	0.566400
18.070277	105.702395	6.215514	-0.004257	0.568640
18.184238	106.855590	6.220518	-0.004286	0.570954
18.243457	107.995883	6.225523	-0.004301	0.573212
18.392250	109.167067	6.230528	-0.004338	0.575555
18.387869	110.344417	6.235533	-0.004338	0.577843
18.421517	111.553281	6.240538	-0.004347	0.580198
18.626094	112.736274	6.245542	-0.004397	0.582556
18.550050	113.978252	6.250547	-0.004379	0.584914
18.745694	115.191662	6.255552	-0.004428	0.587309
18.874742	116.402184	6.260557	-0.004460	0.589663
19.162751	117.607153	6.265562	-0.004531	0.592056
19.280418	118.829779	6.270566	-0.004561	0.594411
19.452852	120.063153	6.275571	-0.004604	0.596796
19.856244	121.235729	6.280576	-0.004703	0.599141
19.856273	122.503416	6.285581	-0.004704	0.601510
20.171731	123.706751	6.290586	-0.004781	0.603862
20.393938	124.941893	6.295590	-0.004836	0.606231
20.629370	126.135828	6.300595	-0.004895	0.608520
20.792381	127.395603	6.305600	-0.004935	0.610895
20.919118	128.621664	6.310605	-0.004967	0.613186
21.068378	129.895320	6.315610	-0.005004	0.615564
21.304695	131.130069	6.320614	-0.005062	0.617892
21.240875	132.445682	6.325619	-0.005048	0.620253
21.476531	133.718736	6.330624	-0.005106	0.622633
21.595955	135.015701	6.335629	-0.005136	0.625006
21.684961	136.313616	6.340634	-0.005158	0.627361
21.739979	137.642697	6.345638	-0.005173	0.629751
21.845631	138.969910	6.350643	-0.005199	0.632147
22.109890	140.281024	6.355648	-0.005265	0.634558
22.282849	141.598450	6.360653	-0.005308	0.636941
22.547941	142.906248	6.365658	-0.005373	0.639329
22.702437	144.246788	6.370662	-0.005412	0.641728
22.845532	145.580768	6.375667	-0.005447	0.644103
22.968041	146.951614	6.380672	-0.005478	0.646526
23.162414	148.271117	6.385677	-0.005527	0.648876
23.369581	149.636655	6.390682	-0.005578	0.651300
23.541749	150.989375	6.395686	-0.005621	0.653682
23.569430	152.392910	6.400691	-0.005628	0.656094
23.743091	153.765079	6.405696	-0.005672	0.658492
23.853820	155.174080	6.410701	-0.005700	0.660924
23.857229	156.606544	6.415706	-0.005701	0.663351
24.066917	158.036374	6.420710	-0.005753	0.665832
24.237791	159.428227	6.425715	-0.005796	0.668227
24.365010	160.888208	6.430720	-0.005828	0.670713
24.564792	162.285137	6.435725	-0.005878	0.673109
24.742213	163.743715	6.440730	-0.005922	0.675591
24.925596	165.159380	6.445734	-0.005967	0.677995
25.280447	166.578107	6.450739	-0.006055	0.680450
25.483512	167.998484	6.455744	-0.006105	0.682850
25.549118	169.477585	6.460749	-0.006122	0.685296
25.822598	170.872203	6.465754	-0.006190	0.687659
25.914337	172.360316	6.470758	-0.006213	0.690110
26.000400	173.820322	6.475763	-0.006235	0.692505
26.183146	175.322919	6.480768	-0.006281	0.694991
26.188531	176.814230	6.485773	-0.006283	0.697394
26.300897	178.347034	6.490778	-0.006311	0.699889
26.522134	179.838488	6.495782	-0.006366	0.702342
26.584771	181.385989	6.500787	-0.006383	0.704828
26.955948	182.848216	6.505792	-0.006474	0.707263
27.140642	184.366592	6.510797	-0.006520	0.709722
27.103788	185.922469	6.515802	-0.006512	0.712165
27.403902	187.450275	6.520806	-0.006586	0.714656
27.447835	188.997550	6.525811	-0.006598	0.717093
27.584876	190.580135	6.530816	-0.006633	0.719604
27.770054	192.131432	6.535821	-0.006679	0.722073
27.902850	193.722728	6.540826	-0.006712	0.724579
28.049254	195.290071	6.545830	-0.006749	0.727043
28.085630	196.905144	6.550835	-0.006759	0.729541
28.314228	198.496740	6.555840	-0.006816	0.732050
28.320214	200.144209	6.560845	-0.006818	0.734571
28.584514	201.740343	6.565850	-0.006884	0.737080
28.781341	203.369534	6.570854	-0.006933	0.739611
28.841796	205.016164	6.575859	-0.006949	0.742121
29.198632	206.641185	6.580864	-0.007037	0.744674
29.316402	208.261640	6.585869	-0.007067	0.747144
29.522203	209.916767	6.590874	-0.007118	0.749682
29.862988	211.506858	6.595878	-0.007202	0.752153
29.919631	213.180566	6.600883	-0.007217	0.754660
30.259062	214.782675	6.605888	-0.007301	0.757133
30.319804	216.461949	6.610893	-0.007317	0.759632
30.373206	218.137216	6.615898	-0.007331	0.762116
30.555608	219.830795	6.620902	-0.007376	0.764655
30.697588	221.482228	6.625907	-0.007412	0.767112
30.814095	223.212840	6.630912	-0.007442	0.769669
30.986014	224.887020	6.635917	-0.007485	0.772152
31.160641	226.617101	6.640922	-0.007528	0.774708
31.400836	228.291575	6.645926	-0.007588	0.777193
31.556587	230.025750	6.650931	-0.007627	0.779734
31.795179	231.725488	6.655936	-0.007687	0.782239
31.816346	233.501667	6.660941	-0.007693	0.784786
31.879460	235.225544	6.665946	-0.007709	0.787262
31.887633	237.051286	6.670950	-0.007713	0.789861
32.155105	238.770672	6.675955	-0.007779	0.792369
32.491935	240.539781	6.680960	-0.007862	0.794958
32.509569	242.306324	6.685965	-0.007868	0.797451
32.620026	244.135240	6.690970	-0.007896	0.800047
32.883924	245.905228	6.695974	-0.007962	0.802594
33.119990	247.692064	6.700979	-0.008020	0.805148
33.110371	249.513770	6.705984	-0.008019	0.807678
33.226569	251.358350	6.710989	-0.008049	0.810265
33.430531	253.171785	6.715994	-0.008100	0.812824
33.717855	254.993212	6.720998	-0.008171	0.815407
33.816129	256.825124	6.726003	-0.008196	0.817947
34.236325	258.636746	6.731008	-0.008300	0.820535
34.451095	260.444346	6.736013	-0.008354	0.823056
34.792901	262.241942	6.741018	-0.008438	0.825589
34.951238	264.051488	6.746022	-0.008478	0.828083
35.261010	265.839484	6.751027	-0.008555	0.830579
35.585487	267.618524	6.756032	-0.008635	0.833059
35.558563	269.467813	6.761037	-0.008630	0.835538
35.597323	271.321283	6.766042	-0.008640	0.838031
35.799324	273.177284	6.771046	-0.008691	0.840561
35.856460	275.044350	6.776051	-0.008706	0.843061
36.013986	276.928768	6.781056	-0.008746	0.845603
35.854862	278.868885	6.786061	-0.008708	0.848131
36.097331	280.772164	6.791066	-0.008768	0.850704
36.105041	282.736167	6.796070	-0.008772	0.853290
36.187976	284.684424	6.801075	-0.008793	0.855866
36.411586	286.643479	6.806080	-0.008849	0.858483
36.583794	288.594112	6.811085	-0.008892	0.861069
36.823896	290.555228	6.816090	-0.008952	0.863677
37.111440	292.473967	6.821094	-0.009024	0.866234
37.283123	294.429096	6.826099	-0.009067	0.868802
37.664980	296.333144	6.831104	-0.009161	0.871348
37.771773	298.315989	6.836109	-0.009189	0.873921
38.107360	300.211733	6.841114	-0.009272	0.876430
38.450556	302.150255	6.846118	-0.009357	0.878988
38.546359	304.082061	6.851123	-0.009382	0.881471
38.805162	306.052648	6.856128	-0.009446	0.884035
38.962469	307.950687	6.861133	-0.009486	0.886475
39.056060	309.950663	6.866138	-0.009510	0.889023
39.006950	311.961499	6.871142	-0.009499	0.891543
39.098456	314.003276	6.876147	-0.009523	0.894128
39.260499	316.003114	6.881152	-0.009564	0.896670
39.325403	318.064848	6.886157	-0.009581	0.899259
39.241869	320.157128	6.891162	-0.009562	0.901844
39.514323	322.239557	6.896166	-0.009630	0.904492
39.441130	324.329406	6.901171	-0.009613	0.907061
39.730021	326.443555	6.906176	-0.009685	0.909737
39.944050	328.501563	6.911181	-0.009739	0.912318
40.143124	330.606046	6.916186	-0.009788	0.914946
40.317704	332.706017	6.921190	-0.009832	0.917555
40.615267	334.776577	6.926195	-0.009906	0.920148
40.913635	336.868701	6.931200	-0.009981	0.922761
41.107598	338.939581	6.936205	-0.010029	0.925317
41.420190	340.999496	6.941210	-0.010107	0.927879
41.721883	343.061508	6.946214	-0.010182	0.930435
41.889528	345.140713	6.951219	-0.010224	0.932974
41.990719	347.246208	6.956224	-0.010250	0.935522
42.279146	349.317297	6.961229	-0.010322	0.938065
42.443700	351.417636	6.966234	-0.010364	0.940608
42.464369	353.573190	6.971238	-0.010370	0.943177
42.502441	355.699728	6.976243	-0.010381	0.945709
42.807524	357.831075	6.981248	-0.010457	0.948299
42.820344	359.981187	6.986253	-0.010461	0.950840
43.032136	362.156453	6.991258	-0.010514	0.953447
43.130714	364.318164	6.996262	-0.010540	0.956006
43.484933	366.468770	7.001267	-0.010628	0.958601
43.589436	368.638917	7.006272	-0.010655	0.961158
43.879628	370.816358	7.011277	-0.010727	0.963757
44.084613	372.931623	7.016282	-0.010778	0.966257
44.226698	375.149160	7.021286	-0.010815	0.968857
44.275601	377.326025	7.026291	-0.010828	0.971382
44.680189	379.514908	7.031296	-0.010928	0.973991
44.739611	381.695173	7.036301	-0.010944	0.976509
44.827313	383.934226	7.041306	-0.010967	0.979094
44.916554	386.177738	7.046310	-0.010990	0.981678
45.005573	388.443024	7.051315	-0.011013	0.984280
45.212972	390.686211	7.056320	-0.011066	0.986874
45.334773	392.950983	7.061325	-0.011097	0.989468
45.480861	395.215215	7.066330	-0.011134	0.992060
45.633094	397.501434	7.071334	-0.011173	0.994671
45.888393	399.745482	7.076339	-0.011236	0.997250
46.054047	402.044634	7.081344	-0.011278	0.999865
46.313315	404.309872	7.086349	-0.011343	1.002454
46.707452	406.523279	7.091354	-0.011441	1.005007
46.945894	408.779057	7.096358	-0.011501	1.007568
47.168096	411.003268	7.101363	-0.011556	1.010084
47.439544	413.262867	7.106368	-0.011624	1.012644
47.579624	415.504053	7.111373	-0.011660	1.015149
47.841651	417.756678	7.116378	-0.011725	1.017686
47.888511	420.049439	7.121382	-0.011738	1.020217
48.089349	422.333972	7.126387	-0.011789	1.022764
48.310323	424.586556	7.131392	-0.011844	1.025274
48.347377	426.903454	7.136397	-0.011855	1.027811
48.504962	429.195401	7.141402	-0.011895	1.030338
48.677184	431.534475	7.146406	-0.011938	1.032914
48.659915	433.865988	7.151411	-0.011935	1.035437
48.956880	436.217111	7.156416	-0.012009	1.038037
49.058531	438.550665	7.161421	-0.012036	1.040573
49.187486	440.946642	7.166426	-0.012069	1.043176
49.426138	443.263230	7.171430	-0.012129	1.045709
49.602707	445.649962	7.176435	-0.012173	1.048298
49.970412	447.962508	7.181440	-0.012265	1.050839
50.073330	450.348754	7.186445	-0.012291	1.053401
50.345609	452.671240	7.191450	-0.012359	1.055921
50.689970	455.030983	7.196454	-0.012445	1.058489
50.790597	457.366485	7.201459	-0.012471	1.060979
50.991709	459.755365	7.206464	-0.012522	1.063537
51.168811	462.092361	7.211469	-0.012567	1.066031
51.423568	464.453034	7.216474	-0.012630	1.068558
51.435054	466.836672	7.221478	-0.012635	1.071057
51.482522	469.274271	7.226483	-0.012648	1.073614
51.798361	471.639843	7.231488	-0.012727	1.076140
51.950370	474.068409	7.236493	-0.012765	1.078694
51.928212	476.505759	7.241498	-0.012761	1.081219
52.267166	478.931540	7.246502	-0.012846	1.083794
52.352640	481.334672	7.251507	-0.012868	1.086292
52.681657	483.767706	7.256512	-0.012950	1.088861
52.829826	486.191885	7.261517	-0.012988	1.091380
53.016255	488.633678	7.266522	-0.013035	1.093919
53.307573	491.050395	7.271526	-0.013108	1.096446
53.507530	493.481134	7.276531	-0.013158	1.098964
53.875265	495.882516	7.281536	-0.013250	1.101478
54.019308	498.287127	7.286541	-0.013286	1.103948
54.150547	500.701611	7.291546	-0.013320	1.106420
54.352279	503.151630	7.296550	-0.013371	1.108936
54.504679	505.578892	7.301555	-0.013410	1.111413
54.579885	508.059810	7.306560	-0.013430	1.113925
54.600133	510.554789	7.311565	-0.013436	1.116436
54.761292	513.055712	7.316570	-0.013477	1.118972
54.899109	515.582335	7.321574	-0.013513	1.121524
54.885107	518.119371	7.326579	-0.013511	1.124053
55.171951	520.638993	7.331584	-0.013582	1.126614
55.321232	523.181481	7.336589	-0.013621	1.129166
55.766152	525.657836	7.341594	-0.013731	1.131701
55.907040	528.192798	7.346598	-0.013767	1.134233
56.115638	530.703359	7.351603	-0.013820	1.136747
56.368187	533.225536	7.356608	-0.013883	1.139275
56.545587	535.755028	7.361613	-0.013928	1.141792
56.825567	538.236193	7.366618	-0.013998	1.144273
56.985070	540.770937	7.371622	-0.014039	1.146781
57.269719	543.242609	7.376627	-0.014110	1.149243
57.484524	545.764351	7.381632	-0.014164	1.151736
57.487885	548.303764	7.386637	-0.014166	1.154205
57.588831	550.864300	7.391642	-0.014193	1.156705
57.822480	553.419756	7.396646	-0.014251	1.159218
58.033805	555.967833	7.401651	-0.014305	1.161715
58.112056	558.529412	7.406656	-0.014325	1.164196
58.319136	561.095577	7.411661	-0.014378	1.166699
58.577266	563.639771	7.416666	-0.014442	1.169184
58.809668	566.222632	7.421670	-0.014501	1.171696
59.130431	568.729835	7.426675	-0.014581	1.174146
59.305199	571.305568	7.431680	-0.014625	1.176631
59.563700	573.847238	7.436685	-0.014690	1.179093
59.638871	576.422912	7.441690	-0.014710	1.181550
59.842368	578.981698	7.446694	-0.014761	1.184008
60.005360	581.544332	7.451699	-0.014803	1.186458
60.207021	584.118418	7.456704	-0.014854	1.188920
60.320552	586.722543	7.461709	-0.014883	1.191391
60.441997	589.313997	7.466714	-0.014915	1.193845
60.596295	591.949971	7.471718	-0.014954	1.196342
60.579812	594.609583	7.476723	-0.014952	1.198827
60.769522	597.275385	7.481728	-0.015000	1.201347
60.817734	599.942339	7.486733	-0.015013	1.203840
61.025300	602.607533	7.491738	-0.015066	1.206352
61.157446	605.307538	7.496742	-0.015100	1.208878
61.457752	607.968958	7.501747	-0.015175	1.211392
61.778770	610.612068	7.506752	-0.015255	1.213886
61.881902	613.299930	7.511757	-0.015282	1.216381
62.179999	615.948475	7.516762	-0.015357	1.218867
62.486464	618.623640	7.521766	-0.015433	1.221373
62.769584	621.233927	7.526771	-0.015504	1.223811
63.058821	623.858384	7.531776	-0.015577	1.226258
63.165191	626.501969	7.536781	-0.015604	1.228688
63.381450	629.141914	7.541786	-0.015659	1.231127
63.616744	631.779090	7.546790	-0.015718	1.233562
63.732208	634.420954	7.551795	-0.015748	1.235978
63.836343	637.106988	7.556800	-0.015775	1.238426
63.907826	639.816559	7.561805	-0.015794	1.240886
64.066079	642.495166	7.566810	-0.015835	1.243327
64.336105	645.176456	7.571814	-0.015903	1.245783
64.376345	647.890306	7.576819	-0.015914	1.248227
64.659690	650.601573	7.581824	-0.015985	1.250703
64.740338	653.338672	7.586829	-0.016007	1.253165
65.000105	656.032561	7.591834	-0.016072	1.255612
65.235853	658.766246	7.596838	-0.016131	1.258085
65.313036	661.494954	7.601843	-0.016152	1.260524
65.574178	664.225641	7.606848	-0.016217	1.262989
65.772462	666.923098	7.611853	-0.016268	1.265410
65.909347	669.668660	7.616858	-0.016303	1.267860
66.085670	672.413779	7.621862	-0.016348	1.270310
66.240492	675.168708	7.626867	-0.016387	1.272761
66.445582	677.907974	7.631872	-0.016439	1.275201
66.500898	680.720963	7.636877	-0.016455	1.277678
66.790546	683.458662	7.641882	-0.016527	1.280120
67.125466	686.218507	7.646886	-0.016611	1.282584
67.194881	688.946016	7.651891	-0.016630	1.284975
67.540675	691.709868	7.656896	-0.016716	1.287434
67.590938	694.475235	7.661901	-0.016730	1.289846
67.998402	697.216054	7.666906	-0.016831	1.292286
68.201317	699.944749	7.671910	-0.016883	1.294679
68.502787	702.676171	7.676915	-0.016958	1.297086
68.662359	705.416480	7.681920	-0.016999	1.299474
68.815815	708.191289	7.686925	-0.017038	1.301886
68.883760	710.871366	7.691930	-0.017057	1.304200
69.135854	713.674229	7.696934	-0.017120	1.306643
69.228890	716.390690	7.701939	-0.017144	1.308983
69.370082	719.234475	7.706944	-0.017181	1.311435
69.379420	722.014114	7.711949	-0.017185	1.313808
69.487484	724.875316	7.716954	-0.017213	1.316261
69.709014	727.703010	7.721958	-0.017269	1.318698
69.823351	730.574975	7.726963	-0.017299	1.321152
70.084919	733.360434	7.731968	-0.017365	1.323549
70.122562	736.260747	7.736973	-0.017376	1.326007
70.308613	739.097186	7.741978	-0.017423	1.328428
70.706231	741.956081	7.746982	-0.017522	1.330894
70.869157	744.763533	7.751987	-0.017564	1.333278
71.243552	747.595856	7.756992	-0.017657	1.335710
71.468008	750.407746	7.761997	-0.017714	1.338098
71.893533	753.171850	7.767002	-0.017820	1.340472
72.127153	755.942412	7.772006	-0.017878	1.342818
72.331024	758.692271	7.777011	-0.017930	1.345139
72.630239	761.456286	7.782016	-0.018005	1.347482
72.717146	764.222326	7.787021	-0.018028	1.349791
72.976880	767.010373	7.792026	-0.018093	1.352140
73.119756	769.774628	7.797030	-0.018130	1.354447
73.210867	772.600512	7.802035	-0.018154	1.356795
73.221139	775.419426	7.807040	-0.018159	1.359121
73.261042	778.350947	7.812045	-0.018170	1.361540
73.196441	781.189872	7.817050	-0.018156	1.363864
73.390403	784.150238	7.822054	-0.018206	1.366320
73.431852	787.049753	7.827059	-0.018218	1.368700
73.675307	790.020803	7.832064	-0.018279	1.371163
73.904309	792.908678	7.837069	-0.018337	1.373552
74.214012	795.825497	7.842074	-0.018415	1.375971
74.337712	798.747708	7.847078	-0.018447	1.378365
74.637224	801.675819	7.852083	-0.018522	1.380784
74.954186	804.528486	7.857088	-0.018601	1.383139
75.166191	807.432117	7.862093	-0.018655	1.385518
75.283777	810.309556	7.867098	-0.018685	1.387858
75.575344	813.216901	7.872102	-0.018759	1.390242
75.689233	816.098888	7.877107	-0.018788	1.392577
75.950776	818.982266	7.882112	-0.018854	1.394930
76.069968	821.909788	7.887117	-0.018885	1.397294
76.122639	824.839935	7.892122	-0.018900	1.399648
76.392835	827.779002	7.897126	-0.018968	1.402034
76.620270	830.654602	7.902131	-0.019025	1.404360
76.995680	833.547063	7.907136	-0.019119	1.406716
77.025448	836.460784	7.912141	-0.019128	1.409037
77.184462	839.401569	7.917146	-0.019169	1.411394
77.458126	842.284480	7.922150	-0.019238	1.413716
77.773668	845.203360	7.927155	-0.019317	1.416069
77.913277	848.090407	7.932160	-0.019353	1.418369
78.103805	851.035262	7.937165	-0.019401	1.420717
78.394645	853.862725	7.942170	-0.019474	1.422983
78.501283	856.797536	7.947174	-0.019502	1.425305
78.586655	859.717935	7.952179	-0.019525	1.427608
78.644338	862.680127	7.957184	-0.019541	1.429938
78.804946	865.658512	7.962189	-0.019582	1.432289
78.696368	868.667315	7.967194	-0.019557	1.434625
78.869026	871.722637	7.972198	-0.019602	1.437030
79.026935	874.745342	7.977203	-0.019642	1.439404
79.245643	877.781621	7.982208	-0.019698	1.441793
79.471072	880.779406	7.987213	-0.019755	1.444149
79.663887	883.816996	7.992218	-0.019804	1.446528
80.036089	886.799990	7.997222	-0.019897	1.448884
80.399619	889.774920	8.002227	-0.019988	1.451228
80.677652	892.688327	8.007232	-0.020057	1.453511
80.933734	895.680202	8.012237	-0.020122	1.455847
81.218521	898.569443	8.017242	-0.020193	1.458104
81.484219	901.539835	8.022246	-0.020260	1.460418
81.653248	904.423200	8.027251	-0.020303	1.462648
81.768755	907.403061	8.032256	-0.020334	1.464943
81.883506	910.342152	8.037261	-0.020364	1.467202
81.928360	913.315310	8.042266	-0.020377	1.469474
82.203597	916.304479	8.047270	-0.020446	1.471785
82.125228	919.307674	8.052275	-0.020429	1.474058
82.245493	922.378342	8.057280	-0.020460	1.476404
82.322896	925.430489	8.062285	-0.020481	1.478726
82.552803	928.506868	8.067290	-0.020539	1.481083
82.623949	931.541281	8.072294	-0.020558	1.483384
82.790254	934.659840	8.077299	-0.020601	1.485757
83.059227	937.687047	8.082304	-0.020669	1.488070
83.378981	940.785109	8.087309	-0.020749	1.490439
83.540918	943.774817	8.092314	-0.020791	1.492704
83.772256	946.893336	8.097318	-0.020849	1.495070
84.151238	949.872142	8.102323	-0.020944	1.497347
84.377380	952.911322	8.107328	-0.021001	1.499645
84.707762	955.878217	8.112333	-0.021084	1.501900
84.734113	958.885615	8.117338	-0.021092	1.504143
84.996661	961.908160	8.122342	-0.021158	1.506424
85.048101	964.942312	8.127347	-0.021173	1.508683
85.254324	967.991452	8.132352	-0.021225	1.510970
85.299834	971.048049	8.137357	-0.021238	1.513238
85.426447	974.149939	8.142362	-0.021271	1.515547
85.466374	977.247253	8.147366	-0.021283	1.517838
85.702353	980.402213	8.152371	-0.021343	1.520192
85.834810	983.447477	8.157376	-0.021377	1.522449
86.055800	986.607496	8.162381	-0.021433	1.524798
86.187481	989.696733	8.167386	-0.021467	1.527080
86.551414	992.828957	8.172390	-0.021558	1.529419
86.803948	995.886098	8.177395	-0.021622	1.531685
87.026653	998.960782	8.182400	-0.021679	1.533958
87.329262	1002.056966	8.187405	-0.021755	1.536252
87.446072	1005.126096	8.192410	-0.021785	1.538501
87.870130	1008.194859	8.197414	-0.021891	1.540784
88.030542	1011.180458	8.202419	-0.021932	1.542971
88.348850	1014.240122	8.207424	-0.022012	1.545227
88.589998	1017.211515	8.212429	-0.022073	1.547407
88.601019	1020.300542	8.217434	-0.022077	1.549641
88.760467	1023.348313	8.222438	-0.022118	1.551860
88.660113	1026.478012	8.227443	-0.022096	1.554104
88.855979	1029.589380	8.232448	-0.022146	1.556366
89.038139	1032.722637	8.237453	-0.022192	1.558640
89.108163	1035.864818	8.242458	-0.022212	1.560903
89.355181	1038.968887	8.247462	-0.022274	1.563156
89.538188	1042.133797	8.252467	-0.022321	1.565443
89.713461	1045.237355	8.257472	-0.022366	1.567681
89.869238	1048.444556	8.262477	-0.022406	1.569987
90.062485	1051.527536	8.267482	-0.022455	1.572207
90.460077	1054.689572	8.272486	-0.022554	1.574503
90.384819	1057.860800	8.277491	-0.022538	1.576747
90.655731	1061.016444	8.282496	-0.022606	1.579017
90.920821	1064.146610	8.287501	-0.022673	1.581265
91.152450	1067.242040	8.292506	-0.022732	1.583481
91.381071	1070.397249	8.297510	-0.022790	1.585737
91.483221	1073.513035	8.302515	-0.022817	1.587946
91.705592	1076.689214	8.307520	-0.022873	1.590209
91.985077	1079.771525	8.312525	-0.022943	1.592409
92.257864	1082.906692	8.317530	-0.023012	1.594643
92.381067	1086.039832	8.322534	-0.023044	1.596854
92.554312	1089.181838	8.327539	-0.023089	1.599075
92.749636	1092.287128	8.332544	-0.023138	1.601269
92.867879	1095.438734	8.337549	-0.023169	1.603484
93.107013	1098.576439	8.342554	-0.023230	1.605700
93.202751	1101.739670	8.347558	-0.023255	1.607914
93.361169	1104.934289	8.352563	-0.023296	1.610154
93.500926	1108.075313	8.357568	-0.023332	1.612351
93.819069	1111.283077	8.362573	-0.023412	1.614612
93.805320	1114.445238	8.367578	-0.023411	1.616801
94.029938	1117.697054	8.372582	-0.023468	1.619076
94.260548	1120.866620	8.377587	-0.023527	1.621291
94.428914	1124.061445	8.382592	-0.023570	1.623514
94.646463	1127.278752	8.387597	-0.023625	1.625755
94.694504	1130.459492	8.392602	-0.023639	1.627948
94.874953	1133.730008	8.397606	-0.023685	1.630215
95.053485	1136.897760	8.402611	-0.023731	1.632408
95.263393	1140.161628	8.407616	-0.023784	1.634667
95.561434	1143.320056	8.412621	-0.023859	1.636861
95.686393	1146.568900	8.417626	-0.023892	1.639095
95.891098	1149.754058	8.422630	-0.023944	1.641291
96.185250	1152.941839	8.427635	-0.024018	1.643495
96.343006	1156.136243	8.432640	-0.024059	1.645686
96.549051	1159.332631	8.437645	-0.024111	1.647881
96.827731	1162.539281	8.442650	-0.024181	1.650088
97.074354	1165.674183	8.447654	-0.024244	1.652239
97.219982	1168.900748	8.452659	-0.024281	1.654439
97.426987	1172.053766	8.457664	-0.024334	1.656593
97.655124	1175.289687	8.462669	-0.024392	1.658802
97.716501	1178.439569	8.467674	-0.024409	1.660932
98.005068	1181.618661	8.472678	-0.024482	1.663104
98.088427	1184.840820	8.477683	-0.024504	1.665280
98.219992	1188.028489	8.482688	-0.024538	1.667435
98.406769	1191.309929	8.487693	-0.024586	1.669656
98.477111	1194.483791	8.492698	-0.024605	1.671789
98.686191	1197.798824	8.497702	-0.024659	1.674029
98.903681	1201.005949	8.502707	-0.024714	1.676194
99.176328	1204.246107	8.507712	-0.024783	1.678385
99.362528	1207.482039	8.512717	-0.024830	1.680561
99.623094	1210.650863	8.517722	-0.024896	1.682698
99.769103	1213.928529	8.522726	-0.024934	1.684891
99.885670	1217.120886	8.527731	-0.024965	1.687022
99.981813	1220.437260	8.532736	-0.024990	1.689231
100.196914	1223.655828	8.537741	-0.025045	1.691384
100.426914	1226.931003	8.542746	-0.025103	1.693574
100.733405	1230.173621	8.547750	-0.025180	1.695747
100.846749	1233.427829	8.552755	-0.025210	1.697905
101.054995	1236.672423	8.557760	-0.025263	1.700064
101.249758	1239.905811	8.562765	-0.025313	1.702211
101.444391	1243.170248	8.567770	-0.025363	1.704375
101.678960	1246.349901	8.572775	-0.025422	1.706486
101.761232	1249.647344	8.577779	-0.025444	1.708655
102.000578	1252.866606	8.582784	-0.025505	1.710787
102.250922	1256.131953	8.587789	-0.025568	1.712947
102.436528	1259.373096	8.592794	-0.025616	1.715082
102.662172	1262.597583	8.597799	-0.025673	1.717208
102.760029	1265.901233	8.602803	-0.025699	1.719369
102.882331	1269.075000	8.607808	-0.025731	1.721446
103.139765	1272.401130	8.612813	-0.025796	1.723633
103.261310	1275.629463	8.617818	-0.025828	1.725739
103.419140	1278.937256	8.622823	-0.025869	1.727899
103.481347	1282.248287	8.627827	-0.025886	1.730048
103.591881	1285.552392	8.632832	-0.025915	1.732194
103.884794	1288.912729	8.637837	-0.025989	1.734393
103.874092	1292.215653	8.642842	-0.025989	1.736521
104.109000	1295.626054	8.647847	-0.026048	1.738741
104.078494	1298.941868	8.652851	-0.026043	1.740870
104.382910	1302.321981	8.657856	-0.026120	1.743072
104.550813	1305.698646	8.662861	-0.026163	1.745255
104.889156	1309.011421	8.667866	-0.026248	1.747411
105.096572	1312.394294	8.672871	-0.026301	1.749597
105.396815	1315.657544	8.677875	-0.026376	1.751712
105.679314	1318.994712	8.682880	-0.026448	1.753871
105.969862	1322.237800	8.687885	-0.026521	1.755967
106.142385	1325.542750	8.692890	-0.026565	1.758089
106.340783	1328.813538	8.697895	-0.026616	1.760189
106.549420	1332.071692	8.702899	-0.026669	1.762279
106.845409	1335.355732	8.707904	-0.026743	1.764392
107.000997	1338.590251	8.712909	-0.026783	1.766457
107.111662	1341.904039	8.717914	-0.026813	1.768565
107.350138	1345.168371	8.722919	-0.026873	1.770653
107.417276	1348.483359	8.727923	-0.026892	1.772752
107.402787	1351.838898	8.732928	-0.026890	1.774867
107.698624	1355.168573	8.737933	-0.026965	1.776994
107.825898	1358.538224	8.742938	-0.026998	1.779126
107.985656	1361.818138	8.747943	-0.027039	1.781203
108.254164	1365.191412	8.752947	-0.027107	1.783346
108.471432	1368.464751	8.757952	-0.027163	1.785420
108.702206	1371.810205	8.762957	-0.027221	1.787537
108.850264	1375.124698	8.767962	-0.027259	1.789624
109.100273	1378.415932	8.772967	-0.027323	1.791705
109.241559	1381.776628	8.777971	-0.027360	1.793815
109.299319	1385.075428	8.782976	-0.027376	1.795877
109.700522	1388.457199	8.787981	-0.027476	1.798021
109.729214	1391.745228	8.792986	-0.027485	1.800068
109.903435	1395.081235	8.797991	-0.027530	1.802157
110.051391	1398.482424	8.802995	-0.027568	1.804281
110.184221	1401.808858	8.808000	-0.027603	1.806354
110.368925	1405.243912	8.813005	-0.027651	1.808498
110.594573	1408.529184	8.818010	-0.027708	1.810550
110.836471	1411.942480	8.823015	-0.027769	1.812681
111.077887	1415.295123	8.828019	-0.027830	1.814772
111.253566	1418.616785	8.833024	-0.027876	1.816835
111.498958	1422.019566	8.838029	-0.027938	1.818952
111.633070	1425.261932	8.843034	-0.027973	1.820957
111.991615	1428.630916	8.848039	-0.028062	1.823059
112.241453	1431.894910	8.853043	-0.028126	1.825084
112.370842	1435.213375	8.858048	-0.028160	1.827129
112.512883	1438.568113	8.863053	-0.028196	1.829195
112.500901	1441.892466	8.868058	-0.028196	1.831225
112.711559	1445.324310	8.873063	-0.028249	1.833340
112.915079	1448.649866	8.878067	-0.028301	1.835387
112.985961	1452.074280	8.883072	-0.028321	1.837479
113.141854	1455.479001	8.888077	-0.028361	1.839565
113.178596	1458.858436	8.893082	-0.028373	1.841622
113.305689	1462.366462	8.898087	-0.028406	1.843763
113.447898	1465.787408	8.903091	-0.028443	1.845850
113.714028	1469.271389	8.908096	-0.028510	1.847984
114.016360	1472.661241	8.913101	-0.028586	1.850063
114.262855	1476.062293	8.918106	-0.028649	1.852141
114.518334	1479.505215	8.923111	-0.028714	1.854242
114.612263	1482.913675	8.928115	-0.028739	1.856305
115.000284	1486.314385	8.933120	-0.028836	1.858389
115.270376	1489.633753	8.938125	-0.028904	1.860410
115.500869	1492.993559	8.943130	-0.028963	1.862450
115.772509	1496.333408	8.948135	-0.029031	1.864479
115.828251	1499.657085	8.953139	-0.029047	1.866477
116.006191	1503.073402	8.958144	-0.029093	1.868539
116.120308	1506.377708	8.963149	-0.029123	1.870526
116.150580	1509.836879	8.968154	-0.029133	1.872596
116.353089	1513.266581	8.973159	-0.029184	1.874661
116.514196	1516.683915	8.978163	-0.029226	1.876713
116.815649	1520.101264	8.983168	-0.029302	1.878776
116.880904	1523.465985	8.988173	-0.029320	1.880783
116.944170	1526.952366	8.993178	-0.029338	1.882861
117.273572	1530.360371	8.998183	-0.029421	1.884914
117.599976	1533.758970	9.003187	-0.029503	1.886958
117.723484	1537.184499	9.008192	-0.029535	1.888998
117.861303	1540.587322	9.013197	-0.029571	1.891024
118.206642	1544.011034	9.018202	-0.029658	1.893079
118.500786	1547.342905	9.023207	-0.029732	1.895072
118.672648	1550.772624	9.028211	-0.029776	1.897110
118.747596	1554.106750	9.033216	-0.029796	1.899081
119.002711	1557.482164	9.038221	-0.029861	1.901090
119.144562	1560.881794	9.043226	-0.029898	1.903101
119.168448	1564.278137	9.048231	-0.029906	1.905098
119.207913	1567.786186	9.053235	-0.029918	1.907159
119.273586	1571.258115	9.058240	-0.029936	1.909200
119.397719	1574.771404	9.063245	-0.029969	1.911267
119.650084	1578.275657	9.068250	-0.030033	1.913339
119.774778	1581.774388	9.073255	-0.030066	1.915393
120.138532	1585.295336	9.078259	-0.030157	1.917479
120.430629	1588.671842	9.083264	-0.030231	1.919473
120.686400	1592.127693	9.088269	-0.030295	1.921507
120.853322	1595.563566	9.093274	-0.030339	1.923520
121.013283	1598.993927	9.098279	-0.030380	1.925527
121.275632	1602.480938	9.103283	-0.030446	1.927574
121.537831	1605.837084	9.108288	-0.030513	1.929543
121.761794	1609.297116	9.113293	-0.030570	1.931566
121.829020	1612.712211	9.118298	-0.030588	1.933548
122.026198	1616.155737	9.123303	-0.030639	1.935555
122.325469	1619.609578	9.128307	-0.030714	1.937575
122.476071	1622.986411	9.133312	-0.030753	1.939535
122.585927	1626.465759	9.138317	-0.030782	1.941550
122.687516	1629.893825	9.143322	-0.030809	1.943531
122.942206	1633.319472	9.148327	-0.030874	1.945523
123.103801	1636.812870	9.153331	-0.030916	1.947543
123.368291	1640.170542	9.158336	-0.030983	1.949493
123.441875	1643.675550	9.163341	-0.031003	1.951508
123.732904	1647.093557	9.168346	-0.031076	1.953490
123.980106	1650.498980	9.173351	-0.031139	1.955459
124.141471	1653.975308	9.178355	-0.031181	1.957459
124.306631	1657.309695	9.183360	-0.031223	1.959377
124.473554	1660.800766	9.188365	-0.031266	1.961382
124.695218	1664.217193	9.193370	-0.031323	1.963347
124.860934	1667.614661	9.198375	-0.031366	1.965295
124.781923	1671.181641	9.203379	-0.031349	1.967316
125.066458	1674.584469	9.208384	-0.031420	1.969273
125.207454	1678.151780	9.213389	-0.031457	1.971309
125.221470	1681.650084	9.218394	-0.031463	1.973293
125.374137	1685.196293	9.223399	-0.031503	1.975314
125.585362	1688.780633	9.228403	-0.031557	1.977359
125.840026	1692.215064	9.233408	-0.031621	1.979321
126.054984	1695.758145	9.238413	-0.031676	1.981339
126.289291	1699.255547	9.243418	-0.031736	1.983331
126.643181	1702.687427	9.248423	-0.031824	1.985294
126.910189	1706.192459	9.253427	-0.031892	1.987289
127.108227	1709.559567	9.258432	-0.031943	1.989198
127.341214	1713.044127	9.263437	-0.032002	1.991175
127.488062	1716.493639	9.268442	-0.032040	1.993123
127.696778	1719.889606	9.273447	-0.032093	1.995044
127.894413	1723.409605	9.278451	-0.032144	1.997031
128.019243	1726.782209	9.283456	-0.032177	1.998929
128.196343	1730.243739	9.288461	-0.032222	2.000878
128.121921	1733.777300	9.293466	-0.032206	2.002845
128.327568	1737.264221	9.298471	-0.032259	2.004807
128.396626	1740.853279	9.303475	-0.032278	2.006813
128.617689	1744.359858	9.308480	-0.032334	2.008783
128.774513	1747.932093	9.313485	-0.032375	2.010783
128.861115	1751.522931	9.318490	-0.032399	2.012785
129.002796	1755.081236	9.323495	-0.032436	2.014772
129.300199	1758.690328	9.328499	-0.032511	2.016797
129.515046	1762.206321	9.333504	-0.032566	2.018763
129.835402	1765.742116	9.338509	-0.032646	2.020745
130.121076	1769.251214	9.343514	-0.032718	2.022708
130.278420	1772.699284	9.348519	-0.032759	2.024626
130.575459	1776.241111	9.353523	-0.032834	2.026604
130.787598	1779.664790	9.358528	-0.032888	2.028508
131.010618	1783.123359	9.363533	-0.032945	2.030431
130.954644	1786.673824	9.368538	-0.032934	2.032380
131.400047	1790.087990	9.373543	-0.033045	2.034292
131.601230	1793.613252	9.378547	-0.033096	2.036244
131.734849	1797.039274	9.383552	-0.033131	2.038135
131.940958	1800.473751	9.388557	-0.033184	2.040034
131.958031	1804.002579	9.393562	-0.033190	2.041968
132.125980	1807.501071	9.398567	-0.033234	2.043895
132.227152	1811.062517	9.403571	-0.033261	2.045850
132.279470	1814.626986	9.408576	-0.033276	2.047800
132.506405	1818.157216	9.413581	-0.033334	2.049744
132.670937	1821.766585	9.418586	-0.033376	2.051724
132.762858	1825.347744	9.423591	-0.033401	2.053681
132.988745	1828.946755	9.428595	-0.033459	2.055657
133.220378	1832.533254	9.433600	-0.033518	2.057624
133.349738	1836.050737	9.438605	-0.033552	2.059544
133.508001	1839.681138	9.443610	-0.033593	2.061525
133.800311	1843.232259	9.448615	-0.033667	2.063472
133.992260	1846.802596	9.453619	-0.033716	2.065420
134.061884	1850.406224	9.458624	-0.033735	2.067375
134.437385	1853.904105	9.463629	-0.033829	2.069294
134.516110	1857.543361	9.468634	-0.033851	2.071265
134.696919	1861.120048	9.473639	-0.033898	2.073208
135.001603	1864.672688	9.478643	-0.033974	2.075145
135.049421	1868.298603	9.483648	-0.033988	2.077101
135.347767	1871.775080	9.488653	-0.034064	2.078993
135.475132	1875.381962	9.493658	-0.034097	2.080941
135.778072	1878.930144	9.498663	-0.034174	2.082869
135.824107	1882.496267	9.503667	-0.034187	2.084785
136.128013	1886.079607	9.508672	-0.034264	2.086728
136.333210	1889.601296	9.513677	-0.034316	2.088629
136.430013	1893.178956	9.518682	-0.034342	2.090550
136.662982	1896.765842	9.523687	-0.034402	2.092484
136.933091	1900.282433	9.528691	-0.034470	2.094382
137.010984	1903.878014	9.533696	-0.034491	2.096306
137.328859	1907.419076	9.538701	-0.034571	2.098216
137.358453	1910.960946	9.543706	-0.034581	2.100104
137.620885	1914.566909	9.548711	-0.034648	2.102042
137.684276	1918.072327	9.553715	-0.034665	2.103910
137.807585	1921.728057	9.558720	-0.034698	2.105860
138.098096	1925.307512	9.563725	-0.034771	2.107780
138.155524	1928.858790	9.568730	-0.034788	2.109666
138.440999	1932.505171	9.573735	-0.034860	2.111618
138.522355	1936.087672	9.578739	-0.034882	2.113519
138.627062	1939.731322	9.583744	-0.034910	2.115453
138.876575	1943.382634	9.588749	-0.034974	2.117399
138.939071	1946.928246	9.593754	-0.034991	2.119274
139.221163	1950.632717	9.598759	-0.035063	2.121248
139.605752	1954.191193	9.603763	-0.035159	2.123150
139.737288	1957.767499	9.608768	-0.035193	2.125041
139.967078	1961.414453	9.613773	-0.035252	2.126975
140.164770	1964.900959	9.618778	-0.035303	2.128820
140.401132	1968.533097	9.623783	-0.035363	2.130743
140.714937	1972.083651	9.628787	-0.035442	2.132627
140.708598	1975.620207	9.633792	-0.035443	2.134479
140.911341	1979.285988	9.638797	-0.035495	2.136412
140.987171	1982.794142	9.643802	-0.035515	2.138252
141.259376	1986.393515	9.648807	-0.035584	2.140151
141.355973	1990.048930	9.653811	-0.035610	2.142066
141.500512	1993.578818	9.658816	-0.035648	2.143917
141.790800	1997.255612	9.663821	-0.035721	2.145854
141.856831	2000.845608	9.668826	-0.035740	2.147727
142.044393	2004.437890	9.673831	-0.035788	2.149609
142.101765	2008.176982	9.678835	-0.035805	2.151556
142.201861	2011.772199	9.683840	-0.035832	2.153429
142.463289	2015.535332	9.688845	-0.035898	2.155400
142.820734	2019.131762	9.693850	-0.035988	2.157289
142.947689	2022.701036	9.698855	-0.036021	2.159146
143.260409	2026.377704	9.703859	-0.036100	2.161070
143.397381	2029.935040	9.708864	-0.036136	2.162918
143.692863	2033.552338	9.713869	-0.036210	2.164807
143.697555	2037.230029	9.718874	-0.036214	2.166704
143.838289	2040.787782	9.723879	-0.036251	2.168548
144.057109	2044.517421	9.728883	-0.036307	2.170485
144.287071	2048.125721	9.733888	-0.036365	2.172357
144.441401	2051.776409	9.738893	-0.036405	2.174245
144.466417	2055.502713	9.743898	-0.036414	2.176161
144.711980	2059.122172	9.748903	-0.036476	2.178036
144.891573	2062.825704	9.753907	-0.036523	2.179947
145.157101	2066.476026	9.758912	-0.036590	2.181836
145.365327	2070.078826	9.763917	-0.036643	2.183695
145.470534	2073.787946	9.768922	-0.036672	2.185599
145.812502	2077.375232	9.773927	-0.036757	2.187456
146.013541	2080.984828	9.778931	-0.036809	2.189313
146.166456	2084.652151	9.783936	-0.036849	2.191194
146.414786	2088.229761	9.788941	-0.036912	2.193034
146.599843	2091.876993	9.793946	-0.036960	2.194905
146.781833	2095.504486	9.798951	-0.037006	2.196763
146.899701	2099.053785	9.803955	-0.037038	2.198575
147.130693	2102.702964	9.808960	-0.037096	2.200445
147.289886	2106.353333	9.813965	-0.037138	2.202308
147.366823	2109.982539	9.818970	-0.037159	2.204154
147.611883	2113.672264	9.823975	-0.037221	2.206040
147.893513	2117.253868	9.828979	-0.037293	2.207872
147.970699	2120.886767	9.833984	-0.037314	2.209715
148.090372	2124.626084	9.838989	-0.037346	2.211613
148.305735	2128.218774	9.843994	-0.037401	2.213442
148.408561	2131.967371	9.848999	-0.037428	2.215340
148.609367	2135.636665	9.854003	-0.037480	2.217203
148.865352	2139.204348	9.859008	-0.037545	2.219017
149.126311	2142.932936	9.864013	-0.037611	2.220911
149.261781	2146.519173	9.869018	-0.037646	2.222723
149.437536	2150.183181	9.874023	-0.037692	2.224576
149.755247	2153.866778	9.879027	-0.037772	2.226446
149.930951	2157.362391	9.884032	-0.037817	2.228211
150.053302	2161.073303	9.889037	-0.037849	2.230079
150.309891	2164.708326	9.894042	-0.037915	2.231917
150.510642	2168.293008	9.899047	-0.037966	2.233724
150.737774	2171.961797	9.904051	-0.038024	2.235573
150.624091	2175.564020	9.909056	-0.037999	2.237364
150.927208	2179.226601	9.914061	-0.038075	2.239212
151.127873	2182.930663	9.919066	-0.038127	2.241073
151.161396	2186.539090	9.924071	-0.038137	2.242873
151.446898	2190.293583	9.929075	-0.038209	2.244761
151.449237	2193.984023	9.934080	-0.038212	2.246597
151.735023	2197.636786	9.939085	-0.038285	2.248431
151.911038	2201.389857	9.944090	-0.038330	2.250307
152.176352	2205.052479	9.949095	-0.038397	2.252141
152.423570	2208.734423	9.954099	-0.038460	2.253983
152.499585	2212.444275	9.959104	-0.038481	2.255826
152.783009	2216.092273	9.964109	-0.038553	2.257650
152.805956	2219.805443	9.969114	-0.038561	2.259488
153.047805	2223.507656	9.974119	-0.038623	2.261333
153.236418	2227.154197	9.979123	-0.038671	2.263146
153.464888	2230.867481	9.984128	-0.038730	2.264993
153.638199	2234.558173	9.989133	-0.038774	2.266823
153.782245	2238.178708	9.994138	-0.038812	2.268616
154.020895	2241.903011	9.999143	-0.038873	2.270465
154.243454	2245.554736	10.004147	-0.038930	2.272275
154.353853	2249.218734	10.009152	-0.038959	2.274082
154.732003	2252.938739	10.014157	-0.039054	2.275933
154.898315	2256.447677	10.019162	-0.039097	2.277665
155.032560	2260.136187	10.024167	-0.039132	2.279482
155.364044	2263.786625	10.029171	-0.039216	2.281291
155.468358	2267.317827	10.034176	-0.039243	2.283026
155.761429	2271.043955	10.039181	-0.039317	2.284867
156.000955	2274.600555	10.044186	-0.039378	2.286620
155.981966	2278.172177	10.049191	-0.039376	2.288362
156.108581	2281.920581	10.054195	-0.039410	2.290199
156.213922	2285.579661	10.059200	-0.039438	2.291990
156.389161	2289.287060	10.064205	-0.039483	2.293807
156.456908	2293.063054	10.069210	-0.039502	2.295649
156.570141	2296.665386	10.074215	-0.039532	2.297408
156.797713	2300.457508	10.079219	-0.039590	2.299265
156.959256	2304.189275	10.084224	-0.039632	2.301087
157.247815	2307.842613	10.089229	-0.039705	2.302878
157.268330	2311.657849	10.094234	-0.039713	2.304729
157.584729	2315.363822	10.099239	-0.039793	2.306544
157.828075	2319.048682	10.104243	-0.039854	2.308343
157.946631	2322.784540	10.109248	-0.039886	2.310157
158.120703	2326.512348	10.114253	-0.039931	2.311969
158.452469	2330.209913	10.119258	-0.040014	2.313775
158.590685	2333.958007	10.124263	-0.040051	2.315592
158.928932	2337.513675	10.129267	-0.040136	2.317327
159.091540	2341.167259	10.134272	-0.040178	2.319098
159.351419	2344.889393	10.139277	-0.040244	2.320905
159.384822	2348.491265	10.144282	-0.040254	2.322640
159.762540	2352.164178	10.149287	-0.040349	2.324428
159.925403	2355.825899	10.154291	-0.040391	2.326197
159.981582	2359.429251	10.159296	-0.040408	2.327930
160.327376	2363.119136	10.164301	-0.040494	2.329720
160.501640	2366.753357	10.169306	-0.040539	2.331473
160.454904	2370.419843	10.174311	-0.040531	2.333225
160.797124	2374.154417	10.179315	-0.040617	2.335033
160.796249	2377.758619	10.184320	-0.040619	2.336756
160.941939	2381.511264	10.189325	-0.040657	2.338557
161.012597	2385.298627	10.194330	-0.040677	2.340370
161.232007	2388.931253	10.199335	-0.040733	2.342116
161.427419	2392.736140	10.204339	-0.040783	2.343941
161.394774	2396.531312	10.209344	-0.040778	2.345746
161.657015	2400.251701	10.214349	-0.040844	2.347533
161.933691	2404.051010	10.219354	-0.040914	2.349356
162.136023	2407.775991	10.224359	-0.040966	2.351138
162.380836	2411.512639	10.229363	-0.041029	2.352927
162.577567	2415.272099	10.234368	-0.041079	2.354722
162.777494	2418.976112	10.239373	-0.041130	2.356490
162.949640	2422.638338	10.244378	-0.041175	2.358235
163.264438	2426.386657	10.249383	-0.041254	2.360028
163.558230	2430.035907	10.254387	-0.041329	2.361771
163.766633	2433.643165	10.259392	-0.041382	2.363488
164.008846	2437.326566	10.264397	-0.041444	2.365242

164.226578	2440.756433	10.269402	-0.041499	2.366874
164.352025	2444.267180	10.274407	-0.041532	2.368537
164.399454	2447.830956	10.279411	-0.041546	2.370219
164.541556	2451.192455	10.284416	-0.041583	2.371811
164.750335	2454.635510	10.289421	-0.041636	2.373443
164.736916	2458.055962	10.294426	-0.041635	2.375051
164.733687	2461.342565	10.299431	-0.041637	2.376596
164.920579	2464.701676	10.304435	-0.041684	2.378184
164.943868	2468.062850	10.309440	-0.041692	2.379763
165.056313	2471.351241	10.314445	-0.041722	2.381312
165.316065	2474.559846	10.319450	-0.041788	2.382831
165.564333	2477.779995	10.324455	-0.041850	2.384354
165.833038	2480.906671	10.329459	-0.041918	2.385834
165.999553	2483.811756	10.334464	-0.041961	2.387203
166.259593	2486.889939	10.339469	-0.042026	2.388657
166.342945	2489.859654	10.344474	-0.042049	2.390050
166.531026	2492.712161	10.349479	-0.042096	2.391393
166.797941	2495.557221	10.354483	-0.042164	2.392736
166.751203	2498.394898	10.359488	-0.042154	2.394057
166.921421	2501.221029	10.364493	-0.042197	2.395385
166.888402	2503.909367	10.369498	-0.042191	2.396635
167.152852	2506.627061	10.374503	-0.042257	2.397916
167.116574	2509.437728	10.379507	-0.042250	2.399223
167.242792	2512.135232	10.384512	-0.042283	2.400485
167.301822	2514.731323	10.389517	-0.042299	2.401695
167.426484	2517.438905	10.394522	-0.042331	2.402961
167.642124	2520.044640	10.399527	-0.042386	2.404184
168.031494	2522.611536	10.404531	-0.042483	2.405398
168.188539	2524.927099	10.409536	-0.042522	2.406481
168.430545	2527.260221	10.414541	-0.042583	2.407577
168.614242	2529.699952	10.419546	-0.042629	2.408719
168.785821	2531.912245	10.424551	-0.042673	2.409754
169.041595	2534.148220	10.429555	-0.042737	2.410804
169.107382	2536.262845	10.434560	-0.042754	2.411787
169.222823	2538.418472	10.439565	-0.042784	2.412791
169.334301	2540.574153	10.444570	-0.042812	2.413794
169.397204	2542.657358	10.449575	-0.042829	2.414761
169.543441	2544.723776	10.454579	-0.042866	2.415725
169.579152	2546.620754	10.459584	-0.042876	2.416603
169.557269	2548.674197	10.464589	-0.042872	2.417550
169.501394	2550.762355	10.469594	-0.042860	2.418511
169.570103	2552.819197	10.474599	-0.042878	2.419465
169.737130	2554.883469	10.479603	-0.042920	2.420426
169.655589	2556.754811	10.484608	-0.042901	2.421285
169.923480	2558.709138	10.489613	-0.042968	2.422201
169.988333	2560.650047	10.494618	-0.042985	2.423099
170.123515	2562.545832	10.499623	-0.043019	2.423980
170.306566	2564.410049	10.504627	-0.043065	2.424848
170.447810	2566.218664	10.509632	-0.043101	2.425689
170.730373	2567.781712	10.514637	-0.043171	2.426424
170.845454	2569.493597	10.519642	-0.043200	2.427218
170.919839	2571.117989	10.524647	-0.043219	2.427969
171.181715	2572.799221	10.529651	-0.043284	2.428756
171.230230	2574.328962	10.534656	-0.043297	2.429462
171.239751	2575.876805	10.539661	-0.043300	2.430174
171.211107	2577.483442	10.544666	-0.043294	2.430910
171.172594	2578.947940	10.549671	-0.043286	2.431580
171.233179	2580.508620	10.554675	-0.043301	2.432300
171.080332	2582.156220	10.559680	-0.043265	2.433048
171.203109	2583.744336	10.564685	-0.043296	2.433783
171.366301	2585.282433	10.569690	-0.043337	2.434498
171.465371	2586.780421	10.574695	-0.043362	2.435190
171.620334	2588.219965	10.579699	-0.043401	2.435858
171.700476	2589.535774	10.584704	-0.043421	2.436466
171.872506	2590.914742	10.589709	-0.043464	2.437107
171.951736	2592.297144	10.594714	-0.043484	2.437745
172.111713	2593.615253	10.599719	-0.043524	2.438357
172.347618	2594.874735	10.604723	-0.043582	2.438947
172.317937	2596.133571	10.609728	-0.043576	2.439521
172.298732	2597.432037	10.614733	-0.043572	2.440114
172.387965	2598.676760	10.619738	-0.043594	2.440688
172.382020	2599.729833	10.624743	-0.043593	2.441170
172.437839	2600.968217	10.629747	-0.043608	2.441739
172.260181	2602.190349	10.634752	-0.043565	2.442288
172.338658	2603.509233	10.639757	-0.043585	2.442895
172.398328	2604.765804	10.644762	-0.043600	2.443472
172.506871	2605.912891	10.649767	-0.043628	2.444002
172.635012	2607.079750	10.654771	-0.043660	2.444542
172.616312	2608.300483	10.659776	-0.043656	2.445098
172.858060	2609.390584	10.664781	-0.043715	2.445609
173.022715	2610.290129	10.669786	-0.043756	2.446029
173.098729	2611.304860	10.674791	-0.043775	2.446496
173.205332	2612.315423	10.679795	-0.043802	2.446963
173.238602	2613.256989	10.684800	-0.043811	2.447394
173.528236	2614.219889	10.689805	-0.043882	2.447849
173.537710	2615.098940	10.694810	-0.043885	2.448251
173.538882	2615.952427	10.699815	-0.043885	2.448640
173.700908	2616.887725	10.704819	-0.043925	2.449075
173.590642	2617.703873	10.709824	-0.043899	2.449441
173.650893	2618.529433	10.714829	-0.043914	2.449820
173.592234	2619.436577	10.719834	-0.043900	2.450231
173.517049	2620.372585	10.724839	-0.043882	2.450653
173.488443	2621.157143	10.729843	-0.043876	2.451009
173.468351	2622.011404	10.734848	-0.043871	2.451396
173.506674	2623.031579	10.739853	-0.043881	2.451863
173.532723	2623.861049	10.744858	-0.043888	2.452242
173.492716	2624.687607	10.749863	-0.043879	2.452616
173.656169	2625.694988	10.754867	-0.043919	2.453083
173.740919	2626.506167	10.759872	-0.043940	2.453457
173.797321	2627.278671	10.764877	-0.043955	2.453812
173.751347	2628.121230	10.769882	-0.043944	2.454192
173.961507	2628.857678	10.774887	-0.043995	2.454539
174.010798	2629.645119	10.779891	-0.044008	2.454899
174.096710	2630.392925	10.784896	-0.044029	2.455244
174.362619	2631.082516	10.789901	-0.044095	2.455572
174.245536	2631.547168	10.794906	-0.044066	2.455777
174.261255	2632.193418	10.799911	-0.044070	2.456071
174.510342	2632.866394	10.804915	-0.044131	2.456391
174.466071	2633.445108	10.809920	-0.044121	2.456651
174.560625	2634.028894	10.814925	-0.044144	2.456922
174.549884	2634.584473	10.819930	-0.044142	2.457174
174.702878	2635.098845	10.824935	-0.044179	2.457416
174.685186	2635.641279	10.829939	-0.044175	2.457661
174.718154	2636.349903	10.834944	-0.044184	2.457984
174.678244	2636.860746	10.839949	-0.044174	2.458214
174.645270	2637.389025	10.844954	-0.044166	2.458452
174.734603	2637.869707	10.849959	-0.044188	2.458675
174.807953	2638.419056	10.854963	-0.044207	2.458929
174.676712	2639.036280	10.859968	-0.044175	2.459202
174.725207	2639.509622	10.864973	-0.044187	2.459419
174.925848	2639.948293	10.869978	-0.044236	2.459629
174.929350	2640.456344	10.874983	-0.044237	2.459860
175.028038	2641.025647	10.879987	-0.044261	2.460124
174.950140	2641.348458	10.884992	-0.044243	2.460266
175.092160	2641.887903	10.889997	-0.044277	2.460518
175.140484	2642.227328	10.895002	-0.044289	2.460675
175.066109	2642.402157	10.900007	-0.044271	2.460750
175.173976	2643.086907	10.905011	-0.044298	2.461066
175.120668	2643.336338	10.910016	-0.044285	2.461177
175.094971	2643.761806	10.915021	-0.044279	2.461368
175.069846	2644.302901	10.920026	-0.044273	2.461612
174.893602	2644.638336	10.925031	-0.044230	2.461755
174.910307	2645.168315	10.930035	-0.044234	2.461996
174.842731	2645.721502	10.935040	-0.044218	2.462243
175.033620	2646.108188	10.940045	-0.044265	2.462429
175.008015	2646.543156	10.945050	-0.044258	2.462624
175.154144	2647.063379	10.950055	-0.044294	2.462868
175.263606	2647.270466	10.955059	-0.044321	2.462968
175.468258	2647.885401	10.960064	-0.044371	2.463257
175.773208	2647.859396	10.965069	-0.044446	2.463262
175.849786	2648.049782	10.970074	-0.044464	2.463352
175.770033	2648.540651	10.975079	-0.044445	2.463571
175.953264	2648.548823	10.980083	-0.044490	2.463584
175.957550	2648.521513	10.985088	-0.044491	2.463572
175.962296	2648.841779	10.990093	-0.044492	2.463717
176.013046	2649.225830	10.995098	-0.044504	2.463894
175.850257	2649.217426	11.000103	-0.044465	2.463881
175.916569	2649.243697	11.005107	-0.044481	2.463897
175.817631	2649.692507	11.010112	-0.044457	2.464095
175.630455	2649.976473	11.015117	-0.044411	2.464213
175.609188	2649.989423	11.020122	-0.044406	2.464218
175.454824	2650.573104	11.025127	-0.044368	2.464474
175.524880	2650.654427	11.030131	-0.044385	2.464514
175.429786	2651.113564	11.035136	-0.044362	2.464717
175.383294	2651.373907	11.040141	-0.044351	2.464833
175.545174	2651.753492	11.045146	-0.044390	2.465013
175.634186	2652.024590	11.050151	-0.044412	2.465141
175.704623	2652.043496	11.055155	-0.044429	2.465153
175.809666	2652.651953	11.060160	-0.044455	2.465434
176.079144	2652.723668	11.065165	-0.044521	2.465481
176.182198	2652.730759	11.070170	-0.044546	2.465490
176.181154	2652.696479	11.075175	-0.044546	2.465474
176.332423	2652.714371	11.080179	-0.044582	2.465491
176.249900	2652.703944	11.085184	-0.044562	2.465481
176.207197	2652.818066	11.090189	-0.044552	2.465531
176.213761	2653.230441	11.095194	-0.044553	2.465718
176.016059	2653.223402	11.100199	-0.044505	2.465704
176.057520	2653.244394	11.105203	-0.044515	2.465716
175.954998	2653.245660	11.110208	-0.044490	2.465711
175.880640	2653.442186	11.115213	-0.044471	2.465795
175.822406	2653.965096	11.120218	-0.044457	2.466029
175.819244	2653.941752	11.125223	-0.044456	2.466018
175.843094	2653.963123	11.130227	-0.044462	2.466029
175.815924	2654.521005	11.135232	-0.044456	2.466280
175.926209	2654.616575	11.140237	-0.044483	2.466329
176.022801	2654.628243	11.145242	-0.044506	2.466340
175.933629	2654.611356	11.150247	-0.044484	2.466327
176.099129	2655.257413	11.155251	-0.044525	2.466629
176.012716	2655.335397	11.160256	-0.044504	2.466659
176.037080	2655.327738	11.165261	-0.044509	2.466657
176.024567	2655.351381	11.170266	-0.044506	2.466667
176.108940	2655.308283	11.175271	-0.044527	2.466652
176.085735	2655.906889	11.180275	-0.044521	2.466922
176.150004	2655.959678	11.185280	-0.044537	2.466949
176.313438	2655.947865	11.190285	-0.044577	2.466952
176.434012	2655.958411	11.195290	-0.044606	2.466964
176.340691	2655.933381	11.200295	-0.044583	2.466947
176.287591	2655.976698	11.205299	-0.044570	2.466964
176.491980	2655.938960	11.210304	-0.044620	2.466958
176.558627	2655.922122	11.215309	-0.044636	2.466954
176.453788	2655.944350	11.220314	-0.044610	2.466958
176.393512	2655.921938	11.225319	-0.044595	2.466945
176.732656	2655.918856	11.230323	-0.044678	2.466961
176.591153	2655.912678	11.235328	-0.044643	2.466951
176.434815	2655.934488	11.240333	-0.044605	2.466952
176.564246	2655.937423	11.245338	-0.044636	2.466961
176.380174	2655.935973	11.250343	-0.044591	2.466950
176.471282	2655.952100	11.255347	-0.044613	2.466962
176.395410	2655.937756	11.260352	-0.044595	2.466952
176.185690	2655.964548	11.265357	-0.044543	2.466952
176.272829	2655.969072	11.270362	-0.044564	2.466959
176.319469	2656.073644	11.275367	-0.044576	2.467009
176.242512	2656.670463	11.280371	-0.044557	2.467275
176.320196	2656.655070	11.285376	-0.044576	2.467272
176.510903	2656.626211	11.290381	-0.044622	2.467269
176.528312	2656.644913	11.295386	-0.044626	2.467279
176.565978	2656.611171	11.300391	-0.044635	2.467265
176.524630	2656.639980	11.305395	-0.044625	2.467276
176.476711	2656.618160	11.310400	-0.044613	2.467264
176.700451	2656.592611	11.315405	-0.044668	2.467264
176.692922	2656.618770	11.320410	-0.044666	2.467275
176.647107	2656.118835	11.325415	-0.044654	2.467047
176.731345	2655.908766	11.330419	-0.044674	2.466956
176.613542	2655.912874	11.335424	-0.044646	2.466952
176.658514	2655.896894	11.340429	-0.044656	2.466947
176.714648	2655.907873	11.345434	-0.044670	2.466955
176.571508	2655.898441	11.350439	-0.044635	2.466943
176.561849	2655.929336	11.355443	-0.044632	2.466956
176.391247	2655.933526	11.360448	-0.044590	2.466949
176.534482	2655.913081	11.365453	-0.044625	2.466947
176.492283	2655.935779	11.370458	-0.044615	2.466955
176.343783	2655.925951	11.375463	-0.044578	2.466943
176.296424	2655.958924	11.380467	-0.044567	2.466955
176.336703	2655.936258	11.385472	-0.044576	2.466947
176.323855	2655.927513	11.390477	-0.044573	2.466942
176.499798	2655.929390	11.395482	-0.044616	2.466953
176.462694	2655.905941	11.400487	-0.044607	2.466940
176.732356	2655.914244	11.405491	-0.044672	2.466958
176.718334	2655.886664	11.410496	-0.044669	2.466945
176.780963	2655.875135	11.415501	-0.044684	2.466943
176.787981	2655.914393	11.420506	-0.044686	2.466961
176.944440	2655.856836	11.425511	-0.044724	2.466944
176.851575	2655.894888	11.430515	-0.044701	2.466956
176.817256	2655.881802	11.435520	-0.044692	2.466948
176.835561	2655.385330	11.440525	-0.044696	2.466724
176.773236	2655.256916	11.445530	-0.044681	2.466663
176.562086	2655.239727	11.450535	-0.044629	2.466644
176.589007	2655.269364	11.455539	-0.044635	2.466658
176.671407	2655.255822	11.460544	-0.044655	2.466657
176.625667	2655.246860	11.465549	-0.044644	2.466650
176.594303	2655.278614	11.470554	-0.044636	2.466663
176.464109	2655.252466	11.475559	-0.044604	2.466644
176.679312	2655.261731	11.480563	-0.044657	2.466660
176.767872	2655.241246	11.485568	-0.044678	2.466655
176.763291	2655.231862	11.490573	-0.044677	2.466651
176.885602	2655.242195	11.495578	-0.044707	2.466662
176.706553	2655.233254	11.500583	-0.044663	2.466648
176.774615	2654.583975	11.505587	-0.044679	2.466358
176.915707	2654.503765	11.510592	-0.044713	2.466329
176.854136	2654.507730	11.515597	-0.044698	2.466328
177.002784	2654.510434	11.520602	-0.044734	2.466337
176.701039	2654.521646	11.525607	-0.044660	2.466326
176.851151	2654.525555	11.530611	-0.044697	2.466335
176.877269	2654.312465	11.535616	-0.044703	2.466240
176.813251	2653.828019	11.540621	-0.044687	2.466018
176.623814	2653.869302	11.545626	-0.044640	2.466026
176.722833	2653.825498	11.550631	-0.044664	2.466011
176.987442	2653.820578	11.555635	-0.044729	2.466023
176.932987	2653.811625	11.560640	-0.044715	2.466016
176.727043	2653.820390	11.565645	-0.044665	2.466009
176.805045	2653.846686	11.570650	-0.044684	2.466025
176.815933	2653.384388	11.575655	-0.044686	2.465817
176.931265	2653.147255	11.580659	-0.044714	2.465716
176.833776	2653.144472	11.585664	-0.044690	2.465709
176.717446	2653.150143	11.590669	-0.044661	2.465705
176.938493	2653.147651	11.595674	-0.044715	2.465716
176.738763	2653.137750	11.600679	-0.044666	2.465701
176.817204	2653.157090	11.605683	-0.044685	2.465714
176.785496	2653.049223	11.610688	-0.044677	2.465663
176.660301	2652.652183	11.615693	-0.044646	2.465477
176.840248	2652.657345	11.620698	-0.044690	2.465489
176.877382	2652.624717	11.625703	-0.044699	2.465476
176.979179	2652.628167	11.630707	-0.044724	2.465483
176.998018	2652.618409	11.635712	-0.044728	2.465479
177.167864	2652.344116	11.640717	-0.044769	2.465364
177.287089	2651.873150	11.645722	-0.044798	2.465157
177.314175	2651.835518	11.650727	-0.044804	2.465142
177.334714	2651.549763	11.655731	-0.044809	2.465014
177.254730	2651.152607	11.660736	-0.044789	2.464829
177.139292	2651.139911	11.665741	-0.044761	2.464817
177.190077	2651.033273	11.670746	-0.044773	2.464772
176.855050	2650.476681	11.675751	-0.044690	2.464502
176.798779	2650.504839	11.680755	-0.044676	2.464511
176.816893	2650.501029	11.685760	-0.044681	2.464510
176.613887	2650.512230	11.690765	-0.044631	2.464504
176.601373	2650.539647	11.695770	-0.044628	2.464516
176.635469	2650.514973	11.700775	-0.044636	2.464507
176.579635	2650.540666	11.705779	-0.044622	2.464515
176.581933	2650.534607	11.710784	-0.044623	2.464513
176.647018	2650.515886	11.715789	-0.044638	2.464508
176.675870	2650.530440	11.720794	-0.044645	2.464516
176.820517	2650.490851	11.725799	-0.044680	2.464506
176.987835	2650.010857	11.730803	-0.044721	2.464297
177.059337	2649.820780	11.735808	-0.044738	2.464215
177.116244	2649.799589	11.740813	-0.044752	2.464209
177.490086	2649.631674	11.745818	-0.044843	2.464153
177.445612	2649.038147	11.750823	-0.044831	2.463881
177.324465	2649.079903	11.755827	-0.044802	2.463894
177.299461	2648.725646	11.760832	-0.044795	2.463732
177.249559	2648.378865	11.765837	-0.044783	2.463572
177.090159	2648.413473	11.770842	-0.044743	2.463579
177.070005	2648.338779	11.775847	-0.044738	2.463544
177.026109	2647.728115	11.780851	-0.044727	2.463265
176.851336	2647.738724	11.785856	-0.044684	2.463260
176.670191	2647.750093	11.790861	-0.044640	2.463256
176.656175	2647.772165	11.795866	-0.044636	2.463265
176.636712	2647.751828	11.800871	-0.044631	2.463254
176.730741	2647.762722	11.805875	-0.044654	2.463264
176.697747	2647.771214	11.810880	-0.044646	2.463266
176.777549	2647.741435	11.815885	-0.044665	2.463257
176.802778	2647.717828	11.820890	-0.044671	2.463248
176.903380	2647.048999	11.825895	-0.044695	2.462950
177.049252	2647.038197	11.830899	-0.044731	2.462953
176.995143	2647.054378	11.835904	-0.044717	2.462958
176.969502	2647.033403	11.840909	-0.044711	2.462947
177.331583	2646.683688	11.845914	-0.044799	2.462808
177.118661	2646.276269	11.850919	-0.044746	2.462611
177.248969	2646.293152	11.855923	-0.044778	2.462626
177.164862	2646.126943	11.860928	-0.044757	2.462546
177.072598	2645.599443	11.865933	-0.044734	2.462302
176.931967	2645.643866	11.870938	-0.044700	2.462315
176.871319	2645.611930	11.875943	-0.044685	2.462297
176.754672	2645.651077	11.880947	-0.044656	2.462308
176.806340	2645.636026	11.885952	-0.044669	2.462304
176.812761	2645.509302	11.890957	-0.044670	2.462247
176.904557	2644.944389	11.895962	-0.044692	2.461996
176.853254	2644.918918	11.900967	-0.044679	2.461981
176.936976	2644.934811	11.905971	-0.044699	2.461993
177.122175	2644.908281	11.910976	-0.044745	2.461991
177.216432	2644.675362	11.915981	-0.044767	2.461891
177.308441	2644.239940	11.920986	-0.044789	2.461698
177.265784	2644.217570	11.925991	-0.044779	2.461686
177.283536	2643.956295	11.930995	-0.044783	2.461568
177.191001	2643.542983	11.936000	-0.044760	2.461376
177.022265	2643.537409	11.941005	-0.044718	2.461364
176.977026	2643.568707	11.946010	-0.044707	2.461376
176.750474	2643.564880	11.951015	-0.044652	2.461362
176.673528	2643.032725	11.956019	-0.044632	2.461116
176.628487	2642.927014	11.961024	-0.044621	2.461066
176.649815	2642.899070	11.966029	-0.044626	2.461054
176.508982	2642.951086	11.971034	-0.044591	2.461070
176.453337	2642.925460	11.976039	-0.044578	2.461055
176.696178	2642.912336	11.981043	-0.044637	2.461062
176.859522	2642.893916	11.986048	-0.044677	2.461063
177.059549	2642.848739	11.991053	-0.044725	2.461053
177.284207	2642.854310	11.996058	-0.044780	2.461068
177.361435	2642.255944	12.001063	-0.044798	2.460801
177.489184	2642.129586	12.006067	-0.044829	2.460750
177.554517	2641.936017	12.011072	-0.044845	2.460666
177.652788	2641.571964	12.016077	-0.044869	2.460506
177.567030	2641.410243	12.021082	-0.044847	2.460428
177.434422	2640.867395	12.026087	-0.044814	2.460175
177.358676	2640.888226	12.031091	-0.044796	2.460180
177.236335	2640.453612	12.036096	-0.044765	2.459976
176.873675	2640.231141	12.041101	-0.044677	2.459855
176.710582	2640.269301	12.046106	-0.044637	2.459864
176.495516	2640.266893	12.051111	-0.044584	2.459851
176.542945	2640.281591	12.056115	-0.044595	2.459860
176.559559	2640.278302	12.061120	-0.044599	2.459860
176.514897	2640.272710	12.066125	-0.044588	2.459855
176.587315	2640.289923	12.071130	-0.044606	2.459866
176.753415	2640.243640	12.076135	-0.044646	2.459854
176.945258	2640.239342	12.081139	-0.044693	2.459863
177.074875	2639.940454	12.086144	-0.044724	2.459734
177.129435	2639.496115	12.091149	-0.044737	2.459535
177.348614	2639.494389	12.096154	-0.044790	2.459546
177.327858	2639.334596	12.101159	-0.044785	2.459473
177.385837	2638.833486	12.106163	-0.044799	2.459248
177.391086	2638.835340	12.111168	-0.044800	2.459250
177.270235	2638.382498	12.116173	-0.044770	2.459037
177.100208	2638.164605	12.121178	-0.044728	2.458929
176.956341	2638.144071	12.126183	-0.044693	2.458912
176.688421	2638.188589	12.131187	-0.044627	2.458918
176.601200	2638.201166	12.136192	-0.044606	2.458919
176.482938	2638.197857	12.141197	-0.044577	2.458911
176.500955	2638.234289	12.146202	-0.044581	2.458928
176.458551	2638.210897	12.151207	-0.044570	2.458915
176.567011	2638.209338	12.156211	-0.044597	2.458920
176.749011	2638.208608	12.161216	-0.044641	2.458930
176.881915	2638.087894	12.166221	-0.044673	2.458882
177.119268	2637.474663	12.171226	-0.044731	2.458617
177.298011	2637.426523	12.176231	-0.044774	2.458605
177.413770	2637.386610	12.181235	-0.044802	2.458593
177.592745	2636.704444	12.186240	-0.044845	2.458293
177.414321	2636.710408	12.191245	-0.044802	2.458286
177.426076	2636.252193	12.196250	-0.044804	2.458078
177.185461	2636.072073	12.201255	-0.044745	2.457983
177.001737	2636.102053	12.206259	-0.044700	2.457987
176.878595	2636.122372	12.211264	-0.044670	2.457989
176.691340	2635.614496	12.216269	-0.044623	2.457748
176.489898	2635.444158	12.221274	-0.044574	2.457660
176.414074	2635.433723	12.226279	-0.044555	2.457651
176.467433	2635.499927	12.231283	-0.044568	2.457684
176.572239	2635.911594	12.236288	-0.044594	2.457877
176.609493	2635.404012	12.241293	-0.044602	2.457648
176.873507	2635.397559	12.246298	-0.044667	2.457660
177.054220	2635.358806	12.251303	-0.044711	2.457652
177.181979	2635.352860	12.256307	-0.044742	2.457656
177.330779	2635.182512	12.261312	-0.044778	2.457587
177.354242	2634.618208	12.266317	-0.044783	2.457332
177.477569	2634.632722	12.271322	-0.044813	2.457345
177.564990	2634.134001	12.276327	-0.044834	2.457123
177.495599	2633.919032	12.281331	-0.044817	2.457022
177.335050	2633.744201	12.286336	-0.044777	2.456933
177.159338	2633.303889	12.291341	-0.044734	2.456724
177.060767	2633.343947	12.296346	-0.044710	2.456737
176.836738	2633.340974	12.301351	-0.044655	2.456723
176.852038	2633.340246	12.306355	-0.044658	2.456724
176.844434	2632.855103	12.311360	-0.044656	2.456503
176.639492	2632.652664	12.316365	-0.044606	2.456399
176.846765	2632.642670	12.321370	-0.044656	2.456406
176.598336	2632.650875	12.326375	-0.044595	2.456396
176.830482	2632.632060	12.331379	-0.044652	2.456400
176.946808	2632.637432	12.336384	-0.044680	2.456409
177.059013	2632.594174	12.341389	-0.044707	2.456396
177.149228	2632.164694	12.346394	-0.044729	2.456205
177.179813	2631.897989	12.351399	-0.044736	2.456086
177.230458	2631.908824	12.356403	-0.044748	2.456093
177.134368	2631.723260	12.361408	-0.044724	2.456004
177.078341	2631.226888	12.366413	-0.044710	2.455775
177.056686	2631.260125	12.371418	-0.044705	2.455789
176.959271	2631.245433	12.376423	-0.044681	2.455777
176.858790	2631.259270	12.381427	-0.044656	2.455778
176.783371	2631.040006	12.386432	-0.044637	2.455674
176.837822	2630.802091	12.391437	-0.044650	2.455569
176.880414	2630.828996	12.396442	-0.044661	2.455583
176.962142	2630.792486	12.401447	-0.044681	2.455571
177.029042	2630.798620	12.406451	-0.044697	2.455577
177.018528	2630.731617	12.411456	-0.044694	2.455546
176.912950	2630.045222	12.416461	-0.044668	2.455229
177.118272	2630.050549	12.421466	-0.044718	2.455242
177.088565	2630.040795	12.426471	-0.044710	2.455236
177.276235	2629.940422	12.431475	-0.044756	2.455201
177.168994	2629.328135	12.436480	-0.044729	2.454916
177.185450	2629.314220	12.441485	-0.044733	2.454911
177.173905	2629.337652	12.446490	-0.044730	2.454921
177.189301	2628.859716	12.451495	-0.044733	2.454704
177.125535	2628.629202	12.456499	-0.044717	2.454596
177.122054	2628.646858	12.461504	-0.044716	2.454604
177.124838	2628.600257	12.466509	-0.044717	2.454583
176.996540	2628.016746	12.471514	-0.044685	2.454310
176.882450	2628.003737	12.476519	-0.044657	2.454298
176.805792	2628.012322	12.481523	-0.044638	2.454298
176.858299	2628.034928	12.486528	-0.044651	2.454311
176.776891	2628.019028	12.491533	-0.044631	2.454299
176.821201	2628.028202	12.496538	-0.044641	2.454306
176.915789	2627.522698	12.501543	-0.044664	2.454081
176.826172	2627.290889	12.506547	-0.044642	2.453971
176.997223	2627.296178	12.511552	-0.044683	2.453982
177.062397	2627.253771	12.516557	-0.044699	2.453967
177.132029	2627.257845	12.521562	-0.044716	2.453972
177.162021	2626.562157	12.526567	-0.044723	2.453657
177.133105	2626.572565	12.531571	-0.044715	2.453661
177.257947	2626.581334	12.536576	-0.044746	2.453671
177.271797	2626.109657	12.541581	-0.044749	2.453457
177.355069	2625.878088	12.546586	-0.044769	2.453357
177.215787	2625.880814	12.551591	-0.044734	2.453350
177.200740	2625.394485	12.556595	-0.044730	2.453128
177.124328	2625.235632	12.561600	-0.044711	2.453052
177.009892	2625.211022	12.566605	-0.044683	2.453034
177.074982	2625.235187	12.571610	-0.044699	2.453049
176.799070	2624.772352	12.576615	-0.044631	2.452823
176.794755	2624.512940	12.581619	-0.044630	2.452705
176.816673	2624.529248	12.586624	-0.044635	2.452713
176.711640	2624.515523	12.591629	-0.044609	2.452701
176.778371	2624.545316	12.596634	-0.044625	2.452718
176.729183	2624.527287	12.601639	-0.044613	2.452707
176.813552	2624.519632	12.606643	-0.044634	2.452708
176.907380	2624.520789	12.611648	-0.044656	2.452714
176.799826	2624.047415	12.616653	-0.044630	2.452493
176.858894	2623.838387	12.621658	-0.044644	2.452401
176.899826	2623.814684	12.626663	-0.044653	2.452392
176.949450	2623.809142	12.631667	-0.044665	2.452392
177.022123	2623.817637	12.636672	-0.044683	2.452400
176.900961	2623.798995	12.641677	-0.044653	2.452385
176.936497	2623.140470	12.646682	-0.044661	2.452087
176.759086	2623.134420	12.651687	-0.044618	2.452075
176.765576	2623.125143	12.656691	-0.044619	2.452071
176.791779	2623.137158	12.661696	-0.044626	2.452078
176.620572	2623.143395	12.666701	-0.044584	2.452071
176.698053	2623.146508	12.671706	-0.044602	2.452077
176.770835	2623.127553	12.676711	-0.044620	2.452072
176.720764	2623.131585	12.681715	-0.044608	2.452071
177.041401	2622.832192	12.686720	-0.044686	2.451952
177.001828	2622.441668	12.691725	-0.044675	2.451772
177.220982	2622.451761	12.696730	-0.044729	2.451789
177.257308	2622.432728	12.701735	-0.044738	2.451782
177.309792	2621.823060	12.706739	-0.044750	2.451507
177.403094	2621.712843	12.711744	-0.044772	2.451462
177.217947	2621.707051	12.716749	-0.044727	2.451450
177.129672	2621.094840	12.721754	-0.044705	2.451166
176.998653	2621.067468	12.726759	-0.044673	2.451146
176.898572	2621.070657	12.731763	-0.044648	2.451142
176.732901	2621.112579	12.736768	-0.044607	2.451152
176.553630	2621.100947	12.741773	-0.044563	2.451137
176.498266	2621.143667	12.746778	-0.044550	2.451153
176.444026	2621.132778	12.751783	-0.044536	2.451145
176.297993	2621.146632	12.756787	-0.044501	2.451144
176.503154	2621.135078	12.761792	-0.044551	2.451150
176.586543	2621.111077	12.766797	-0.044571	2.451143
176.866116	2621.099151	12.771802	-0.044639	2.451153
176.876649	2621.086305	12.776807	-0.044641	2.451148
177.092478	2620.442770	12.781811	-0.044693	2.450866
177.251079	2620.376484	12.786816	-0.044732	2.450845
177.196238	2620.348875	12.791821	-0.044718	2.450829
177.422993	2620.009803	12.796826	-0.044773	2.450687
177.322688	2619.797452	12.801831	-0.044749	2.450585
177.246036	2619.807426	12.806835	-0.044730	2.450585
177.242738	2619.269864	12.811840	-0.044728	2.450340
177.183737	2619.062177	12.816845	-0.044714	2.450242
177.225383	2619.091854	12.821850	-0.044724	2.450258
177.085182	2618.812387	12.826855	-0.044689	2.450123
176.893368	2618.409976	12.831859	-0.044642	2.449929
176.964725	2618.428195	12.836864	-0.044659	2.449941
176.621980	2618.440019	12.841869	-0.044575	2.449928
176.502228	2618.461689	12.846874	-0.044546	2.449931
176.664537	2618.438820	12.851879	-0.044585	2.449930
176.544567	2618.446469	12.856883	-0.044556	2.449927
176.631658	2618.467592	12.861888	-0.044577	2.449941
176.729185	2618.428873	12.866893	-0.044601	2.449929
176.792615	2618.447359	12.871898	-0.044616	2.449940
176.743746	2618.446801	12.876903	-0.044604	2.449938
176.828852	2617.847713	12.881907	-0.044624	2.449669
176.930258	2617.738300	12.886912	-0.044649	2.449625
176.745966	2617.736901	12.891917	-0.044604	2.449614
176.832390	2617.747136	12.896922	-0.044624	2.449623
176.849107	2617.725674	12.901927	-0.044628	2.449615
176.864664	2617.711888	12.906931	-0.044632	2.449609
176.952971	2617.633856	12.911936	-0.044653	2.449578
176.970639	2617.053922	12.916941	-0.044657	2.449315
176.891222	2617.087869	12.921946	-0.044638	2.449326
176.719036	2617.111738	12.926951	-0.044595	2.449327
176.851863	2617.079395	12.931955	-0.044628	2.449320
176.931848	2617.096566	12.936960	-0.044647	2.449332
176.858732	2617.071525	12.941965	-0.044629	2.449317
177.075234	2616.464309	12.946970	-0.044681	2.449052
176.964785	2616.359169	12.951975	-0.044654	2.448998
176.892989	2616.367539	12.956979	-0.044636	2.448998
177.062444	2616.352022	12.961984	-0.044678	2.449000
176.985707	2616.202074	12.966989	-0.044659	2.448927
177.024567	2615.670767	12.971994	-0.044668	2.448687
176.978792	2615.656145	12.976999	-0.044656	2.448678
176.822762	2615.664721	12.982003	-0.044618	2.448673
176.805879	2615.691141	12.987008	-0.044614	2.448684
176.743002	2615.666935	12.992013	-0.044598	2.448670
176.739601	2615.698239	12.997018	-0.044597	2.448684
176.618054	2615.574937	13.002023	-0.044567	2.448621
176.517816	2615.002233	13.007027	-0.044542	2.448354
176.543724	2615.036854	13.012032	-0.044549	2.448372
176.521360	2615.008120	13.017037	-0.044543	2.448357
176.865799	2614.986602	13.022042	-0.044627	2.448366
176.708741	2614.998388	13.027047	-0.044588	2.448363
176.899247	2614.966291	13.032051	-0.044635	2.448359
176.896569	2614.985863	13.037056	-0.044634	2.448367
177.160782	2614.934966	13.042061	-0.044698	2.448359
177.090891	2614.582575	13.047066	-0.044681	2.448194
176.990814	2614.288277	13.052071	-0.044656	2.448054
177.131126	2614.263589	13.057075	-0.044690	2.448051
177.161925	2614.284606	13.062080	-0.044698	2.448062
176.927543	2613.872640	13.067085	-0.044640	2.447861
176.929997	2613.578367	13.072090	-0.044640	2.447727
176.813859	2613.579758	13.077095	-0.044612	2.447722
176.718685	2613.570410	13.082099	-0.044588	2.447712
176.733625	2613.597098	13.087104	-0.044592	2.447725
176.700330	2613.575508	13.092109	-0.044583	2.447713
176.672867	2613.607986	13.097114	-0.044576	2.447727
176.734743	2613.587604	13.102119	-0.044591	2.447721
176.652429	2613.577392	13.107123	-0.044571	2.447711
176.687381	2613.598590	13.112128	-0.044580	2.447723
176.765105	2612.925614	13.117133	-0.044598	2.447420
176.776854	2612.896209	13.122138	-0.044601	2.447407
176.782075	2612.893944	13.127143	-0.044602	2.447407
176.866051	2612.867137	13.132147	-0.044622	2.447399
176.912619	2612.889670	13.137152	-0.044633	2.447412
176.855596	2612.874364	13.142157	-0.044619	2.447402
176.925596	2612.792424	13.147162	-0.044636	2.447368
176.864128	2612.186265	13.152167	-0.044621	2.447088
176.907137	2612.165761	13.157171	-0.044631	2.447081
176.995320	2612.182252	13.162176	-0.044652	2.447094
176.998641	2612.156945	13.167181	-0.044653	2.447082
176.860672	2612.185613	13.172186	-0.044619	2.447088
177.026900	2611.836805	13.177191	-0.044659	2.446938
176.956745	2611.530857	13.182195	-0.044642	2.446794
176.877080	2611.553872	13.187200	-0.044622	2.446800
176.874117	2611.526930	13.192205	-0.044621	2.446788
177.002480	2611.536523	13.197210	-0.044653	2.446799
176.855829	2611.402336	13.202215	-0.044616	2.446730
176.715501	2610.825685	13.207219	-0.044582	2.446459
176.693629	2610.865002	13.212224	-0.044576	2.446476
176.569531	2610.853683	13.217229	-0.044546	2.446464
176.614895	2610.868137	13.222234	-0.044557	2.446473
176.723315	2610.845913	13.227239	-0.044583	2.446469
176.844966	2610.825859	13.232243	-0.044612	2.446466
176.802745	2610.859418	13.237248	-0.044602	2.446479
176.880824	2610.811084	13.242253	-0.044621	2.446461
176.880505	2610.825909	13.247258	-0.044621	2.446468
177.101643	2610.320719	13.252263	-0.044674	2.446250
176.997649	2610.110276	13.257267	-0.044649	2.446148
177.117171	2610.135975	13.262272	-0.044678	2.446166
177.086861	2610.110624	13.267277	-0.044670	2.446153
177.024588	2609.695737	13.272282	-0.044654	2.445960
176.821115	2609.471999	13.277287	-0.044604	2.445847
176.706376	2609.469483	13.282291	-0.044576	2.445839
176.739535	2609.499425	13.287296	-0.044584	2.445855
176.570205	2609.481596	13.292301	-0.044543	2.445837
176.569305	2609.504012	13.297306	-0.044542	2.445847
176.465999	2609.517563	13.302311	-0.044517	2.445848
176.318248	2609.514578	13.307315	-0.044481	2.445838
176.602890	2609.517293	13.312320	-0.044550	2.445855
176.781266	2609.471929	13.317325	-0.044593	2.445844
176.960216	2609.466174	13.322330	-0.044637	2.445851
176.963690	2609.467199	13.327335	-0.044638	2.445852
177.087944	2608.997053	13.332339	-0.044667	2.445644
177.249705	2608.932486	13.337344	-0.044707	2.445624
177.244371	2608.896950	13.342349	-0.044705	2.445607
177.171546	2608.496084	13.347354	-0.044687	2.445420
177.096480	2608.203581	13.352359	-0.044668	2.445282
176.844165	2608.209449	13.357363	-0.044607	2.445271
176.971025	2608.221248	13.362368	-0.044637	2.445283
176.697928	2608.233040	13.367373	-0.044571	2.445274
176.589888	2608.264605	13.372378	-0.044544	2.445282
176.459650	2608.281063	13.377383	-0.044512	2.445282
176.429930	2608.265912	13.382387	-0.044505	2.445274
176.565968	2608.276262	13.387392	-0.044538	2.445286
176.515613	2608.264625	13.392397	-0.044525	2.445278
176.613804	2608.258336	13.397402	-0.044549	2.445280
176.775594	2608.173251	13.402407	-0.044588	2.445250
176.935791	2607.508771	13.407411	-0.044627	2.444956
177.096406	2607.515468	13.412416	-0.044666	2.444968
177.097491	2607.483613	13.417421	-0.044666	2.444953
177.151495	2607.478887	13.422426	-0.044679	2.444954
177.202680	2606.800611	13.427431	-0.044691	2.444647
177.148928	2606.796911	13.432435	-0.044678	2.444642
177.009738	2606.836676	13.437440	-0.044644	2.444653
176.817875	2606.833219	13.442445	-0.044597	2.444641
176.747322	2606.474981	13.447450	-0.044579	2.444473
176.714000	2606.218248	13.452455	-0.044571	2.444354
176.629095	2606.210104	13.457459	-0.044550	2.444346
176.522835	2606.250682	13.462464	-0.044524	2.444358
176.479475	2606.226247	13.467469	-0.044513	2.444345
176.695921	2606.213209	13.472474	-0.044565	2.444351
176.689830	2606.211625	13.477479	-0.044564	2.444350
176.764251	2606.178455	13.482483	-0.044582	2.444339
176.904846	2606.200886	13.487488	-0.044616	2.444356
176.822963	2606.183489	13.492493	-0.044596	2.444344
176.879179	2606.190458	13.497498	-0.044609	2.444350
176.926019	2605.691978	13.502503	-0.044620	2.444125
176.912997	2605.457442	13.507507	-0.044617	2.444017
176.966785	2605.475638	13.512512	-0.044630	2.444029
176.825422	2605.469522	13.517517	-0.044595	2.444018
176.831995	2605.483160	13.522522	-0.044597	2.444024
176.818999	2605.484119	13.527527	-0.044593	2.444024
176.539101	2605.497107	13.532531	-0.044525	2.444015
176.723058	2605.093229	13.537536	-0.044569	2.443840
176.592195	2604.822702	13.542541	-0.044537	2.443709
176.317287	2604.850133	13.547546	-0.044470	2.443707
176.474781	2605.292921	13.552551	-0.044508	2.443918
176.468637	2605.505982	13.557555	-0.044507	2.444015
176.538160	2605.526723	13.562560	-0.044524	2.444028
176.656740	2604.985482	13.567565	-0.044552	2.443787
176.839526	2604.796390	13.572570	-0.044597	2.443711
177.002363	2604.783998	13.577575	-0.044636	2.443714
176.971691	2604.766585	13.582579	-0.044628	2.443704
176.947025	2604.791507	13.587584	-0.044622	2.443714
177.167429	2604.522014	13.592589	-0.044676	2.443603
177.027930	2604.083067	13.597594	-0.044641	2.443395
177.090311	2604.081424	13.602599	-0.044656	2.443398
176.929078	2604.073276	13.607603	-0.044617	2.443385
176.992270	2604.105022	13.612608	-0.044632	2.443403
176.734983	2603.532729	13.617613	-0.044569	2.443128
176.860568	2603.426425	13.622618	-0.044599	2.443086
176.774812	2603.443341	13.627623	-0.044578	2.443089
176.617140	2603.436136	13.632627	-0.044539	2.443077
176.691915	2603.470236	13.637632	-0.044558	2.443096
176.668078	2603.446881	13.642637	-0.044552	2.443084
176.678897	2603.449067	13.647642	-0.044554	2.443086
176.667470	2603.469995	13.652647	-0.044551	2.443095
176.759320	2603.426870	13.657651	-0.044573	2.443080
176.859164	2603.442912	13.662656	-0.044598	2.443093
176.680389	2603.335758	13.667661	-0.044554	2.443034
176.877031	2602.702630	13.672666	-0.044601	2.442756
176.799642	2602.722294	13.677671	-0.044582	2.442760
176.699545	2602.703365	13.682675	-0.044557	2.442746
176.600615	2602.749883	13.687680	-0.044533	2.442762
176.460229	2602.740941	13.692685	-0.044499	2.442750
176.604034	2602.723317	13.697690	-0.044534	2.442750
176.705664	2602.726156	13.702695	-0.044558	2.442757
176.570423	2602.722400	13.707699	-0.044525	2.442748
176.706749	2602.733350	13.712704	-0.044558	2.442760
176.814035	2602.699295	13.717709	-0.044584	2.442750
176.881823	2602.691872	13.722714	-0.044601	2.442751
176.996810	2602.236380	13.727719	-0.044628	2.442549
176.830649	2601.993159	13.732723	-0.044587	2.442428
176.955008	2602.009987	13.737728	-0.044618	2.442443
177.010363	2601.980153	13.742733	-0.044631	2.442432
176.909635	2601.996146	13.747738	-0.044606	2.442434
177.003983	2601.700995	13.752743	-0.044629	2.442304
176.716105	2601.309249	13.757747	-0.044558	2.442109
176.745982	2601.338503	13.762752	-0.044565	2.442124
176.786324	2601.325169	13.767757	-0.044575	2.442121
176.587220	2601.347235	13.772762	-0.044526	2.442120
176.581057	2601.373668	13.777767	-0.044525	2.442131
176.426262	2601.355891	13.782771	-0.044487	2.442115
176.558512	2601.377907	13.787776	-0.044519	2.442132
176.416812	2601.374600	13.792781	-0.044484	2.442123
176.512176	2601.362136	13.797786	-0.044507	2.442122
176.593614	2601.374236	13.802791	-0.044527	2.442132
176.506935	2601.358138	13.807795	-0.044506	2.442120
176.674419	2601.368045	13.812800	-0.044546	2.442134
176.663882	2601.343778	13.817805	-0.044544	2.442122
176.659944	2601.346719	13.822810	-0.044543	2.442123
176.811701	2601.351354	13.827815	-0.044580	2.442133
176.697854	2601.326583	13.832819	-0.044552	2.442116
176.779848	2601.360131	13.837824	-0.044571	2.442136
176.789119	2600.956444	13.842829	-0.044573	2.441952
176.754085	2600.687558	13.847834	-0.044564	2.441827
176.874662	2600.693561	13.852839	-0.044594	2.441836
176.782023	2600.680920	13.857843	-0.044571	2.441825
176.813626	2600.707229	13.862848	-0.044578	2.441839
176.748420	2600.687518	13.867853	-0.044562	2.441826
176.739286	2600.692453	13.872858	-0.044560	2.441828
176.832195	2600.686772	13.877863	-0.044583	2.441830
176.899103	2600.173738	13.882867	-0.044598	2.441600
176.785554	2599.994611	13.887872	-0.044570	2.441511
176.854651	2599.976439	13.892877	-0.044587	2.441507
176.691637	2599.990398	13.897882	-0.044547	2.441504
176.895368	2599.990109	13.902887	-0.044597	2.441515
176.920180	2599.955434	13.907891	-0.044603	2.441501
176.936608	2599.971621	13.912896	-0.044606	2.441509
176.831922	2599.314823	13.917901	-0.044580	2.441203
176.854796	2599.294383	13.922906	-0.044586	2.441195
176.838482	2599.316912	13.927911	-0.044582	2.441204
176.655847	2599.308665	13.932915	-0.044537	2.441190
176.668706	2599.330402	13.937920	-0.044540	2.441201
176.530390	2599.319874	13.942925	-0.044506	2.441188
176.605181	2599.317743	13.947930	-0.044524	2.441192
176.515792	2599.354903	13.952935	-0.044502	2.441204
176.416328	2599.327392	13.957939	-0.044478	2.441185
176.497851	2599.348003	13.962944	-0.044497	2.441199
176.457619	2599.339624	13.967949	-0.044487	2.441193
176.702140	2599.314941	13.972954	-0.044547	2.441195
176.677744	2599.336399	13.977959	-0.044541	2.441204
176.752158	2599.298808	13.982963	-0.044559	2.441191
176.846549	2599.312061	13.987968	-0.044582	2.441202
176.780248	2598.995489	13.992973	-0.044565	2.441054
176.956741	2598.601133	13.997978	-0.044608	2.440883
176.897972	2598.633910	14.002983	-0.044593	2.440895
176.964775	2598.590755	14.007987	-0.044609	2.440879
176.959959	2598.621110	14.012992	-0.044608	2.440892
176.999674	2598.490088	14.017997	-0.044618	2.440834
176.903639	2598.089439	14.023002	-0.044594	2.440646
176.850083	2598.107590	14.028007	-0.044581	2.440651
176.728372	2598.102917	14.033011	-0.044551	2.440642
176.686906	2598.134625	14.038016	-0.044540	2.440654
176.556524	2598.132024	14.043021	-0.044508	2.440646
176.558360	2598.123345	14.048026	-0.044509	2.440642
176.393728	2598.168570	14.053031	-0.044468	2.440654
176.291815	2598.152631	14.058035	-0.044443	2.440641
176.412467	2598.167139	14.063040	-0.044473	2.440654
176.511112	2598.142325	14.068045	-0.044496	2.440648
176.501993	2598.141795	14.073050	-0.044494	2.440647
176.749865	2598.135470	14.078055	-0.044555	2.440658
176.766876	2598.098676	14.083059	-0.044559	2.440642
176.825738	2598.129525	14.088064	-0.044573	2.440659
176.795855	2598.108636	14.093069	-0.044565	2.440648
176.892224	2597.959859	14.098074	-0.044589	2.440585
176.993951	2597.371201	14.103079	-0.044613	2.440322
176.956113	2597.342745	14.108083	-0.044603	2.440307
177.067095	2597.359781	14.113088	-0.044630	2.440321
177.033356	2597.339704	14.118093	-0.044622	2.440309
177.105375	2596.871402	14.123098	-0.044639	2.440099
176.929863	2596.675324	14.128103	-0.044596	2.440000
176.743803	2596.667520	14.133107	-0.044550	2.439986
176.869191	2596.680761	14.138112	-0.044581	2.439999
176.764456	2596.684283	14.143117	-0.044555	2.439995
176.639645	2596.684772	14.148122	-0.044524	2.439988
176.645686	2596.713121	14.153127	-0.044526	2.440001
176.632961	2596.689484	14.158131	-0.044523	2.439990
176.535621	2596.731694	14.163136	-0.044499	2.440003
176.638130	2596.696517	14.168141	-0.044523	2.439993
176.491850	2596.506473	14.173146	-0.044487	2.439898
176.591702	2596.457628	14.178151	-0.044512	2.439881
176.543525	2595.994388	14.183155	-0.044499	2.439666
176.649841	2596.016411	14.188160	-0.044525	2.439682
176.691092	2596.002970	14.193165	-0.044535	2.439678
176.761850	2595.976408	14.198170	-0.044552	2.439670
176.874633	2595.974790	14.203175	-0.044580	2.439676
176.816633	2595.959018	14.208179	-0.044565	2.439665
176.870307	2595.975123	14.213184	-0.044578	2.439676
176.726737	2595.979590	14.218189	-0.044543	2.439670
176.749176	2595.974905	14.223194	-0.044548	2.439669
176.680967	2595.837545	14.228199	-0.044531	2.439602
176.567492	2595.350870	14.233203	-0.044503	2.439373
176.567278	2595.367346	14.238208	-0.044503	2.439380
176.612086	2595.363368	14.243213	-0.044514	2.439381
176.617571	2595.352887	14.248218	-0.044515	2.439377
176.579916	2595.381736	14.253223	-0.044506	2.439388
176.563505	2595.355481	14.258227	-0.044502	2.439375
176.755891	2595.350034	14.263232	-0.044548	2.439383
176.662814	2595.350788	14.268237	-0.044525	2.439378
176.660623	2595.343282	14.273242	-0.044525	2.439374
176.727208	2595.361915	14.278247	-0.044541	2.439387
176.599514	2595.344340	14.283251	-0.044510	2.439371
176.774741	2595.345402	14.288256	-0.044552	2.439382
176.760869	2595.338626	14.293261	-0.044549	2.439378
176.715128	2595.332975	14.298266	-0.044537	2.439373
176.830083	2595.143467	14.303271	-0.044565	2.439292
176.648641	2594.630966	14.308275	-0.044520	2.439048
176.846672	2594.630628	14.313280	-0.044569	2.439058
176.781570	2594.619816	14.318285	-0.044552	2.439050
176.612325	2594.644793	14.323290	-0.044511	2.439052
176.760983	2594.647698	14.328295	-0.044547	2.439061
176.716376	2594.619399	14.333299	-0.044536	2.439046
176.709480	2594.644185	14.338304	-0.044534	2.439057
176.707481	2594.632564	14.343309	-0.044534	2.439051
176.836361	2594.601704	14.348314	-0.044565	2.439044
176.753314	2594.603636	14.353319	-0.044544	2.439040
176.802364	2593.931670	14.358323	-0.044556	2.438736
176.846189	2593.943156	14.363328	-0.044566	2.438743
176.821742	2593.930500	14.368333	-0.044560	2.438736
176.789520	2593.941294	14.373338	-0.044552	2.438739
176.878496	2593.952775	14.378343	-0.044574	2.438749
176.794942	2593.926465	14.383347	-0.044553	2.438733
176.711825	2593.959102	14.388352	-0.044533	2.438743
176.784550	2593.794865	14.393357	-0.044550	2.438672
176.707957	2593.261299	14.398362	-0.044531	2.438423
176.653203	2593.286412	14.403367	-0.044518	2.438432
176.579566	2593.268797	14.408371	-0.044499	2.438420
176.678170	2593.285589	14.413376	-0.044523	2.438433
176.659508	2593.274622	14.418381	-0.044519	2.438427
176.673419	2593.270628	14.423386	-0.044522	2.438425
176.721690	2593.291121	14.428391	-0.044534	2.438437
176.647876	2593.262274	14.433395	-0.044515	2.438420
176.723318	2593.286642	14.438400	-0.044534	2.438435
176.769427	2593.267499	14.443405	-0.044545	2.438429
176.807725	2593.260554	14.448410	-0.044554	2.438428
177.016528	2592.843226	14.453415	-0.044605	2.438249
176.716498	2592.583297	14.458419	-0.044531	2.438113
176.812323	2592.598033	14.463424	-0.044554	2.438125
176.720597	2592.594204	14.468429	-0.044532	2.438118
176.562679	2592.603498	14.473434	-0.044493	2.438114
176.641881	2592.618540	14.478439	-0.044512	2.438125
176.596484	2592.597854	14.483443	-0.044501	2.438113
176.696968	2592.609979	14.488448	-0.044525	2.438124
176.676597	2592.603314	14.493453	-0.044520	2.438120
176.656381	2592.597993	14.498458	-0.044515	2.438116
176.672020	2592.624817	14.503463	-0.044519	2.438129
176.762318	2592.579871	14.508467	-0.044541	2.438114
176.881752	2591.933389	14.513472	-0.044569	2.437824
176.926656	2591.855074	14.518477	-0.044580	2.437791
176.967841	2591.823233	14.523482	-0.044590	2.437778
176.996576	2591.853923	14.528487	-0.044597	2.437794
177.051076	2591.822516	14.533491	-0.044610	2.437783
177.029348	2591.247397	14.538496	-0.044604	2.437518
176.963928	2591.157218	14.543501	-0.044588	2.437473
176.898372	2591.155002	14.548506	-0.044572	2.437468
176.735883	2591.197923	14.553511	-0.044532	2.437479
176.756803	2591.169560	14.558515	-0.044537	2.437467
176.713245	2591.189565	14.563520	-0.044526	2.437474
176.624900	2591.207491	14.568525	-0.044504	2.437477
176.347698	2591.223732	14.573530	-0.044436	2.437469
176.439190	2591.238640	14.578535	-0.044459	2.437481
176.438320	2591.209506	14.583539	-0.044458	2.437468
176.261251	2591.247375	14.588544	-0.044415	2.437475
176.427334	2591.237915	14.593549	-0.044455	2.437480
176.389340	2591.218728	14.598554	-0.044446	2.437469
176.597456	2591.224293	14.603559	-0.044496	2.437483
176.541026	2591.200861	14.608563	-0.044482	2.437469
176.664023	2591.205479	14.613568	-0.044512	2.437478
176.782009	2591.192638	14.618573	-0.044541	2.437479
176.726004	2591.177676	14.623578	-0.044527	2.437469
176.952507	2590.880714	14.628583	-0.044582	2.437345
176.716520	2590.488417	14.633587	-0.044524	2.437152
176.889820	2590.489668	14.638592	-0.044566	2.437163
176.797811	2590.490656	14.643597	-0.044544	2.437158
176.727053	2590.485323	14.648602	-0.044526	2.437152
176.776114	2590.501613	14.653607	-0.044538	2.437162
176.622284	2590.498497	14.658611	-0.044500	2.437152
176.645105	2590.513533	14.663616	-0.044506	2.437160
176.670556	2590.512913	14.668621	-0.044512	2.437161
176.435211	2590.518983	14.673626	-0.044454	2.437151
176.532570	2590.545105	14.678631	-0.044478	2.437168
176.411755	2590.524018	14.683635	-0.044448	2.437152
176.489493	2590.531384	14.688640	-0.044467	2.437159
176.536436	2590.534638	14.693645	-0.044478	2.437163
176.474564	2590.514937	14.698650	-0.044463	2.437151
176.669899	2590.521700	14.703655	-0.044511	2.437165
176.537956	2590.513549	14.708659	-0.044478	2.437154
176.739022	2590.495761	14.713664	-0.044527	2.437157
176.848497	2590.030666	14.718669	-0.044553	2.436950
176.882279	2589.818427	14.723674	-0.044561	2.436854
176.915391	2589.844142	14.728679	-0.044569	2.436868
176.795322	2589.816838	14.733683	-0.044540	2.436849
176.907629	2589.827852	14.738688	-0.044567	2.436860
176.878579	2589.846780	14.743693	-0.044560	2.436867
176.745622	2589.644173	14.748698	-0.044527	2.436767
176.690327	2589.164003	14.753703	-0.044513	2.436544
176.413187	2589.162201	14.758707	-0.044445	2.436527
176.477185	2589.184512	14.763712	-0.044461	2.436541
176.430418	2589.185480	14.768717	-0.044449	2.436539
176.444994	2589.230812	14.773722	-0.044453	2.436560
176.442588	2589.906909	14.778727	-0.044452	2.436870
176.460472	2589.875512	14.783731	-0.044457	2.436856
176.601726	2589.884045	14.788736	-0.044491	2.436868
176.586995	2589.636455	14.793741	-0.044487	2.436754
176.655957	2589.148399	14.798746	-0.044503	2.436534
176.746705	2589.154523	14.803751	-0.044525	2.436542
176.823400	2589.118734	14.808755	-0.044544	2.436530
176.833546	2589.135980	14.813760	-0.044546	2.436538
176.845864	2589.144446	14.818765	-0.044549	2.436543
176.801952	2589.128031	14.823770	-0.044538	2.436533
176.916005	2589.139511	14.828775	-0.044566	2.436544
176.891483	2588.798076	14.833779	-0.044560	2.436386
176.855972	2588.469920	14.838784	-0.044550	2.436234
176.744614	2588.485526	14.843789	-0.044523	2.436235
176.738618	2588.461457	14.848794	-0.044521	2.436224
176.655820	2588.508014	14.853799	-0.044501	2.436240
176.486911	2588.496521	14.858803	-0.044460	2.436226
176.419082	2588.520824	14.863808	-0.044443	2.436233
176.210753	2588.549878	14.868813	-0.044392	2.436235
176.295623	2588.514464	14.873818	-0.044413	2.436223
176.330455	2588.545752	14.878823	-0.044421	2.436239
176.347605	2588.505934	14.883827	-0.044425	2.436222
176.489621	2588.506526	14.888832	-0.044459	2.436230
176.619603	2588.494606	14.893837	-0.044491	2.436232
176.691679	2588.468237	14.898842	-0.044509	2.436224
176.992669	2588.451279	14.903847	-0.044582	2.436233
176.954710	2588.430399	14.908851	-0.044572	2.436221
176.902909	2588.452761	14.913856	-0.044560	2.436228
176.963393	2588.447555	14.918861	-0.044574	2.436229
176.904487	2587.759786	14.923866	-0.044559	2.435911
176.849442	2587.799232	14.928871	-0.044546	2.435926
176.792296	2587.791922	14.933875	-0.044532	2.435919
176.607558	2587.809946	14.938880	-0.044486	2.435917
176.686413	2587.810690	14.943885	-0.044505	2.435922
176.546712	2587.806567	14.948890	-0.044471	2.435912
176.441350	2587.843931	14.953895	-0.044445	2.435923
176.356578	2587.837924	14.958899	-0.044424	2.435916
176.445142	2587.836810	14.963904	-0.044446	2.435920
176.518168	2587.830084	14.968909	-0.044464	2.435921
176.534812	2587.813495	14.973914	-0.044467	2.435915
176.739632	2587.819760	14.978919	-0.044517	2.435929
176.894092	2587.770126	14.983923	-0.044555	2.435915
177.080508	2587.754094	14.988928	-0.044600	2.435918
177.061350	2587.308546	14.993933	-0.044595	2.435712
177.094946	2587.273895	14.998938	-0.044603	2.435698
176.953550	2587.316987	15.003943	-0.044568	2.435710
176.986199	2587.302548	15.008947	-0.044576	2.435705
176.791366	2587.011840	15.013952	-0.044528	2.435561
176.687116	2586.617541	15.018957	-0.044502	2.435375
176.477652	2586.621540	15.023962	-0.044451	2.435365
176.540611	2586.637487	15.028967	-0.044466	2.435376
176.398094	2586.643591	15.033971	-0.044431	2.435370
176.399110	2586.635370	15.038976	-0.044431	2.435367
176.387002	2586.650195	15.043981	-0.044428	2.435373
176.220486	2587.365939	15.048986	-0.044388	2.435692
176.366455	2587.383755	15.053991	-0.044424	2.435708
176.536386	2587.334632	15.058995	-0.044465	2.435695
176.553419	2587.342182	15.064000	-0.044469	2.435699
176.846542	2587.318669	15.069005	-0.044540	2.435704
176.906751	2586.823017	15.074010	-0.044555	2.435481
176.992073	2586.579794	15.079015	-0.044575	2.435374
177.052146	2586.547729	15.084019	-0.044590	2.435362
176.947100	2586.572793	15.089024	-0.044564	2.435368
177.084440	2586.574619	15.094029	-0.044597	2.435377
176.884613	2585.882037	15.099034	-0.044548	2.435048
176.797671	2585.908313	15.104039	-0.044526	2.435055
176.798073	2585.884503	15.109043	-0.044526	2.435044
176.673399	2585.896622	15.114048	-0.044496	2.435043
176.568155	2585.934651	15.119053	-0.044470	2.435054
176.423929	2585.920875	15.124058	-0.044434	2.435040
176.346032	2585.971254	15.129063	-0.044415	2.435059
176.314097	2585.952044	15.134067	-0.044407	2.435048
176.321725	2585.946087	15.139072	-0.044409	2.435046
176.433372	2585.954086	15.144077	-0.044436	2.435056
176.376122	2585.931133	15.149082	-0.044422	2.435042
176.525781	2585.946443	15.154087	-0.044458	2.435057
176.746552	2585.905122	15.159091	-0.044512	2.435050
176.737560	2585.905606	15.164096	-0.044510	2.435050
177.016796	2585.889551	15.169101	-0.044578	2.435058
176.979653	2585.862458	15.174106	-0.044569	2.435044
177.143218	2585.654059	15.179111	-0.044608	2.434957
177.128738	2585.161474	15.184115	-0.044604	2.434731
177.183094	2585.145428	15.189120	-0.044617	2.434726
177.073769	2585.179524	15.194125	-0.044591	2.434736
176.987534	2584.827783	15.199130	-0.044569	2.434570
176.847679	2584.556445	15.204135	-0.044535	2.434437
176.539496	2584.581283	15.209139	-0.044459	2.434432
176.550882	2584.573850	15.214144	-0.044462	2.434429
176.569738	2584.589343	15.219149	-0.044466	2.434437
176.490718	2584.569038	15.224154	-0.044447	2.434423
176.498423	2584.615842	15.229159	-0.044449	2.434445
176.522654	2584.591872	15.234163	-0.044454	2.434435
176.454870	2584.590292	15.239168	-0.044438	2.434431
176.518596	2584.610219	15.244173	-0.044453	2.434443
176.595660	2584.570993	15.249178	-0.044472	2.434430
176.625815	2584.593968	15.254183	-0.044479	2.434442
176.867032	2584.541652	15.259187	-0.044538	2.434431
176.852039	2584.545928	15.264192	-0.044534	2.434432
176.837026	2584.570974	15.269197	-0.044530	2.434443

176.834538	2584.249638	15.274202	-0.044529	2.434296
176.785081	2583.856065	15.279207	-0.044516	2.434112
176.795657	2583.835455	15.284211	-0.044519	2.434103
176.740280	2583.472925	15.289216	-0.044505	2.433934
176.671435	2583.189996	15.294221	-0.044488	2.433800
176.613104	2582.851356	15.299226	-0.044473	2.433642
176.639444	2582.520166	15.304231	-0.044479	2.433491
176.438705	2581.990592	15.309235	-0.044430	2.433237
176.566260	2581.617918	15.314240	-0.044460	2.433073
176.689907	2581.026636	15.319245	-0.044490	2.432809
176.365159	2580.436754	15.324250	-0.044410	2.432520
176.402955	2579.831531	15.329255	-0.044419	2.432244
176.555725	2579.201196	15.334259	-0.044455	2.431964
176.557124	2578.458382	15.339264	-0.044455	2.431623
176.555271	2577.632427	15.344269	-0.044454	2.431243
176.603559	2576.817168	15.349274	-0.044465	2.430872
176.718546	2576.034718	15.354279	-0.044492	2.430519
176.504863	2574.984413	15.359283	-0.044439	2.430024
176.359727	2574.069389	15.364288	-0.044403	2.429596
176.480308	2573.065168	15.369293	-0.044432	2.429141
176.455211	2571.978985	15.374298	-0.044425	2.428640
176.259006	2570.866980	15.379303	-0.044376	2.428118
176.216093	2569.779698	15.384307	-0.044364	2.427616
176.180859	2568.609234	15.389312	-0.044355	2.427076
176.075245	2567.411631	15.394317	-0.044328	2.426519
175.970037	2566.256671	15.399322	-0.044301	2.425982
176.056203	2565.161430	15.404327	-0.044321	2.425482
175.998688	2563.825172	15.409331	-0.044306	2.424864
175.894448	2562.491226	15.414336	-0.044280	2.424244
175.971595	2561.105018	15.419341	-0.044297	2.423610
175.960642	2559.609624	15.424346	-0.044293	2.422920
175.819070	2558.188853	15.429351	-0.044258	2.422258
175.842222	2556.691833	15.434355	-0.044262	2.421569
175.757418	2555.220264	15.439360	-0.044240	2.420886
175.804055	2553.673505	15.444365	-0.044250	2.420175
175.797326	2552.029505	15.449370	-0.044247	2.419416
175.719999	2550.310095	15.454375	-0.044227	2.418619
175.701759	2548.601282	15.459379	-0.044221	2.417829
175.591924	2546.807568	15.464384	-0.044193	2.416994
175.533569	2545.089956	15.469389	-0.044177	2.416197
175.401119	2543.407997	15.474394	-0.044144	2.415413
175.448535	2541.558035	15.479399	-0.044154	2.414560
175.335868	2539.639563	15.484403	-0.044125	2.413667
175.070952	2537.752965	15.489408	-0.044059	2.412779
175.178101	2535.869706	15.494413	-0.044083	2.411914
175.122321	2533.938991	15.499418	-0.044068	2.411017
174.910333	2532.011327	15.504423	-0.044015	2.410112
174.965964	2529.982493	15.509427	-0.044027	2.409175
174.713408	2527.926973	15.514432	-0.043964	2.408208
174.556250	2525.938691	15.519437	-0.043924	2.407277
174.553211	2523.869327	15.524442	-0.043921	2.406317
174.536490	2521.908762	15.529447	-0.043916	2.405407
174.490340	2519.755200	15.534451	-0.043903	2.404404
174.443204	2517.576789	15.539456	-0.043889	2.403390
174.394648	2515.357825	15.544461	-0.043876	2.402356
174.289357	2513.140440	15.549466	-0.043848	2.401320
174.272824	2511.008071	15.554471	-0.043843	2.400327
174.257719	2508.627805	15.559475	-0.043837	2.399219
174.161794	2506.292157	15.564480	-0.043812	2.398126
174.211037	2503.870608	15.569485	-0.043822	2.397002
174.178212	2501.542414	15.574490	-0.043812	2.395915
174.111872	2499.153122	15.579495	-0.043794	2.394798
173.931596	2496.620409	15.584499	-0.043748	2.393606
173.798344	2494.106589	15.589504	-0.043714	2.392426
173.733420	2491.686886	15.594509	-0.043696	2.391293
173.721165	2489.132807	15.599514	-0.043691	2.390100
173.563549	2486.562631	15.604519	-0.043651	2.388890
173.379937	2483.965301	15.609523	-0.043604	2.387665
173.178155	2481.423657	15.614528	-0.043552	2.386464
173.154495	2478.967594	15.619533	-0.043545	2.385314
173.008155	2476.329957	15.624538	-0.043507	2.384070
173.044309	2473.675019	15.629543	-0.043514	2.382829
172.950845	2471.007291	15.634547	-0.043489	2.381573
172.801560	2468.407856	15.639552	-0.043450	2.380346
172.810972	2465.686887	15.644557	-0.043451	2.379070
172.584060	2462.895118	15.649562	-0.043393	2.377746
172.422793	2460.237985	15.654567	-0.043352	2.376489
172.465201	2457.564163	15.659571	-0.043360	2.375235
172.295701	2454.740974	15.664576	-0.043316	2.373897
172.296537	2451.920340	15.669581	-0.043314	2.372571
172.143914	2449.091311	15.674586	-0.043275	2.371230
172.122088	2446.233623	15.679591	-0.043267	2.369883
171.925288	2443.343854	15.684595	-0.043217	2.368509
171.805766	2440.408718	15.689600	-0.043186	2.367118
171.850294	2437.592690	15.694605	-0.043195	2.365793
171.708010	2434.602997	15.699610	-0.043157	2.364373
171.617708	2431.598693	15.704615	-0.043133	2.362948
171.533624	2428.622517	15.709619	-0.043110	2.361537
171.292036	2425.683140	15.714624	-0.043049	2.360132
171.304774	2422.627804	15.719629	-0.043050	2.358687
171.170007	2419.545133	15.724634	-0.043015	2.357220
171.040053	2416.654853	15.729639	-0.042981	2.355843
170.943404	2413.563921	15.734643	-0.042955	2.354371
170.876185	2410.413988	15.739648	-0.042936	2.352873
170.728148	2407.380839	15.744653	-0.042897	2.351425
170.596967	2404.256126	15.749658	-0.042863	2.349933
170.469564	2401.098806	15.754663	-0.042829	2.348424
170.589583	2397.913531	15.759667	-0.042856	2.346917
170.440057	2394.780824	15.764672	-0.042817	2.345417
170.345070	2391.536738	15.769677	-0.042792	2.343866
170.236851	2388.218563	15.774682	-0.042763	2.342279
170.110171	2385.073555	15.779687	-0.042730	2.340771
169.942919	2381.795456	15.784691	-0.042686	2.339197
169.741918	2378.468016	15.789696	-0.042635	2.337596
169.651491	2375.303898	15.794701	-0.042610	2.336079
169.472237	2372.012826	15.799706	-0.042564	2.334494
169.279765	2368.711698	15.804711	-0.042514	2.332903
169.163492	2365.482360	15.809715	-0.042483	2.331350
168.965685	2362.196236	15.814720	-0.042433	2.329764
168.966883	2358.851827	15.819725	-0.042430	2.328160
168.732946	2355.573614	15.824730	-0.042371	2.326573
168.786213	2352.253479	15.829735	-0.042381	2.324983
168.888462	2348.810120	15.834739	-0.042404	2.323335
168.735494	2345.373966	15.839744	-0.042364	2.321673
168.712981	2341.950831	15.844749	-0.042356	2.320025
168.669988	2338.378484	15.849754	-0.042342	2.318302
168.570569	2334.893135	15.854759	-0.042316	2.316617
168.406766	2331.430604	15.859763	-0.042273	2.314937
168.290257	2327.794118	15.864768	-0.042242	2.313176
168.173415	2324.320120	15.869773	-0.042211	2.311491
167.830889	2320.755708	15.874778	-0.042124	2.309747
167.739038	2317.197904	15.879783	-0.042099	2.308021
167.546710	2313.743780	15.884787	-0.042049	2.306337
167.243081	2310.239597	15.889792	-0.041973	2.304621
167.145888	2306.702738	15.894797	-0.041946	2.302900
166.926438	2303.296643	15.899802	-0.041890	2.301235
166.936000	2299.752844	15.904807	-0.041890	2.299515
166.842401	2296.150856	15.909811	-0.041864	2.297759
166.717310	2292.702101	15.914816	-0.041831	2.296075
166.588291	2289.121071	15.919821	-0.041797	2.294324
166.337255	2285.519239	15.924826	-0.041733	2.292555
166.445099	2281.960726	15.929831	-0.041756	2.290828
166.272379	2278.292559	15.934835	-0.041711	2.289028
166.241731	2274.624823	15.939840	-0.041701	2.287236
166.243936	2270.994988	15.944845	-0.041699	2.285464
166.092809	2267.213019	15.949850	-0.041659	2.283605
166.079374	2263.492443	15.954855	-0.041653	2.281784
165.775187	2259.791784	15.959859	-0.041576	2.279953
165.720085	2255.960999	15.964864	-0.041560	2.278073
165.609536	2252.362120	15.969869	-0.041530	2.276301
165.371372	2248.562447	15.974874	-0.041469	2.274421
165.160679	2244.797339	15.979879	-0.041415	2.272558
165.168920	2241.106659	15.984883	-0.041414	2.270744
164.793697	2237.302434	15.989888	-0.041319	2.268848
164.743082	2233.624920	15.994893	-0.041304	2.267034
164.420913	2229.925275	15.999898	-0.041223	2.265190
164.361448	2226.149883	16.004903	-0.041206	2.263324
164.274645	2222.465630	16.009907	-0.041182	2.261500
164.017867	2218.702546	16.014912	-0.041116	2.259624
164.053369	2214.909162	16.019917	-0.041122	2.257751
163.772615	2211.203873	16.024922	-0.041050	2.255899
163.672656	2207.378263	16.029927	-0.041023	2.253998
163.672321	2203.577682	16.034931	-0.041020	2.252114
163.449112	2199.763859	16.039936	-0.040963	2.250208
163.481049	2195.898486	16.044941	-0.040968	2.248291
163.210890	2192.109423	16.049946	-0.040899	2.246390
163.142231	2188.223506	16.054951	-0.040879	2.244453
163.069910	2184.361515	16.059955	-0.040859	2.242526
163.018886	2180.480933	16.064960	-0.040843	2.240589
162.739828	2176.586496	16.069965	-0.040772	2.238629
162.617844	2172.761880	16.074970	-0.040740	2.236712
162.468752	2168.884221	16.079975	-0.040700	2.234765
162.458808	2164.954606	16.084979	-0.040695	2.232799
162.261810	2161.042198	16.089984	-0.040644	2.230828
162.148534	2157.082564	16.094989	-0.040613	2.228838
162.173844	2153.144396	16.099994	-0.040616	2.226865
161.976901	2149.154552	16.104999	-0.040565	2.224850
161.805630	2145.186392	16.110003	-0.040520	2.222846
161.595190	2141.258163	16.115008	-0.040466	2.220857
161.585697	2137.245780	16.120013	-0.040461	2.218838
161.374937	2133.328529	16.125018	-0.040406	2.216851
161.243143	2129.334286	16.130023	-0.040371	2.214829
160.962031	2125.366607	16.135027	-0.040300	2.212808
160.776032	2121.423837	16.140032	-0.040251	2.210805
160.571524	2117.460651	16.145037	-0.040198	2.208788
160.367249	2113.548008	16.150042	-0.040145	2.206794
160.232310	2109.622834	16.155047	-0.040109	2.204798
160.120791	2105.649146	16.160051	-0.040079	2.202776
159.912429	2101.748221	16.165056	-0.040025	2.200783
159.856467	2097.742389	16.170061	-0.040009	2.198745
159.807259	2093.844994	16.175066	-0.039994	2.196761
159.573832	2089.840217	16.180071	-0.039934	2.194708
159.499794	2085.850745	16.185075	-0.039913	2.192672
159.241439	2081.870743	16.190080	-0.039847	2.190626
159.235757	2077.827794	16.195085	-0.039842	2.188563
159.063138	2073.904568	16.200090	-0.039797	2.186548
158.997237	2069.828830	16.205095	-0.039778	2.184460
158.931572	2065.805477	16.210099	-0.039759	2.182398
158.756252	2061.743006	16.215104	-0.039713	2.180305
158.663319	2057.663514	16.220109	-0.039687	2.178208
158.352804	2053.669711	16.225114	-0.039609	2.176137
158.256818	2049.572104	16.230119	-0.039582	2.174026
158.114655	2045.559805	16.235123	-0.039544	2.171954
157.982487	2041.432964	16.240128	-0.039509	2.169821
157.860806	2037.393921	16.245133	-0.039476	2.167733
157.559284	2033.376524	16.250138	-0.039399	2.165640
157.465792	2029.276203	16.255143	-0.039374	2.163518
157.308318	2025.290227	16.260147	-0.039332	2.161448
157.178634	2021.150399	16.265152	-0.039297	2.159298
156.984237	2017.187651	16.270157	-0.039247	2.157233
156.860182	2013.110048	16.275162	-0.039214	2.155112
156.787771	2009.024270	16.280167	-0.039193	2.152988
156.603263	2004.966436	16.285171	-0.039145	2.150869
156.305442	2000.840037	16.290176	-0.039069	2.148703
156.337793	1996.880158	16.295181	-0.039074	2.146646
156.225716	1992.709981	16.300186	-0.039043	2.144467
156.108965	1988.633651	16.305191	-0.039012	2.142334
155.965358	1984.509814	16.310195	-0.038974	2.140172
155.646958	1980.426096	16.315200	-0.038893	2.138017
155.544065	1976.431613	16.320205	-0.038865	2.135921
155.292529	1972.289091	16.325210	-0.038800	2.133735
155.298510	1968.235143	16.330215	-0.038799	2.131612
155.102684	1964.087145	16.335219	-0.038748	2.129423
155.047173	1959.987854	16.340224	-0.038731	2.127268
154.824456	1955.873288	16.345229	-0.038673	2.125090
154.723332	1951.754067	16.350234	-0.038646	2.122916
154.413151	1947.669485	16.355239	-0.038567	2.120742
154.438702	1943.538136	16.360243	-0.038570	2.118567
154.231945	1939.479599	16.365248	-0.038516	2.116411
154.182768	1935.295969	16.370253	-0.038501	2.114198
153.853978	1931.222030	16.375258	-0.038418	2.112020
153.695635	1927.078099	16.380263	-0.038376	2.109815
153.572192	1923.009645	16.385267	-0.038343	2.107650
153.331845	1918.892113	16.390272	-0.038281	2.105449
153.276151	1914.800628	16.395277	-0.038265	2.103273
153.038025	1910.722630	16.400282	-0.038203	2.101088
152.935719	1906.553288	16.405287	-0.038175	2.098862
152.973974	1902.492228	16.410291	-0.038182	2.096702
152.651806	1898.286295	16.415296	-0.038100	2.094436
152.619438	1894.199649	16.420301	-0.038089	2.092252
152.536841	1889.956747	16.425306	-0.038065	2.089979
152.517515	1885.765262	16.430311	-0.038058	2.087736
152.326265	1881.588058	16.435315	-0.038008	2.085485
152.236580	1877.355637	16.440320	-0.037983	2.083210
152.131254	1873.143470	16.445325	-0.037954	2.080942
151.846289	1868.924255	16.450330	-0.037881	2.078654
151.694820	1864.792381	16.455335	-0.037841	2.076420
151.511241	1860.548434	16.460339	-0.037793	2.074122
151.209452	1856.430303	16.465344	-0.037716	2.071879
151.109114	1852.236296	16.470349	-0.037688	2.069609
150.890696	1848.137131	16.475354	-0.037632	2.067378
150.636652	1843.957821	16.480359	-0.037567	2.065098
150.602299	1839.853314	16.485363	-0.037555	2.062874
150.158098	1835.728031	16.490368	-0.037444	2.060604
150.045525	1831.684281	16.495373	-0.037413	2.058402
150.050237	1827.589043	16.500378	-0.037411	2.056178
149.985505	1823.378756	16.505383	-0.037392	2.053884
149.856046	1819.243821	16.510387	-0.037358	2.051623
149.679649	1815.011997	16.515392	-0.037311	2.049304
149.484648	1810.958166	16.520397	-0.037261	2.047077
149.580577	1806.685876	16.525402	-0.037281	2.044752
149.460442	1802.488869	16.530407	-0.037249	2.042447
149.329931	1798.245122	16.535411	-0.037214	2.040114
149.115627	1794.065903	16.540416	-0.037158	2.037807
149.099591	1789.831342	16.545421	-0.037151	2.035483
148.858347	1785.596066	16.550426	-0.037089	2.033138
148.557896	1781.388516	16.555431	-0.037012	2.030800
148.339116	1777.234771	16.560435	-0.036956	2.028496
148.120179	1773.063210	16.565440	-0.036899	2.026180
147.956035	1768.929854	16.570445	-0.036856	2.023886
147.743419	1764.795566	16.575450	-0.036801	2.021585
147.562321	1760.629055	16.580455	-0.036754	2.019267
147.403024	1756.552436	16.585459	-0.036712	2.016997
147.217345	1752.344414	16.590464	-0.036663	2.014649
147.175784	1748.246924	16.595469	-0.036650	2.012372
147.022212	1744.024085	16.600474	-0.036609	2.010014
146.907359	1739.905806	16.605479	-0.036578	2.007714
146.883966	1735.684823	16.610483	-0.036569	2.005361
146.842621	1731.464985	16.615488	-0.036556	2.003005
146.645924	1727.248778	16.620493	-0.036505	2.000636
146.549040	1723.040925	16.625498	-0.036478	1.998276
146.386677	1718.796354	16.630503	-0.036435	1.995888
146.441739	1714.557404	16.635507	-0.036446	1.993518
146.174083	1710.259770	16.640512	-0.036377	1.991086
146.038152	1706.029306	16.645517	-0.036341	1.988699
145.920027	1701.769176	16.650522	-0.036309	1.986294
145.659195	1697.538264	16.655527	-0.036242	1.983891
145.502886	1693.322965	16.660531	-0.036200	1.981502
145.212744	1689.099052	16.665536	-0.036126	1.979095
145.283545	1684.920308	16.670541	-0.036140	1.976740
144.948513	1680.664833	16.675546	-0.036055	1.974305
144.712664	1676.465957	16.680551	-0.035995	1.971907
144.604783	1672.260272	16.685555	-0.035965	1.969513
144.351140	1668.104364	16.690560	-0.035900	1.967133
144.104022	1663.898284	16.695565	-0.035837	1.964721
143.966513	1659.791996	16.700570	-0.035800	1.962372
143.919669	1655.561164	16.705575	-0.035785	1.959958
143.716548	1651.498464	16.710579	-0.035733	1.957623
143.449614	1647.264982	16.715584	-0.035664	1.955182
143.458316	1643.147096	16.720589	-0.035663	1.952828
143.234575	1638.913957	16.725594	-0.035606	1.950385
143.147591	1634.779620	16.730599	-0.035581	1.948007
142.994649	1630.569953	16.735603	-0.035541	1.945577
142.939706	1626.402312	16.740608	-0.035524	1.943177
142.745690	1622.187919	16.745613	-0.035474	1.940736
142.407648	1618.054552	16.750618	-0.035388	1.938325
142.345014	1613.826396	16.755623	-0.035370	1.935880
142.164386	1609.676604	16.760627	-0.035322	1.933468
141.804165	1605.504980	16.765632	-0.035231	1.931024
141.871577	1601.379307	16.770637	-0.035245	1.928640
141.726227	1597.178378	16.775642	-0.035206	1.926192
141.645409	1592.982850	16.780647	-0.035183	1.923749
141.500345	1588.790248	16.785651	-0.035145	1.921299
141.324572	1584.618923	16.790656	-0.035098	1.918856
141.238342	1580.427482	16.795661	-0.035074	1.916406
141.217934	1576.195982	16.800666	-0.035066	1.913935
141.005693	1571.931816	16.805671	-0.035011	1.911424
140.883862	1567.748513	16.810675	-0.034978	1.908966
140.658415	1563.511711	16.815680	-0.034920	1.906464
140.555688	1559.325610	16.820685	-0.034892	1.903999
140.288593	1555.120129	16.825690	-0.034823	1.901506
139.946132	1551.003021	16.830695	-0.034737	1.899054
139.817427	1546.872821	16.835699	-0.034702	1.896610
139.565796	1542.725600	16.840704	-0.034638	1.894142
139.465384	1538.571023	16.845709	-0.034610	1.891680
139.200030	1534.450070	16.850714	-0.034542	1.889220
139.036639	1530.322290	16.855719	-0.034499	1.886762
138.989490	1526.217310	16.860723	-0.034484	1.884324
138.795038	1522.053048	16.865728	-0.034434	1.881835
138.830706	1517.927363	16.870733	-0.034439	1.879386
138.718783	1513.758987	16.875738	-0.034409	1.876895
138.731347	1509.531414	16.880743	-0.034409	1.874377
138.651880	1505.307074	16.885747	-0.034386	1.871850
138.421778	1501.088744	16.890752	-0.034327	1.869308
138.354383	1496.874090	16.895757	-0.034307	1.866780
138.153657	1492.673832	16.900762	-0.034255	1.864245
137.949105	1488.443558	16.905767	-0.034202	1.861688
137.684858	1484.312712	16.910771	-0.034134	1.859182
137.350943	1480.137027	16.915776	-0.034050	1.856640
137.100634	1476.039846	16.920781	-0.033986	1.854148
136.796763	1471.923657	16.925786	-0.033908	1.851637
136.612853	1467.852356	16.930791	-0.033860	1.849161
136.572156	1463.759938	16.935795	-0.033847	1.846681
136.341689	1459.667703	16.940800	-0.033788	1.844181
136.289717	1455.566507	16.945805	-0.033772	1.841689
136.239132	1451.468872	16.950810	-0.033757	1.839196
136.042857	1447.334631	16.955815	-0.033706	1.836663
135.993194	1443.232488	16.960819	-0.033690	1.834160
135.956139	1439.006632	16.965824	-0.033678	1.831579
135.725077	1434.916082	16.970829	-0.033619	1.829060
135.689462	1430.720193	16.975834	-0.033607	1.826490
135.434939	1426.602811	16.980839	-0.033542	1.823944
135.231257	1422.447807	16.985843	-0.033489	1.821377
135.089827	1418.375212	16.990848	-0.033451	1.818862
135.095236	1414.187881	16.995853	-0.033449	1.816288
134.871392	1410.052451	17.000858	-0.033392	1.813719
134.551862	1405.880176	17.005863	-0.033310	1.811115
134.466570	1401.829927	17.010867	-0.033287	1.808606
134.248333	1397.654189	17.015872	-0.033230	1.806002
134.169132	1393.569202	17.020877	-0.033208	1.803464
133.998491	1389.411447	17.025882	-0.033163	1.800868
133.868933	1385.358577	17.030887	-0.033128	1.798338
133.768379	1381.204627	17.035891	-0.033101	1.795745
133.461926	1377.107907	17.040896	-0.033023	1.793163
133.356947	1372.971987	17.045901	-0.032994	1.790572
133.241153	1368.902964	17.050906	-0.032963	1.788019
133.029651	1364.766275	17.055911	-0.032908	1.785410
133.042187	1360.672085	17.060915	-0.032908	1.782846
132.672974	1356.554622	17.065920	-0.032815	1.780226
132.520905	1352.501914	17.070925	-0.032774	1.777664
132.309644	1348.416569	17.075930	-0.032720	1.775072
132.086318	1344.329529	17.080935	-0.032662	1.772474
131.954561	1340.288309	17.085939	-0.032627	1.769910
131.769982	1336.203567	17.090944	-0.032579	1.767310
131.562289	1332.195832	17.095949	-0.032525	1.764752
131.570583	1328.094265	17.100954	-0.032524	1.762153
131.372089	1324.057398	17.105959	-0.032473	1.759570
131.356175	1319.966577	17.110963	-0.032466	1.756967
131.165193	1315.869296	17.115968	-0.032416	1.754339
131.095088	1311.766230	17.120973	-0.032396	1.751715
130.874705	1307.718024	17.125978	-0.032339	1.749108
130.843903	1303.559375	17.130983	-0.032328	1.746444
130.730431	1299.522686	17.135987	-0.032297	1.743847
130.535810	1295.372180	17.140992	-0.032247	1.741164
130.567541	1291.289107	17.145997	-0.032252	1.738544
130.371358	1287.140013	17.151002	-0.032201	1.735854
130.126641	1283.018222	17.156007	-0.032138	1.733172
129.936977	1278.945155	17.161011	-0.032088	1.730523
129.686470	1274.847320	17.166016	-0.032024	1.727848
129.516067	1270.803414	17.171021	-0.031979	1.725211
129.525803	1266.697376	17.176026	-0.031979	1.722549
129.257847	1262.633797	17.181031	-0.031910	1.719882
129.154594	1258.556836	17.186035	-0.031882	1.717219
128.958894	1254.495982	17.191040	-0.031831	1.714553
128.679252	1250.417428	17.196045	-0.031760	1.711862
128.641181	1246.411067	17.201050	-0.031747	1.709239
128.488298	1242.277467	17.206055	-0.031707	1.706517
128.458928	1238.262064	17.211059	-0.031697	1.703881
128.237648	1234.137574	17.216064	-0.031640	1.701149
128.033630	1230.122571	17.221069	-0.031587	1.698487
127.880690	1226.043252	17.226074	-0.031546	1.695783
127.666018	1221.963645	17.231079	-0.031491	1.693068
127.651803	1217.916748	17.236083	-0.031484	1.690392
127.304892	1213.874417	17.241088	-0.031397	1.687679
127.028195	1209.902727	17.246093	-0.031326	1.685017
126.828024	1205.879550	17.251098	-0.031274	1.682323
126.626526	1201.955751	17.256103	-0.031222	1.679692
126.419509	1197.976571	17.261107	-0.031168	1.677019
126.211829	1194.047186	17.266112	-0.031115	1.674374
126.138106	1190.042012	17.271117	-0.031094	1.671689
126.020605	1186.127510	17.276122	-0.031062	1.669056
125.874016	1182.106229	17.281127	-0.031023	1.666344
125.833356	1178.155933	17.286131	-0.031010	1.663687
125.752376	1174.140352	17.291136	-0.030988	1.660977
125.791789	1170.134294	17.296141	-0.030994	1.658282
125.710837	1166.074747	17.301146	-0.030971	1.655534
125.483242	1162.003797	17.306151	-0.030913	1.652757
125.412342	1157.999335	17.311155	-0.030893	1.650038
125.315232	1153.883195	17.316160	-0.030866	1.647235
125.077445	1149.908572	17.321165	-0.030805	1.644509
124.791323	1145.875184	17.326170	-0.030732	1.641732
124.422753	1141.959211	17.331175	-0.030639	1.639022
124.387142	1137.968639	17.336179	-0.030627	1.636293
124.068169	1134.010230	17.341184	-0.030546	1.633550
123.985042	1130.060178	17.346189	-0.030523	1.630834
123.719020	1126.128449	17.351194	-0.030455	1.628106
123.519683	1122.217038	17.356199	-0.030403	1.625395
123.504550	1118.262621	17.361203	-0.030397	1.622671
123.372438	1114.295790	17.366208	-0.030361	1.619920
123.228052	1110.319937	17.371213	-0.030323	1.617157
123.181211	1106.384305	17.376218	-0.030309	1.614427
123.058015	1102.351114	17.381223	-0.030276	1.611617
122.923292	1098.413374	17.386227	-0.030240	1.608867
122.799004	1094.409196	17.391232	-0.030206	1.606067
122.680486	1090.422077	17.396237	-0.030175	1.603275
122.485231	1086.500612	17.401242	-0.030124	1.600515
122.425255	1082.467826	17.406247	-0.030106	1.597688
122.252477	1078.533817	17.411251	-0.030061	1.594912
122.004913	1074.536623	17.416256	-0.029998	1.592078
121.894686	1070.613187	17.421261	-0.029968	1.589307
121.673014	1066.661678	17.426266	-0.029911	1.586499
121.353310	1062.755584	17.431271	-0.029830	1.583706
121.390349	1058.842123	17.436275	-0.029836	1.580944
121.138380	1054.907743	17.441280	-0.029771	1.578129
120.912288	1051.020862	17.446285	-0.029713	1.575345
120.807449	1047.070824	17.451290	-0.029685	1.572526
120.770014	1043.154646	17.456295	-0.029672	1.569734
120.645535	1039.216369	17.461299	-0.029639	1.566911
120.408476	1035.297176	17.466304	-0.029578	1.564083
120.121421	1031.434031	17.471309	-0.029505	1.561285
120.080121	1027.542534	17.476314	-0.029492	1.558490
119.949919	1023.632872	17.481319	-0.029457	1.555666
119.914170	1019.683000	17.486323	-0.029446	1.552819
119.506284	1015.854311	17.491328	-0.029343	1.550010
119.344199	1011.964579	17.496333	-0.029301	1.547182
119.176565	1008.143324	17.501338	-0.029257	1.544397
118.854675	1004.292397	17.506343	-0.029175	1.541566
118.669256	1000.500864	17.511347	-0.029127	1.538791
118.469146	996.686990	17.516352	-0.029076	1.535992
118.445391	992.807654	17.521357	-0.029067	1.533162
118.280352	989.041587	17.526362	-0.029024	1.530392
118.119165	985.172824	17.531367	-0.028981	1.527542
118.130056	981.356576	17.536371	-0.028981	1.524746
117.917809	977.504447	17.541376	-0.028926	1.521892
117.894614	973.673082	17.546381	-0.028918	1.519071
117.842071	969.806579	17.551386	-0.028902	1.516215
117.665969	965.906895	17.556391	-0.028856	1.513313
117.772418	962.048426	17.561395	-0.028879	1.510472
117.507595	958.133384	17.566400	-0.028812	1.507537
117.374227	954.272218	17.571405	-0.028776	1.504653
117.130421	950.435245	17.576410	-0.028714	1.501768
116.959727	946.577965	17.581415	-0.028669	1.498871
116.745794	942.770185	17.586419	-0.028614	1.496000
116.528216	938.904382	17.591424	-0.028558	1.493079
116.351323	935.132764	17.596429	-0.028512	1.490228
116.084552	931.331961	17.601434	-0.028444	1.487339
115.950330	927.538219	17.606439	-0.028408	1.484466
115.863071	923.766891	17.611443	-0.028384	1.481611
115.677373	919.961352	17.616448	-0.028336	1.478711
115.533989	916.197805	17.621453	-0.028298	1.475843
115.390049	912.388294	17.626458	-0.028260	1.472934
115.312822	908.603780	17.631463	-0.028238	1.470048
115.234309	904.807912	17.636467	-0.028216	1.467146
115.127096	900.988093	17.641472	-0.028187	1.464217
114.926087	897.205584	17.646477	-0.028135	1.461299
114.800211	893.394547	17.651482	-0.028102	1.458362
114.422864	889.644426	17.656487	-0.028007	1.455434
114.378280	885.866444	17.661491	-0.027993	1.452521
114.147758	882.109752	17.666496	-0.027934	1.449595
113.904918	878.387096	17.671501	-0.027872	1.446687
113.767061	874.645468	17.676506	-0.027835	1.443773
113.514432	870.976511	17.681511	-0.027771	1.440894
113.529920	867.213609	17.686515	-0.027772	1.437972
113.283198	863.500782	17.691520	-0.027709	1.435048
113.269103	859.739655	17.696525	-0.027702	1.432111
113.263151	855.993027	17.701530	-0.027698	1.429181
112.972187	852.266294	17.706535	-0.027624	1.426222
112.915759	848.520945	17.711539	-0.027608	1.423274
112.856380	844.788050	17.716544	-0.027590	1.420329
112.752243	841.009095	17.721549	-0.027562	1.417335
112.582938	837.254502	17.726554	-0.027518	1.414346
112.425666	833.509020	17.731559	-0.027477	1.411359
112.221939	829.785830	17.736563	-0.027424	1.408377
111.971211	826.077548	17.741568	-0.027360	1.405394
111.804199	822.386148	17.746573	-0.027317	1.402429
111.571874	818.714090	17.751578	-0.027257	1.399465
111.474896	815.003413	17.756583	-0.027231	1.396482
111.249201	811.334198	17.761587	-0.027173	1.393509
111.003444	807.698133	17.766592	-0.027110	1.390553
110.722910	804.075168	17.771597	-0.027039	1.387596
110.645862	800.431669	17.776602	-0.027017	1.384644
110.352192	796.832284	17.781607	-0.026943	1.381692
110.330497	793.182529	17.786611	-0.026935	1.378731
110.084418	789.578515	17.791616	-0.026872	1.375768
110.048773	785.926398	17.796621	-0.026860	1.372790
109.921356	782.319728	17.801626	-0.026826	1.369830
109.777650	778.684268	17.806631	-0.026789	1.366837
109.696408	775.038010	17.811635	-0.026766	1.363838
109.595021	771.439770	17.816640	-0.026739	1.360869
109.592439	767.749655	17.821645	-0.026735	1.357831
109.432198	764.105415	17.826650	-0.026693	1.354802
109.330963	760.454617	17.831655	-0.026666	1.351769
109.263431	756.789636	17.836659	-0.026647	1.348723
109.145692	753.139836	17.841664	-0.026615	1.345675
108.848981	749.518701	17.846669	-0.026540	1.342618
108.737153	745.889155	17.851674	-0.026510	1.339574
108.498381	742.278326	17.856679	-0.026449	1.336520
108.252639	738.675242	17.861683	-0.026386	1.333464
107.935953	735.129616	17.866688	-0.026306	1.330439
107.702226	731.586157	17.871693	-0.026246	1.327422
107.702775	727.997153	17.876698	-0.026244	1.324393
107.545417	724.477543	17.881703	-0.026203	1.321393
107.502972	720.884816	17.886707	-0.026189	1.318341
107.204368	717.341372	17.891712	-0.026114	1.315286
107.230242	713.763075	17.896717	-0.026118	1.312243
107.166730	710.174764	17.901722	-0.026099	1.309170
106.933735	706.633863	17.906727	-0.026040	1.306105
106.812991	703.090961	17.911731	-0.026008	1.303049
106.569476	699.570035	17.916736	-0.025945	1.299985
106.566970	695.988114	17.921741	-0.025942	1.296898
106.369989	692.431154	17.926746	-0.025891	1.293796
106.179992	688.875487	17.931751	-0.025842	1.290688
106.072610	685.348070	17.936755	-0.025813	1.287610
105.865320	681.793531	17.941760	-0.025760	1.284486
105.710901	678.320492	17.946765	-0.025720	1.281433
105.798211	674.723982	17.951770	-0.025738	1.278302
105.554657	671.168490	17.956775	-0.025676	1.275149
105.575329	667.638786	17.961779	-0.025678	1.272051
105.392372	664.068770	17.966784	-0.025631	1.268878
105.272817	660.525358	17.971789	-0.025599	1.265731
105.087931	657.028370	17.976794	-0.025551	1.262607
104.938990	653.473511	17.981799	-0.025512	1.259429
104.774813	649.957751	17.986803	-0.025470	1.256276
104.395618	646.486675	17.991808	-0.025374	1.253120
104.145621	643.011859	17.996813	-0.025311	1.249974
103.883771	639.613799	18.001818	-0.025244	1.246886
103.669064	636.172819	18.006823	-0.025189	1.243760
103.573235	632.768216	18.011827	-0.025163	1.240678
103.477257	629.328814	18.016832	-0.025137	1.237557
103.268947	625.891950	18.021837	-0.025084	1.234412
103.330395	622.462932	18.026842	-0.025096	1.231309
103.148801	619.015114	18.031847	-0.025049	1.228142
103.085572	615.559648	18.036851	-0.025031	1.224980
103.005985	612.127643	18.041856	-0.025009	1.221828
102.857580	608.646091	18.046861	-0.024970	1.218610
102.634986	605.225889	18.051866	-0.024913	1.215429
102.589538	601.787369	18.056871	-0.024899	1.212252
102.439207	598.343650	18.061875	-0.024860	1.209044
102.306842	594.907883	18.066880	-0.024825	1.205838
102.207331	591.499275	18.071885	-0.024798	1.202654
102.085503	588.061494	18.076890	-0.024766	1.199430
101.861408	584.639409	18.081895	-0.024709	1.196196
101.753056	581.250080	18.086899	-0.024680	1.193003
101.482400	577.852431	18.091904	-0.024611	1.189766
101.441130	574.453176	18.096909	-0.024598	1.186557
101.239946	571.099674	18.101914	-0.024547	1.183356
101.087388	567.697334	18.106919	-0.024507	1.180108
101.040683	564.327296	18.111923	-0.024493	1.176900
100.754366	560.970413	18.116928	-0.024420	1.173654
100.478114	557.623230	18.121933	-0.024350	1.170411
100.576869	554.265963	18.126938	-0.024372	1.167214
100.408184	550.886169	18.131943	-0.024328	1.163939
100.371749	547.527215	18.136947	-0.024317	1.160699
100.184645	544.170181	18.141952	-0.024268	1.157425
99.883712	540.846755	18.146957	-0.024192	1.154155
99.712157	537.534082	18.151962	-0.024148	1.150908
99.483395	534.251197	18.156967	-0.024090	1.147671
99.328921	530.945225	18.161971	-0.024049	1.144415
99.031829	527.696419	18.166976	-0.023974	1.141181
99.013856	524.384004	18.171981	-0.023967	1.137925
98.864440	521.101766	18.176986	-0.023928	1.134665
98.728844	517.810846	18.181991	-0.023893	1.131390
98.746029	514.513038	18.186995	-0.023895	1.128127
98.549185	511.225250	18.192000	-0.023844	1.124825
98.475439	507.954568	18.197005	-0.023823	1.121552
98.347360	504.679228	18.202010	-0.023790	1.118256
98.082186	501.412069	18.207015	-0.023722	1.114933
98.075334	498.146294	18.212019	-0.023718	1.111649
97.722058	494.930454	18.217024	-0.023630	1.108341
97.632257	491.674479	18.222029	-0.023605	1.105032
97.578453	488.461408	18.227034	-0.023590	1.101763
97.270185	485.243760	18.232039	-0.023512	1.098432
97.200465	482.006171	18.237043	-0.023492	1.095116
97.012362	478.806158	18.242048	-0.023444	1.091805
96.860951	475.597141	18.247053	-0.023405	1.088482
96.725025	472.411619	18.252058	-0.023369	1.085176
96.415088	469.261371	18.257063	-0.023291	1.081864
96.348188	466.084300	18.262067	-0.023272	1.078559
96.282827	462.885750	18.267072	-0.023254	1.075222
96.065141	459.737027	18.272077	-0.023198	1.071898
96.010950	456.575189	18.277082	-0.023182	1.068581
95.700180	453.426364	18.282087	-0.023104	1.065218
95.636891	450.298549	18.287091	-0.023086	1.061914
95.605643	447.124953	18.292096	-0.023076	1.058558
95.510122	443.934130	18.297101	-0.023051	1.055160
95.304625	440.814795	18.302106	-0.022998	1.051806
95.063877	437.704703	18.307111	-0.022937	1.048444
95.110233	434.543563	18.312115	-0.022946	1.045072
94.995582	431.417616	18.317120	-0.022915	1.041696
94.839874	428.291166	18.322125	-0.022875	1.038301
94.601935	425.191958	18.327130	-0.022814	1.034907
94.306197	422.111118	18.332135	-0.022740	1.031511
94.337139	419.020861	18.337139	-0.022745	1.028158
94.187793	415.929505	18.342144	-0.022706	1.024757
94.016203	412.839074	18.347149	-0.022662	1.021341
93.876101	409.781977	18.352154	-0.022625	1.017957
93.800236	406.677251	18.357159	-0.022605	1.014522
93.761915	403.579616	18.362163	-0.022593	1.011090
93.444791	400.551724	18.367168	-0.022513	1.007668
93.222041	397.521004	18.372173	-0.022456	1.004250
93.062662	394.498557	18.377178	-0.022415	1.000842
93.017672	391.440766	18.382183	-0.022402	0.997407
92.665091	388.482866	18.387187	-0.022313	0.994008
92.504051	385.480393	18.392192	-0.022272	0.990588
92.387643	382.480148	18.397197	-0.022241	0.987167
92.371307	379.479819	18.402202	-0.022235	0.983756
92.034382	376.498313	18.407207	-0.022150	0.980286
91.877822	373.526300	18.412211	-0.022110	0.976853
91.814234	370.566553	18.417216	-0.022092	0.973442
91.591526	367.610796	18.422221	-0.022035	0.969989
91.506826	364.645727	18.427226	-0.022012	0.966543
91.380519	361.723245	18.432231	-0.021979	0.963125
91.410699	358.741089	18.437235	-0.021984	0.959659
91.285359	355.776009	18.442240	-0.021951	0.956167
91.218553	352.812366	18.447245	-0.021933	0.952676
91.055262	349.880799	18.452250	-0.021891	0.949189
90.880942	346.943249	18.457255	-0.021846	0.945680
90.712953	344.043012	18.462259	-0.021803	0.942204
90.558611	341.135813	18.467264	-0.021763	0.938709
90.386445	338.212615	18.472269	-0.021718	0.935178
90.127914	335.348376	18.477274	-0.021653	0.931685
89.822597	332.506971	18.482279	-0.021576	0.928196
89.816406	329.648568	18.487283	-0.021573	0.924740
89.508213	326.816191	18.492288	-0.021495	0.921235
89.480423	323.945964	18.497293	-0.021486	0.917734
89.357469	321.130659	18.502298	-0.021454	0.914266
89.234196	318.279067	18.507303	-0.021422	0.910739
89.120679	315.438555	18.512307	-0.021392	0.907214
88.993465	312.630937	18.517312	-0.021359	0.903713
89.041220	309.751668	18.522317	-0.021368	0.900151
88.947283	306.906245	18.527322	-0.021343	0.896583
88.748113	304.087179	18.532327	-0.021292	0.893009
88.538220	301.295702	18.537331	-0.021239	0.889453
88.478554	298.479439	18.542336	-0.021222	0.885887
88.327948	295.678000	18.547341	-0.021183	0.882304
88.105007	292.921470	18.552346	-0.021127	0.878746
87.856874	290.165147	18.557351	-0.021064	0.875167
87.702041	287.413121	18.562355	-0.021024	0.871602
87.538518	284.671805	18.567360	-0.020982	0.868034
87.328582	281.976040	18.572365	-0.020928	0.864499
87.200730	279.249156	18.577370	-0.020895	0.860929
86.969896	276.536243	18.582375	-0.020837	0.857337
86.849758	273.854903	18.587379	-0.020805	0.853799
86.682354	271.176055	18.592384	-0.020762	0.850237
86.646426	268.453005	18.597389	-0.020751	0.846635
86.658820	265.765953	18.602394	-0.020752	0.843077
86.660510	263.036567	18.607399	-0.020751	0.839445
86.500797	260.344258	18.612403	-0.020710	0.835806
86.227588	257.690946	18.617408	-0.020641	0.832175
86.110552	255.021036	18.622413	-0.020610	0.828545
86.058744	252.357217	18.627418	-0.020596	0.824924
85.716162	249.730870	18.632423	-0.020510	0.821264
85.506013	247.109031	18.637427	-0.020456	0.817627
85.460523	244.481716	18.642432	-0.020443	0.814010
85.201448	241.882233	18.647437	-0.020378	0.810359
84.853573	239.342813	18.652442	-0.020291	0.806751
84.717737	236.770145	18.657447	-0.020256	0.803137
84.588319	234.218207	18.662451	-0.020222	0.799537
84.531737	231.648152	18.667456	-0.020207	0.795914
84.443028	229.075751	18.672461	-0.020183	0.792263
84.463570	226.506446	18.677466	-0.020186	0.788629
84.336501	223.960384	18.682471	-0.020153	0.784972
84.065064	221.434439	18.687475	-0.020085	0.781287
83.952215	218.897195	18.692480	-0.020055	0.777611
83.762450	216.390515	18.697485	-0.020007	0.773941
83.879047	213.834623	18.702490	-0.020033	0.770267
83.588174	211.339511	18.707495	-0.019960	0.766550
83.444415	208.851482	18.712499	-0.019923	0.762867
83.188316	206.392919	18.717504	-0.019859	0.759178
82.937343	203.946415	18.722509	-0.019796	0.755490
82.815929	201.503700	18.727514	-0.019764	0.751827
82.456208	199.099034	18.732519	-0.019674	0.748134
82.337207	196.700480	18.737523	-0.019643	0.744501
82.254848	194.273909	18.742528	-0.019621	0.740819
81.824114	191.919495	18.747533	-0.019514	0.737127
81.692381	189.556592	18.752538	-0.019480	0.733490
81.513883	187.207871	18.757543	-0.019435	0.729844
81.462971	184.846421	18.762547	-0.019421	0.726196
81.437266	182.475883	18.767552	-0.019413	0.722524
81.331546	180.110114	18.772557	-0.019385	0.718817
81.305161	177.762427	18.777562	-0.019377	0.715142
81.180899	175.410086	18.782567	-0.019344	0.711412
81.000564	173.090469	18.787571	-0.019299	0.707697
80.938480	170.765614	18.792576	-0.019282	0.703989
80.836448	168.434467	18.797581	-0.019255	0.700240
80.679213	166.132171	18.802586	-0.019215	0.696500
80.280666	163.880144	18.807591	-0.019116	0.692747
80.117610	161.623018	18.812595	-0.019074	0.689038
79.845226	159.413673	18.817600	-0.019006	0.685353
79.438438	157.228757	18.822605	-0.018905	0.681645
79.111846	155.062946	18.827610	-0.018823	0.677974
78.681312	152.951122	18.832615	-0.018716	0.674340
78.565381	150.810414	18.837619	-0.018686	0.670738
78.460741	148.655846	18.842624	-0.018659	0.667097
78.435889	146.480093	18.847629	-0.018651	0.663427
78.229004	144.363922	18.852634	-0.018599	0.659777
78.044761	142.244326	18.857639	-0.018552	0.656109
77.944748	140.124123	18.862643	-0.018526	0.652447
77.555298	138.073975	18.867648	-0.018430	0.648789
77.266335	136.051278	18.872653	-0.018357	0.645192
77.288380	133.960378	18.877658	-0.018361	0.641560
76.885559	131.946317	18.882663	-0.018261	0.637898
76.511326	129.978078	18.887667	-0.018168	0.634306
76.321111	127.998342	18.892672	-0.018120	0.630736
76.093804	126.026219	18.897677	-0.018063	0.627146
75.912798	124.070648	18.902682	-0.018017	0.623581
75.544993	122.154086	18.907687	-0.017926	0.620001
75.373486	120.227813	18.912691	-0.017882	0.616452
75.536465	118.235443	18.917696	-0.017921	0.612879
75.339102	116.300528	18.922701	-0.017871	0.609262
75.157020	114.413222	18.927706	-0.017825	0.605718
74.958076	112.503812	18.932711	-0.017775	0.602106
74.758228	110.612070	18.937715	-0.017725	0.598504
74.515016	108.764653	18.942720	-0.017664	0.594949
74.263926	106.912577	18.947725	-0.017601	0.591360
74.058909	105.083638	18.952730	-0.017549	0.587810
73.654425	103.297292	18.957735	-0.017449	0.584247
73.224741	101.549816	18.962739	-0.017343	0.580727
73.126253	99.760938	18.967744	-0.017317	0.577229
72.808388	98.012304	18.972749	-0.017238	0.573706
72.482523	96.303194	18.977754	-0.017157	0.570236
72.214176	94.601669	18.982759	-0.017090	0.566781
72.011249	92.895332	18.987763	-0.017039	0.563320
71.852372	91.197351	18.992768	-0.016999	0.559872
71.756566	89.491983	18.997773	-0.016974	0.556413
71.388995	87.857992	19.002778	-0.016883	0.552969
71.269738	86.180931	19.007783	-0.016853	0.549514
71.139718	84.538712	19.012787	-0.016820	0.546105
71.017516	82.877218	19.017792	-0.016789	0.542637
70.847554	81.225485	19.022797	-0.016746	0.539148
70.799233	79.584490	19.027802	-0.016733	0.535708
70.521039	77.979087	19.032807	-0.016663	0.532227
70.433290	76.352844	19.037811	-0.016641	0.528757
70.356265	74.746243	19.042816	-0.016620	0.525311
70.224515	73.130979	19.047821	-0.016587	0.521800
69.917546	71.571933	19.052826	-0.016511	0.518314
69.797720	69.991045	19.057831	-0.016480	0.514835
69.536726	68.457900	19.062835	-0.016415	0.511377
69.165239	66.952230	19.067840	-0.016323	0.507909
68.717096	65.480615	19.072845	-0.016212	0.504459
68.454449	64.013086	19.077850	-0.016147	0.501076
68.130183	62.558147	19.082855	-0.016067	0.497671
67.815503	61.122781	19.087859	-0.015989	0.494290
67.503249	59.718377	19.092864	-0.015911	0.490959
67.271087	58.303144	19.097869	-0.015853	0.487615
67.196261	56.871219	19.102874	-0.015834	0.484280
67.013958	55.464381	19.107879	-0.015788	0.480932
67.009800	54.032201	19.112883	-0.015786	0.477582
66.900904	52.620518	19.117888	-0.015758	0.474209
66.679149	51.241603	19.122893	-0.015703	0.470837
66.523021	49.872458	19.127898	-0.015664	0.467495
66.316716	48.504987	19.132903	-0.015612	0.464109
66.142542	47.145233	19.137907	-0.015568	0.460733
65.894696	45.820135	19.142912	-0.015507	0.457381
65.716545	44.480802	19.147917	-0.015462	0.454003
65.518145	43.170388	19.152922	-0.015413	0.450661
64.989413	41.941212	19.157927	-0.015282	0.447337
64.705200	40.679682	19.162931	-0.015212	0.444026
64.531100	39.415136	19.167936	-0.015168	0.440738
64.351452	38.160135	19.172941	-0.015123	0.437446
63.874030	36.981039	19.177946	-0.015006	0.434175
63.411276	35.819713	19.182951	-0.014892	0.430933
63.015797	34.676892	19.187955	-0.014794	0.427749
62.331514	33.607999	19.192960	-0.014626	0.424588
61.414687	32.622711	19.197965	-0.014401	0.421504
60.822250	31.621077	19.202970	-0.014256	0.418524
60.532988	30.571962	19.207975	-0.014184	0.415553
60.155635	29.565947	19.212979	-0.014091	0.412631
59.731170	28.576618	19.217984	-0.013986	0.409709
59.143111	27.663301	19.222989	-0.013842	0.406887
58.763555	26.712867	19.227994	-0.013748	0.404055
58.246146	25.811215	19.232999	-0.013621	0.401265
57.937080	24.892878	19.238003	-0.013545	0.398522
57.614942	23.991477	19.243008	-0.013465	0.395801
57.311618	23.096229	19.248013	-0.013390	0.393089
56.807923	22.256733	19.253018	-0.013267	0.390405
56.231802	21.464074	19.258023	-0.013125	0.387798
56.005005	20.609399	19.263027	-0.013069	0.385191
55.705191	19.790482	19.268032	-0.012995	0.382629
55.127276	19.015984	19.273037	-0.012853	0.380021
54.445155	18.322353	19.278042	-0.012686	0.377573
54.095002	17.558696	19.283047	-0.012600	0.375095
53.893130	16.794339	19.288051	-0.012549	0.372685
53.557013	16.052312	19.293056	-0.012467	0.370248
52.827066	15.423412	19.298061	-0.012288	0.367904
52.451128	14.733359	19.303066	-0.012195	0.365570
52.297571	14.017203	19.308071	-0.012157	0.363275
52.013415	13.322056	19.313075	-0.012087	0.360951
51.649339	12.666332	19.318080	-0.011997	0.358686
51.227512	12.027245	19.323085	-0.011894	0.356424
51.074038	11.351381	19.328090	-0.011856	0.354197
50.954422	10.672571	19.333095	-0.011826	0.351967
50.580186	10.034778	19.338099	-0.011734	0.349695
50.197639	9.434189	19.343104	-0.011640	0.347523
49.682868	8.850043	19.348109	-0.011513	0.345307
49.461873	8.242591	19.353114	-0.011459	0.343187
48.986493	7.679449	19.358119	-0.011342	0.341037
48.534557	7.133133	19.363123	-0.011231	0.338944
48.099963	6.608181	19.368128	-0.011124	0.336920
47.611537	6.087499	19.373133	-0.011005	0.334862
47.407370	5.552577	19.378138	-0.010954	0.332932
47.219288	4.991383	19.383143	-0.010908	0.330912
46.772826	4.502817	19.388147	-0.010798	0.328954
46.510094	3.998554	19.393152	-0.010733	0.327054
46.292562	3.468797	19.398157	-0.010680	0.325086
46.103806	2.957545	19.403162	-0.010633	0.323190
45.918811	2.432060	19.408167	-0.010587	0.321235
45.755359	1.913729	19.413171	-0.010547	0.319308
45.574629	1.414767	19.418176	-0.010502	0.317426
45.516731	0.869132	19.423181	-0.010488	0.315453
45.385640	0.357102	19.428186	-0.010455	0.313536
44.963131	-0.102850	19.433191	-0.010351	0.311589
44.397975	-0.520607	19.438195	-0.010213	0.309681
44.310041	-0.996488	19.443200	-0.010191	0.307890
43.846761	-1.425575	19.448205	-0.010077	0.305990
43.417246	-1.831596	19.453210	-0.009972	0.304188
42.787601	-2.190643	19.458215	-0.009817	0.302404
42.331877	-2.571486	19.463219	-0.009706	0.300655
42.026362	-2.956233	19.468224	-0.009631	0.298992
41.526149	-3.299475	19.473229	-0.009508	0.297332
41.001927	-3.631236	19.478234	-0.009380	0.295688
38.099732	-3.457084	19.483239	-0.008670	0.294184
35.401252	-3.175061	19.488243	-0.008011	0.293238
33.669002	-3.065210	19.493248	-0.007588	0.292355
33.144264	-3.141315	19.498253	-0.007459	0.291667
31.684613	-2.981499	19.503258	-0.007103	0.291179
30.556962	-2.879866	19.508263	-0.006827	0.290717
30.625455	-2.997106	19.513267	-0.006844	0.290316
29.588492	-2.850043	19.518272	-0.006590	0.290097
29.100513	-2.838650	19.523277	-0.006471	0.289770
29.171558	-2.898016	19.528282	-0.006488	0.289593
28.400770	-2.784144	19.533287	-0.006300	0.289448
28.429154	-2.864956	19.538291	-0.006306	0.289156
28.295635	-2.856475	19.543296	-0.006274	0.289086
27.710383	-2.779753	19.548301	-0.006130	0.288938
28.120505	-2.916607	19.553306	-0.006230	0.288718
27.541872	-2.832669	19.558311	-0.006089	0.288603
27.136316	-2.833856	19.563315	-0.005990	0.288288
27.139798	-2.831894	19.568320	-0.005990	0.288298
26.956171	-2.877443	19.573325	-0.005945	0.287980
26.970384	-2.888277	19.578330	-0.005949	0.287948
26.269772	-2.821059	19.583335	-0.005777	0.287673
26.301494	-2.828252	19.588339	-0.005785	0.287669
25.963591	-2.821095	19.593344	-0.005702	0.287438
25.418135	-2.739324	19.598349	-0.005569	0.287338
25.596416	-2.771125	19.603354	-0.005612	0.287350
25.393007	-2.780260	19.608359	-0.005562	0.287158
25.116110	-2.758020	19.613363	-0.005495	0.287032
25.295906	-2.798337	19.618368	-0.005538	0.287012
25.112451	-2.837693	19.623373	-0.005493	0.286717
25.325815	-2.890656	19.628378	-0.005545	0.286673
24.799247	-2.853038	19.633383	-0.005417	0.286415
25.300154	-2.995956	19.638387	-0.005539	0.286240
24.593360	-2.895367	19.643392	-0.005366	0.286090
24.195867	-2.895633	19.648397	-0.005269	0.285782
24.002159	-2.860812	19.653402	-0.005221	0.285769
23.406990	-2.771537	19.658407	-0.005076	0.285660
23.097435	-2.765153	19.663411	-0.005000	0.285446
23.103431	-2.762683	19.668416	-0.005001	0.285460
22.934935	-2.733424	19.673421	-0.004960	0.285444
23.043872	-2.812506	19.678426	-0.004986	0.285217
22.130672	-2.649123	19.683431	-0.004763	0.285154
21.832874	-2.591903	19.688435	-0.004690	0.285148
22.043383	-2.629777	19.693440	-0.004742	0.285162
21.901539	-2.605976	19.698445	-0.004707	0.285145
21.872735	-2.649802	19.703450	-0.004700	0.284950
21.646813	-2.636534	19.708455	-0.004644	0.284827
22.254784	-2.757199	19.713459	-0.004793	0.284822
21.899098	-2.762462	19.718464	-0.004705	0.284525
21.525786	-2.693708	19.723469	-0.004614	0.284507
21.917631	-2.839615	19.728474	-0.004710	0.284234
22.049846	-2.902062	19.733479	-0.004742	0.284090
21.660262	-2.877374	19.738483	-0.004646	0.283885
21.504332	-2.909204	19.743488	-0.004608	0.283637
21.324204	-2.943679	19.748493	-0.004564	0.283360
20.913909	-2.900250	19.753498	-0.004464	0.283213
20.083104	-2.792992	19.758503	-0.004261	0.282991
20.458931	-2.888676	19.763507	-0.004352	0.282904
20.155421	-2.879968	19.768512	-0.004278	0.282701
19.967632	-2.890524	19.773517	-0.004232	0.282512
19.041374	-2.745095	19.778522	-0.004005	0.282367
18.578551	-2.653587	19.783527	-0.003892	0.282369
18.639862	-2.666955	19.788531	-0.003907	0.282363
18.304213	-2.597812	19.793536	-0.003825	0.282375
17.885675	-2.519864	19.798541	-0.003723	0.282358
17.769239	-2.494217	19.803546	-0.003694	0.282369
17.246341	-2.392571	19.808551	-0.003566	0.282364
17.349759	-2.414562	19.813555	-0.003591	0.282357
17.770138	-2.493069	19.818560	-0.003694	0.282372
18.016964	-2.605234	19.823565	-0.003754	0.282119
18.201327	-2.657498	19.828570	-0.003799	0.282054
18.049461	-2.692203	19.833575	-0.003761	0.281797
18.231582	-2.763872	19.838579	-0.003806	0.281654
18.157432	-2.805291	19.843584	-0.003787	0.281430
17.661560	-2.792393	19.848589	-0.003666	0.281093
17.527181	-2.799736	19.853594	-0.003633	0.280958
17.441467	-2.829271	19.858599	-0.003612	0.280772
17.942031	-3.014851	19.863603	-0.003734	0.280422
17.048306	-2.901279	19.868608	-0.003516	0.280174
16.171853	-2.771637	19.873613	-0.003301	0.280003
15.834793	-2.743552	19.878618	-0.003219	0.279850
15.879858	-2.752676	19.883623	-0.003230	0.279848
15.220625	-2.685723	19.888627	-0.003069	0.279597
14.478413	-2.552559	19.893632	-0.002887	0.279546
14.436489	-2.547075	19.898637	-0.002877	0.279534
14.352117	-2.529102	19.903642	-0.002856	0.279539
13.760214	-2.413057	19.908647	-0.002711	0.279538
13.673037	-2.396949	19.913651	-0.002690	0.279534
14.357265	-2.528506	19.918656	-0.002857	0.279544
14.638796	-2.586405	19.923661	-0.002925	0.279534
14.645476	-2.630490	19.928666	-0.002927	0.279361
13.980270	-2.532085	19.933671	-0.002764	0.279231
14.835394	-2.733624	19.938675	-0.002973	0.279096
14.970209	-2.811164	19.943680	-0.003006	0.278890
14.338428	-2.756225	19.948685	-0.002851	0.278611
13.871853	-2.729813	19.953690	-0.002737	0.278348
13.005187	-2.570763	19.958695	-0.002525	0.278302
12.398181	-2.521302	19.963699	-0.002377	0.278020
12.955881	-2.627848	19.968704	-0.002513	0.278032
12.926284	-2.638021	19.973709	-0.002505	0.277967
12.710625	-2.654535	19.978714	-0.002453	0.277729
12.426957	-2.603173	19.983719	-0.002383	0.277711
12.164679	-2.629082	19.988723	-0.002319	0.277397
12.395833	-2.672616	19.993728	-0.002375	0.277404
12.107733	-2.696022	19.998733	-0.002305	0.277080
12.113743	-2.709535	20.003738	-0.002306	0.277029
11.790186	-2.708589	20.008743	-0.002227	0.276775
11.863629	-2.768339	20.013747	-0.002245	0.276591
10.598441	-2.548735	20.018752	-0.001935	0.276473
10.157425	-2.465666	20.023757	-0.001828	0.276458
10.864055	-2.607149	20.028762	-0.002000	0.276447
10.694654	-2.649654	20.033767	-0.001958	0.276138
10.479647	-2.609484	20.038771	-0.001906	0.276130
10.288179	-2.623396	20.043776	-0.001859	0.275920
9.907597	-2.574505	20.048781	-0.001766	0.275814
9.976467	-2.615437	20.053786	-0.001782	0.275702
8.918401	-2.456030	20.058791	-0.001524	0.275504
9.150732	-2.503772	20.063795	-0.001580	0.275495
9.477544	-2.564139	20.068800	-0.001660	0.275510
9.194367	-2.565771	20.073805	-0.001591	0.275276
8.605329	-2.467783	20.078810	-0.001447	0.275204
8.409305	-2.428094	20.083815	-0.001399	0.275208
9.079494	-2.601435	20.088819	-0.001562	0.275037
8.619830	-2.547845	20.093824	-0.001450	0.274887
8.657365	-2.599660	20.098829	-0.001459	0.274705
8.671234	-2.635548	20.103834	-0.001462	0.274569
8.492424	-2.665016	20.108839	-0.001418	0.274304
8.225469	-2.635697	20.113843	-0.001353	0.274209
7.963618	-2.627259	20.118848	-0.001289	0.274033
7.887814	-2.658639	20.123853	-0.001270	0.273843
7.018813	-2.523760	20.128858	-0.001057	0.273695
6.755434	-2.471969	20.133863	-0.000993	0.273695
7.013561	-2.579225	20.138867	-0.001056	0.273463
6.724861	-2.542332	20.143872	-0.000985	0.273381
6.551434	-2.531064	20.148877	-0.000943	0.273287
6.443240	-2.565182	20.153882	-0.000916	0.273059
6.308187	-2.538070	20.158887	-0.000883	0.273060
5.947631	-2.537004	20.163891	-0.000795	0.272773
5.899561	-2.529259	20.168896	-0.000783	0.272766
5.772227	-2.541727	20.173901	-0.000751	0.272611
5.581481	-2.547149	20.178906	-0.000705	0.272434
5.644623	-2.579244	20.183911	-0.000720	0.272352
5.497107	-2.606485	20.188915	-0.000684	0.272120
5.713608	-2.684125	20.193920	-0.000736	0.271974
4.925560	-2.570266	20.198925	-0.000544	0.271805
4.891584	-2.618241	20.203930	-0.000535	0.271579
4.752461	-2.607351	20.208935	-0.000501	0.271510
4.396938	-2.609289	20.213939	-0.000414	0.271213
3.614790	-2.463821	20.218944	-0.000223	0.271178
3.114400	-2.368348	20.223949	-0.000101	0.271166
3.136542	-2.372453	20.228954	-0.000106	0.271166
2.918100	-2.327488	20.233959	-0.000052	0.271174
3.082049	-2.401506	20.238963	-0.000092	0.271001
3.440473	-2.505713	20.243968	-0.000180	0.270860
3.905347	-2.638039	20.248973	-0.000293	0.270690
3.486836	-2.595207	20.253978	-0.000191	0.270526
3.601935	-2.684060	20.258983	-0.000219	0.270251
3.555239	-2.735942	20.263987	-0.000207	0.269996
2.968409	-2.665478	20.268992	-0.000063	0.269809
