Sun Feb 26 13:37:51 2017

Number of Points = 3622
Depth (nm)	Load (µN)	Time (s)	Depth (V)	Load (V)
0.407994	-0.068229	0.000000	-0.000081	0.279536

0.434102	-0.076206	0.005005	-0.000087	0.279524
0.697104	-0.125670	0.010010	-0.000151	0.279532
0.607546	-0.185585	0.015014	-0.000129	0.279220
0.509693	-0.166418	0.020019	-0.000105	0.279219
0.703063	-0.230455	0.025024	-0.000152	0.279114
0.573910	-0.236408	0.030029	-0.000121	0.278988
0.274602	-0.205369	0.035034	-0.000047	0.278875
0.048120	-0.214175	0.040038	0.000008	0.278660
-0.002601	-0.204759	0.045043	0.000021	0.278657
-0.103857	-0.237965	0.050048	0.000046	0.278443
-0.242934	-0.237633	0.055053	0.000080	0.278333
-0.127127	-0.270475	0.060058	0.000052	0.278292
-0.209215	-0.322955	0.065062	0.000072	0.278014
-0.153440	-0.339044	0.070067	0.000059	0.277993
0.024348	-0.439418	0.075072	0.000016	0.277728
0.207159	-0.523296	0.080077	-0.000029	0.277534
0.342577	-0.608790	0.085082	-0.000062	0.277295
0.333959	-0.677320	0.090086	-0.000059	0.277010
0.338490	-0.751094	0.095091	-0.000060	0.276714
0.344694	-0.825675	0.100096	-0.000061	0.276415
0.238370	-0.887373	0.105101	-0.000035	0.276079
0.242909	-0.967087	0.110106	-0.000036	0.275758
0.086031	-1.015152	0.115110	0.000002	0.275436
-0.070123	-1.059851	0.120115	0.000041	0.275128
-0.349163	-1.076663	0.125120	0.000109	0.274835
-0.520102	-1.113937	0.130125	0.000151	0.274545
-0.765616	-1.132943	0.135130	0.000211	0.274269
-0.743128	-1.187139	0.140134	0.000206	0.274065
-0.743906	-1.255996	0.145139	0.000207	0.273781
-0.753267	-1.323429	0.150144	0.000209	0.273497
-0.680034	-1.418039	0.155149	0.000191	0.273167
-0.527925	-1.524112	0.160154	0.000155	0.272853
-0.573342	-1.603930	0.165158	0.000166	0.272487
-0.696107	-1.675991	0.170163	0.000196	0.272090
-0.525812	-1.799308	0.175168	0.000155	0.271718
-1.224790	-1.755773	0.180173	0.000326	0.271330
-2.177211	-1.615554	0.185178	0.000559	0.271135
-2.652765	-1.591405	0.190182	0.000675	0.270847
-2.254469	-1.701735	0.195187	0.000578	0.270714
-2.743584	-1.646934	0.200192	0.000698	0.270542
-2.475344	-1.758025	0.205197	0.000632	0.270299
-2.263441	-1.841891	0.210202	0.000581	0.270123
-2.103565	-1.943822	0.215206	0.000542	0.269829
-2.018490	-2.036208	0.220211	0.000521	0.269513
-2.124153	-2.084638	0.225216	0.000547	0.269224
-2.197951	-2.137633	0.230221	0.000566	0.268942
-2.179370	-2.219762	0.235226	0.000561	0.268614
-2.256322	-2.289935	0.240230	0.000580	0.268257
-2.912999	-2.237795	0.245235	0.000741	0.267934
-3.474487	-2.168606	0.250240	0.000878	0.267761
-4.311780	-2.076893	0.255245	0.001083	0.267455
-4.992348	-1.940078	0.260250	0.001250	0.267467
-5.826963	-1.777734	0.265254	0.001454	0.267459
-5.804322	-1.783084	0.270259	0.001448	0.267455
-6.282965	-1.642106	0.275264	0.001565	0.267651
-6.151244	-1.636132	0.280269	0.001533	0.267784
-5.985797	-1.665998	0.285274	0.001493	0.267795
-5.773362	-1.708714	0.290278	0.001441	0.267790
-5.277211	-1.806647	0.295283	0.001320	0.267787
-5.200267	-1.826718	0.300288	0.001302	0.267766
-5.284141	-1.884380	0.305293	0.001322	0.267454
-5.075680	-1.922604	0.310298	0.001272	0.267465
-5.112514	-1.969585	0.315302	0.001281	0.267237
-5.035797	-2.006832	0.320307	0.001262	0.267143
-5.251761	-2.029429	0.325312	0.001315	0.266869
-5.522750	-1.985889	0.330317	0.001382	0.266827
-5.491410	-2.055144	0.335322	0.001374	0.266561
-5.673637	-2.026523	0.340326	0.001419	0.266530
-6.145413	-2.007537	0.345331	0.001535	0.266219
-6.321494	-1.975940	0.350336	0.001578	0.266206
-6.524772	-1.938782	0.355341	0.001628	0.266193
-6.659313	-1.943157	0.360346	0.001661	0.266063
-7.292418	-1.861808	0.365350	0.001815	0.265880
-7.012192	-1.916778	0.370355	0.001747	0.265880
-7.199974	-1.877069	0.375360	0.001793	0.265891
-7.251553	-1.870461	0.380365	0.001806	0.265876
-7.016166	-1.913879	0.385370	0.001749	0.265887
-6.922605	-1.975331	0.390374	0.001726	0.265704
-7.408981	-1.914153	0.395379	0.001845	0.265558
-7.338895	-1.925280	0.400384	0.001828	0.265569
-7.301616	-1.953363	0.405389	0.001819	0.265480
-8.096117	-1.846381	0.410394	0.002014	0.265272
-8.289456	-1.809458	0.415398	0.002061	0.265267
-8.170221	-1.833408	0.420403	0.002032	0.265264
-8.300433	-1.805645	0.425408	0.002064	0.265272
-8.383179	-1.792046	0.430413	0.002084	0.265260
-7.986756	-1.867432	0.435418	0.001988	0.265270
-7.993378	-1.881056	0.440422	0.001990	0.265207
-8.348909	-1.874755	0.445427	0.002077	0.264937
-8.233939	-1.894399	0.450432	0.002049	0.264949
-8.206624	-1.912238	0.455437	0.002042	0.264895
-8.013038	-2.012093	0.460442	0.001995	0.264632
-7.784694	-2.079551	0.465446	0.001940	0.264536
-8.179345	-2.054768	0.470451	0.002036	0.264311
-8.076602	-2.108067	0.475456	0.002011	0.264170
-8.714683	-2.007571	0.480461	0.002167	0.264063
-8.721663	-2.047434	0.485466	0.002169	0.263887
-9.586292	-1.912989	0.490470	0.002381	0.263736
-9.851520	-1.862652	0.495475	0.002446	0.263727
-10.044920	-1.821202	0.500480	0.002493	0.263741
-10.188889	-1.796397	0.505485	0.002528	0.263726
-10.398430	-1.751816	0.510490	0.002580	0.263740
-10.715207	-1.690866	0.515494	0.002657	0.263733
-10.541959	-1.725086	0.520499	0.002615	0.263732
-10.317577	-1.766674	0.525504	0.002561	0.263742
-10.259439	-1.781149	0.530509	0.002547	0.263728
-9.764466	-1.876659	0.535514	0.002426	0.263735
-9.650359	-1.917332	0.540518	0.002398	0.263657
-9.686611	-1.967810	0.545523	0.002407	0.263411
-9.468598	-2.043430	0.550528	0.002354	0.263271
-9.863692	-2.009061	0.555533	0.002451	0.263085
-9.634091	-2.109571	0.560538	0.002395	0.262848
-9.853205	-2.098428	0.565542	0.002449	0.262711
-10.302448	-2.068118	0.570547	0.002559	0.262463
-10.722011	-2.005036	0.575552	0.002662	0.262379
-11.638579	-1.878682	0.580557	0.002886	0.262148
-11.780701	-1.847975	0.585562	0.002921	0.262159
-12.106596	-1.756457	0.590566	0.003000	0.262276
-12.096673	-1.714333	0.595571	0.002998	0.262464
-12.243186	-1.683700	0.600576	0.003034	0.262471
-12.237070	-1.686599	0.605581	0.003033	0.262463
-12.113517	-1.708315	0.610586	0.003003	0.262474
-12.305437	-1.671029	0.615590	0.003050	0.262471
-11.720572	-1.808951	0.620595	0.002907	0.262372
-11.483119	-1.904684	0.625600	0.002849	0.262162
-11.130512	-1.994819	0.630605	0.002763	0.262072
-11.424938	-1.989485	0.635610	0.002836	0.261846
-11.277478	-2.058683	0.640614	0.002800	0.261673
-11.598807	-2.027330	0.645619	0.002879	0.261536
-11.778166	-2.063097	0.650624	0.002923	0.261230
-12.148580	-1.996957	0.655629	0.003013	0.261201
-12.496801	-1.990913	0.660634	0.003098	0.260932
-12.995388	-1.901244	0.665638	0.003220	0.260895
-13.318607	-1.840122	0.670643	0.003300	0.260884
-13.570161	-1.786426	0.675648	0.003361	0.260902
-13.982093	-1.708162	0.680653	0.003462	0.260889
-13.898340	-1.723998	0.685658	0.003442	0.260891
-13.928401	-1.717903	0.690662	0.003449	0.260892
-13.502874	-1.802406	0.695667	0.003345	0.260887
-13.527977	-1.794919	0.700672	0.003352	0.260897
-13.565728	-1.790269	0.705677	0.003361	0.260885
-13.233541	-1.904334	0.710682	0.003280	0.260674
-13.550574	-1.864494	0.715686	0.003358	0.260577
-13.281768	-1.935185	0.720691	0.003293	0.260499
-13.383102	-1.965098	0.725696	0.003317	0.260284
-13.231466	-2.023434	0.730701	0.003281	0.260160
-13.518940	-2.014652	0.735706	0.003351	0.259953
-13.813093	-1.991807	0.740710	0.003423	0.259801
-14.540525	-1.887692	0.745715	0.003601	0.259633
-14.725604	-1.847301	0.750720	0.003646	0.259649
-14.868495	-1.821826	0.755725	0.003681	0.259637
-14.875841	-1.818801	0.760730	0.003683	0.259643
-15.083252	-1.777138	0.765734	0.003734	0.259647
-15.035503	-1.840449	0.770739	0.003723	0.259413
-15.304844	-1.804724	0.775744	0.003789	0.259338
-15.561593	-1.757523	0.780749	0.003852	0.259323
-15.303662	-1.806283	0.785754	0.003789	0.259330
-15.364208	-1.794651	0.790758	0.003804	0.259329
-15.155184	-1.836691	0.795763	0.003753	0.259324
-15.113649	-1.893283	0.800768	0.003743	0.259113
-15.326448	-1.856937	0.805773	0.003795	0.259089
-15.353232	-1.873021	0.810778	0.003802	0.258996
-15.802368	-1.838247	0.815782	0.003912	0.258763
-15.649964	-1.869839	0.820787	0.003875	0.258755
-15.634047	-1.879967	0.825792	0.003871	0.258724
-15.939443	-1.885485	0.830797	0.003946	0.258439
-15.444693	-1.980961	0.835802	0.003825	0.258446
-15.874663	-1.963011	0.840806	0.003931	0.258156
-16.046980	-1.937673	0.845811	0.003973	0.258118
-16.121093	-1.950793	0.850816	0.003991	0.257997
-16.813880	-1.854639	0.855821	0.004161	0.257822
-16.895187	-1.837171	0.860826	0.004181	0.257828
-17.344388	-1.748963	0.865830	0.004291	0.257827
-17.369117	-1.745852	0.870835	0.004297	0.257818
-17.277341	-1.760570	0.875840	0.004275	0.257832
-17.546742	-1.709466	0.880845	0.004341	0.257823
-17.459660	-1.725950	0.885850	0.004319	0.257825
-17.322361	-1.759608	0.890854	0.004286	0.257796
-17.297935	-1.833142	0.895859	0.004280	0.257496
-16.832672	-1.921958	0.900864	0.004167	0.257506
-16.931961	-1.959175	0.905869	0.004191	0.257258
-17.052338	-1.952262	0.910874	0.004221	0.257184
-17.314785	-1.958210	0.915878	0.004285	0.256932
-17.480214	-1.941387	0.920883	0.004326	0.256863
-17.718372	-1.918299	0.925888	0.004384	0.256759
-18.323505	-1.842978	0.930893	0.004532	0.256567
-18.023070	-1.901513	0.935898	0.004459	0.256569
-18.339797	-1.838071	0.940902	0.004537	0.256573
-18.766042	-1.756226	0.945907	0.004641	0.256564
-18.941084	-1.754080	0.950912	0.004684	0.256422
-19.585880	-1.609270	0.955917	0.004842	0.256500
-18.890736	-1.730082	0.960922	0.004672	0.256569
-18.792342	-1.812624	0.965926	0.004648	0.256292
-18.897411	-1.804479	0.970931	0.004674	0.256236
-18.627210	-1.855215	0.975936	0.004608	0.256246
-18.477617	-1.938100	0.980941	0.004572	0.256011
-18.648098	-1.924557	0.985946	0.004614	0.255922
-18.909119	-1.922127	0.990950	0.004678	0.255707
-19.140753	-1.900984	0.995955	0.004735	0.255599
-19.035624	-1.956813	1.000960	0.004709	0.255444

-19.570530	-1.880934	1.010957	0.004840	0.255314
-19.881350	-1.820672	1.020954	0.004916	0.255309
-19.976268	-1.801651	1.030950	0.004940	0.255309
-19.917541	-1.812954	1.040947	0.004926	0.255309
-20.099934	-1.734813	1.050944	0.004971	0.255494
-19.933215	-1.741453	1.060941	0.004931	0.255607
-19.576529	-1.812108	1.070938	0.004844	0.255603
-19.350201	-1.856075	1.080934	0.004789	0.255604
-19.070721	-1.911668	1.090931	0.004721	0.255600
-19.227709	-1.917551	1.100928	0.004760	0.255437
-19.470121	-1.839885	1.110925	0.004819	0.255568
-19.521760	-1.821332	1.120922	0.004832	0.255603
-19.673242	-1.791417	1.130918	0.004870	0.255603
-19.765673	-1.759022	1.140915	0.004893	0.255664
-19.423501	-1.766712	1.150912	0.004810	0.255924
-19.386057	-1.773572	1.160909	0.004801	0.255925
-19.059878	-1.837826	1.170906	0.004721	0.255923
-18.897266	-1.870571	1.180902	0.004682	0.255918
-18.473951	-1.953181	1.190899	0.004579	0.255919
-18.732507	-1.902387	1.200896	0.004643	0.255918
-18.996566	-1.876734	1.210893	0.004708	0.255801
-19.230613	-1.803716	1.220890	0.004765	0.255918
-19.833450	-1.650063	1.230886	0.004913	0.256071
-19.746215	-1.595580	1.240883	0.004892	0.256384
-18.856330	-1.727275	1.250880	0.004675	0.256572
-18.195955	-1.856537	1.260877	0.004514	0.256573
-17.633643	-2.021850	1.270874	0.004377	0.256332
-17.842350	-2.013011	1.280870	0.004428	0.256189
-18.364840	-1.971258	1.290867	0.004556	0.255921
-18.926921	-1.828676	1.300864	0.004694	0.256060
-18.946910	-1.783385	1.310861	0.004699	0.256240
-18.840074	-1.757331	1.320858	0.004673	0.256445
-18.866767	-1.723419	1.330854	0.004680	0.256569
-18.596547	-1.755742	1.340851	0.004615	0.256659
-18.226673	-1.778976	1.350848	0.004525	0.256874
-18.476933	-1.729038	1.360845	0.004586	0.256875
-18.050715	-1.813676	1.370842	0.004483	0.256870
-17.333838	-1.954384	1.380838	0.004308	0.256870
-17.281230	-2.030408	1.390835	0.004295	0.256581
-17.483301	-1.993675	1.400832	0.004345	0.256567
-17.908031	-1.909471	1.410829	0.004449	0.256569
-18.389882	-1.815186	1.420826	0.004567	0.256565
-18.773846	-1.699885	1.430822	0.004661	0.256738
-18.615092	-1.668958	1.440819	0.004623	0.257009
-17.962024	-1.756824	1.450816	0.004464	0.257184
-17.093254	-1.927079	1.460813	0.004252	0.257185
-16.615270	-2.077605	1.470810	0.004136	0.256937
-17.116086	-1.994616	1.480806	0.004259	0.256868
-17.930249	-1.833703	1.490803	0.004458	0.256870
-18.323606	-1.735749	1.500800	0.004554	0.256959
-18.121593	-1.723278	1.510797	0.004505	0.257186
-17.545705	-1.774697	1.520794	0.004365	0.257454
-16.960319	-1.885719	1.530790	0.004222	0.257470
-16.820371	-1.979103	1.540787	0.004189	0.257181
-16.949684	-1.952255	1.550784	0.004221	0.257186
-16.810560	-1.978731	1.560781	0.004187	0.257189
-17.184441	-1.905392	1.570778	0.004279	0.257187
-17.740319	-1.796138	1.580774	0.004415	0.257185
-17.703977	-1.735202	1.590771	0.004406	0.257481
-17.468017	-1.760720	1.600768	0.004349	0.257571
-17.276408	-1.739188	1.610765	0.004303	0.257827
-17.178904	-1.757450	1.620762	0.004279	0.257830
-16.786436	-1.835096	1.630758	0.004184	0.257826
-16.188442	-1.952448	1.640755	0.004038	0.257826
-16.062012	-1.990157	1.650752	0.004008	0.257768
-16.438453	-1.976873	1.660749	0.004100	0.257503
-16.793998	-1.901077	1.670746	0.004187	0.257527
-16.809045	-1.829522	1.680742	0.004191	0.257825
-17.191204	-1.753383	1.690739	0.004285	0.257828
-17.212415	-1.685642	1.700736	0.004290	0.258103
-16.814833	-1.738957	1.710733	0.004194	0.258210
-16.144476	-1.820135	1.720730	0.004030	0.258428
-16.064794	-1.892486	1.730726	0.004011	0.258181
-15.944887	-1.929002	1.740723	0.003982	0.258123
-15.598974	-1.996182	1.750720	0.003898	0.258125
-15.970028	-1.960300	1.760717	0.003989	0.257962
-16.175754	-1.882628	1.770714	0.004040	0.258123
-16.842455	-1.751351	1.780710	0.004203	0.258123
-16.801849	-1.697649	1.790707	0.004193	0.258390
-16.379602	-1.758960	1.800704	0.004091	0.258483
-15.780318	-1.852434	1.810701	0.003945	0.258587
-15.529169	-1.932791	1.820698	0.003884	0.258451
-15.333297	-1.973169	1.830694	0.003836	0.258441
-15.243893	-1.990138	1.840691	0.003815	0.258443
-15.750105	-1.915690	1.850688	0.003939	0.258332
-15.590103	-1.920599	1.860685	0.003900	0.258446
-15.724662	-1.894205	1.870682	0.003933	0.258445
-16.383387	-1.764525	1.880678	0.004095	0.258444
-16.367674	-1.693864	1.890675	0.004091	0.258763
-16.033044	-1.699480	1.900672	0.004010	0.259023
-15.878061	-1.710654	1.910669	0.003972	0.259105
-15.136410	-1.856447	1.920666	0.003792	0.259104
-14.584350	-1.965338	1.930662	0.003657	0.259101
-14.315800	-2.072721	1.940659	0.003592	0.258863
-14.402725	-2.105298	1.950656	0.003614	0.258646
-14.859829	-2.061740	1.960653	0.003726	0.258444
-15.223953	-1.990104	1.970650	0.003815	0.258442
-15.889579	-1.812674	1.980646	0.003978	0.258643
-16.281466	-1.662247	1.990643	0.004074	0.258961
-16.275223	-1.592303	2.000640	0.004073	0.259268
-15.879052	-1.592708	2.010637	0.003976	0.259602
-15.201975	-1.673445	2.020634	0.003811	0.259827
-14.719092	-1.739662	2.030630	0.003694	0.259949
-13.842939	-1.961483	2.040627	0.003480	0.259734
-13.509986	-2.090239	2.050624	0.003399	0.259458
-13.183607	-2.218397	2.060621	0.003320	0.259180
-13.871628	-2.158130	2.070618	0.003489	0.258854
-14.505322	-2.054983	2.080614	0.003644	0.258759
-15.472923	-1.821781	2.090611	0.003880	0.258945
-16.013578	-1.646817	2.100608	0.004013	0.259241
-15.994387	-1.548208	2.110605	0.004008	0.259683
-15.593721	-1.530169	2.120602	0.003911	0.260100
-14.566880	-1.692410	2.130598	0.003660	0.260269
-13.726753	-1.856395	2.140595	0.003456	0.260273
-13.211994	-1.997685	2.150592	0.003330	0.260098
-13.337440	-2.007563	2.160589	0.003361	0.259948
-13.250957	-2.095913	2.170586	0.003341	0.259638
-13.650892	-2.024204	2.180582	0.003439	0.259607
-14.319392	-1.897590	2.190579	0.003602	0.259585
-14.658762	-1.818198	2.200576	0.003686	0.259638
-14.204366	-1.840454	2.210573	0.003575	0.259927
-14.741346	-1.721295	2.220570	0.003707	0.259984
-14.390912	-1.722942	2.230566	0.003621	0.260273
-14.108465	-1.752978	2.240563	0.003553	0.260382
-13.702045	-1.788171	2.250560	0.003454	0.260573
-13.328133	-1.882459	2.260557	0.003363	0.260482
-13.134593	-1.967882	2.270554	0.003316	0.260277
-13.026234	-1.989506	2.280550	0.003290	0.260274
-13.284920	-1.964596	2.290547	0.003354	0.260161
-13.702530	-1.856227	2.300544	0.003456	0.260273
-13.614088	-1.872324	2.310541	0.003435	0.260277
-14.062863	-1.763608	2.320538	0.003545	0.260364
-13.516419	-1.823131	2.330534	0.003412	0.260569
-13.458557	-1.834145	2.340531	0.003398	0.260569
-13.563653	-1.808251	2.350528	0.003424	0.260591
-13.392777	-1.771631	2.360525	0.003382	0.260892
-13.163954	-1.816815	2.370522	0.003327	0.260889
-12.872765	-1.873744	2.380518	0.003256	0.260889
-12.585306	-1.929673	2.390515	0.003186	0.260890
-12.616018	-1.991957	2.400512	0.003194	0.260595
-12.782589	-1.964141	2.410509	0.003235	0.260572
-13.041886	-1.913130	2.420506	0.003299	0.260571
-13.033311	-1.855362	2.430502	0.003297	0.260826
-13.220696	-1.804151	2.440499	0.003344	0.260886
-13.178081	-1.797536	2.450496	0.003333	0.260950
-13.078711	-1.756950	2.460493	0.003310	0.261207
-12.805512	-1.810375	2.470490	0.003243	0.261207
-12.332536	-1.903507	2.480486	0.003128	0.261205
-12.057480	-1.957215	2.490483	0.003061	0.261205
-11.918692	-2.000486	2.500480	0.003028	0.261135
-12.452716	-1.908142	2.510477	0.003159	0.261079
-12.308530	-1.906459	2.520474	0.003124	0.261207
-12.736348	-1.822372	2.530470	0.003229	0.261206
-12.452423	-1.877246	2.540467	0.003160	0.261208
-12.447490	-1.876834	2.550464	0.003159	0.261213
-12.368647	-1.825550	2.560461	0.003140	0.261498
-12.740603	-1.741427	2.570458	0.003231	0.261544
-12.089050	-1.841907	2.580454	0.003072	0.261661
-12.073281	-1.821982	2.590451	0.003069	0.261759
-11.834627	-1.879688	2.600448	0.003011	0.261711
-11.751942	-1.926860	2.610445	0.002991	0.261577
-11.455707	-1.992877	2.620442	0.002919	0.261543
-11.344678	-2.014650	2.630438	0.002893	0.261541
-11.461888	-1.991600	2.640435	0.002922	0.261540
-11.687264	-1.946243	2.650432	0.002977	0.261543
-12.340114	-1.816837	2.660429	0.003137	0.261547
-12.378395	-1.759225	2.670426	0.003147	0.261760
-12.181959	-1.756307	2.680422	0.003099	0.261937
-11.924578	-1.754716	2.690419	0.003036	0.262159
-11.513130	-1.834759	2.700416	0.002936	0.262162
-11.088268	-1.917397	2.710413	0.002833	0.262164
-10.487317	-2.049593	2.720410	0.002687	0.262102
-10.905280	-2.027440	2.730406	0.002789	0.261844
-10.893179	-2.029442	2.740403	0.002786	0.261844
-11.258143	-1.956394	2.750400	0.002876	0.261848
-11.892824	-1.826968	2.760397	0.003031	0.261867
-12.039980	-1.729242	2.770394	0.003068	0.262161
-11.959308	-1.680948	2.780390	0.003048	0.262434
-11.220224	-1.771311	2.790387	0.002868	0.262667
-10.588293	-1.932516	2.800384	0.002714	0.262508
-9.904429	-2.075499	2.810381	0.002548	0.262470
-10.227798	-2.085056	2.820378	0.002627	0.262156
-10.551945	-2.021212	2.830374	0.002707	0.262155
-11.081103	-1.916267	2.840371	0.002836	0.262158
-11.322969	-1.844626	2.850368	0.002896	0.262259
-11.507512	-1.756798	2.860365	0.002941	0.262479
-11.323851	-1.717468	2.870362	0.002896	0.262800
-10.999286	-1.743968	2.880358	0.002818	0.262958
-10.416276	-1.825855	2.890355	0.002676	0.263096
-10.135910	-1.905120	2.900352	0.002608	0.262992
-9.885632	-1.998455	2.910349	0.002547	0.262802
-9.396603	-2.104960	2.920346	0.002428	0.262756
-9.649273	-2.122634	2.930342	0.002490	0.262467
-10.447981	-1.964776	2.940339	0.002685	0.262469
-11.005150	-1.831064	2.950336	0.002822	0.262572
-11.120010	-1.745263	2.960333	0.002850	0.262840
-11.454165	-1.596274	2.970330	0.002932	0.263195
-10.789304	-1.660875	2.980326	0.002770	0.263475
-9.731869	-1.813788	2.990323	0.002512	0.263708
-9.168934	-1.992084	3.000320	0.002375	0.263418
-8.818295	-2.101864	3.010317	0.002290	0.263243
-8.977343	-2.142723	3.020314	0.002329	0.262934
-9.825346	-2.007369	3.030310	0.002537	0.262799
-10.179317	-1.898433	3.040307	0.002623	0.262965
-10.152116	-1.873645	3.050304	0.002617	0.263093
-10.522833	-1.757535	3.060301	0.002708	0.263276
-10.376257	-1.722093	3.070298	0.002673	0.263548
-9.656377	-1.820170	3.080294	0.002497	0.263732
-9.760578	-1.798616	3.090291	0.002523	0.263735
-9.520544	-1.844307	3.100288	0.002465	0.263740
-9.254929	-1.896269	3.110285	0.002400	0.263740
-8.732610	-1.999076	3.120282	0.002273	0.263738
-8.750445	-2.026938	3.130278	0.002278	0.263603
-9.205447	-1.981335	3.140275	0.002389	0.263415
-9.440883	-1.895448	3.150272	0.002447	0.263582
-9.211273	-1.903678	3.160269	0.002392	0.263738
-9.203435	-1.905488	3.170266	0.002390	0.263736
-9.301668	-1.886075	3.180262	0.002414	0.263735
-9.545970	-1.809622	3.190259	0.002474	0.263855
-9.179058	-1.829689	3.200256	0.002385	0.264075
-9.261596	-1.812888	3.210253	0.002406	0.264076
-9.201630	-1.785483	3.220250	0.002391	0.264241
-8.412531	-1.926558	3.230246	0.002199	0.264299
-8.146675	-2.032153	3.240243	0.002135	0.264071
-7.912864	-2.101775	3.250240	0.002078	0.263969
-8.699856	-2.001377	3.260237	0.002271	0.263737
-8.980382	-1.898956	3.270234	0.002339	0.263937
-9.746366	-1.692428	3.280230	0.002527	0.264174
-9.220105	-1.756092	3.290227	0.002399	0.264341
-9.001617	-1.729110	3.300224	0.002346	0.264637
-8.208316	-1.884816	3.310221	0.002152	0.264636
-7.705621	-1.983318	3.320218	0.002030	0.264636
-7.436207	-2.103166	3.330214	0.001965	0.264351
-8.015615	-1.995429	3.340211	0.002106	0.264324
-8.060810	-1.986187	3.350208	0.002118	0.264324
-8.611636	-1.876853	3.360205	0.002253	0.264327
-9.066424	-1.749927	3.370202	0.002364	0.264485
-8.613068	-1.768460	3.380198	0.002254	0.264783
-7.698403	-1.952933	3.390195	0.002031	0.264762
-7.910162	-1.940505	3.400192	0.002083	0.264637
-8.170474	-1.849676	3.410189	0.002147	0.264804
-8.266013	-1.797486	3.420186	0.002171	0.264944
-8.309103	-1.775115	3.430182	0.002181	0.265002
-7.669021	-1.838670	3.440179	0.002025	0.265264
-6.877728	-2.054339	3.450176	0.001833	0.265008
-6.516798	-2.178817	3.460173	0.001745	0.264780
-6.967266	-2.125518	3.470170	0.001855	0.264629
-8.014104	-1.919377	3.480166	0.002111	0.264629
-8.832160	-1.717244	3.490163	0.002311	0.264804
-8.821037	-1.630703	3.500160	0.002309	0.265178
-8.537213	-1.598775	3.510157	0.002240	0.265548
-7.739252	-1.679371	3.520154	0.002046	0.265869
-6.430960	-1.950539	3.530150	0.001726	0.265808
-5.900078	-2.131759	3.540147	0.001597	0.265482
-5.784971	-2.243211	3.550144	0.001570	0.265104
-6.484894	-2.146600	3.560141	0.001741	0.264930
-7.293997	-2.028550	3.570138	0.001939	0.264755
-7.907143	-1.862960	3.580134	0.002089	0.264945
-8.605154	-1.641586	3.590131	0.002260	0.265300
-8.326401	-1.590392	3.600128	0.002192	0.265747
-7.518732	-1.675092	3.610125	0.001995	0.266058
-6.455261	-1.850869	3.620122	0.001736	0.266197
-6.406200	-1.933437	3.630118	0.001724	0.265888
-5.717656	-2.076223	3.640115	0.001557	0.265855
-5.683013	-2.150407	3.650112	0.001548	0.265569
-5.985396	-2.150630	3.660109	0.001623	0.265315
-6.579638	-2.044510	3.670106	0.001768	0.265269
-7.440414	-1.838772	3.680102	0.001979	0.265422
-7.649375	-1.735571	3.690099	0.002030	0.265684
-7.303654	-1.731359	3.700096	0.001946	0.265987
-6.855740	-1.768196	3.710093	0.001837	0.266202
-6.591416	-1.798623	3.720090	0.001773	0.266291
-5.934462	-1.947735	3.730086	0.001613	0.266205
-5.960576	-1.943768	3.740083	0.001620	0.266199
-5.956909	-1.943012	3.750080	0.001619	0.266204
-5.991278	-1.935769	3.760077	0.001628	0.266205
-5.865846	-1.961152	3.770074	0.001598	0.266200
-5.811336	-1.972019	3.780070	0.001585	0.266199
-6.072183	-1.950714	3.790067	0.001649	0.266071
-6.085558	-1.916434	3.800064	0.001652	0.266203
-6.578724	-1.818502	3.810061	0.001773	0.266206
-6.237818	-1.809042	3.820058	0.001690	0.266527
-6.098094	-1.834869	3.830054	0.001657	0.266533
-5.686390	-1.916060	3.840051	0.001556	0.266530
-5.621176	-1.926498	3.850048	0.001541	0.266539
-5.782502	-1.895252	3.860045	0.001581	0.266536
-5.771420	-1.845697	3.870042	0.001578	0.266752
-5.645584	-1.850067	3.880038	0.001548	0.266836
-5.349806	-1.907649	3.890035	0.001476	0.266837
-5.713775	-1.835766	3.900032	0.001565	0.266838
-4.754878	-2.023635	3.910029	0.001332	0.266839
-4.759021	-2.091656	3.920026	0.001333	0.266548
-4.993858	-2.049216	3.930022	0.001391	0.266531
-5.704452	-1.908636	3.940019	0.001565	0.266533
-6.035933	-1.787005	3.950016	0.001646	0.266770
-6.048547	-1.734073	3.960013	0.001649	0.266981
-5.755810	-1.745319	3.970010	0.001578	0.267174
-5.214847	-1.782633	3.980006	0.001447	0.267462
-4.712564	-1.881096	3.990003	0.001324	0.267462
-4.562622	-1.968848	4.000000	0.001288	0.267216
-4.381400	-2.019181	4.009997	0.001244	0.267153
-4.603512	-1.975416	4.019994	0.001299	0.267152
-4.583576	-1.978839	4.029990	0.001294	0.267153
-4.391238	-2.048560	4.039987	0.001248	0.267017
-4.962759	-1.955309	4.049984	0.001388	0.266936
-5.156897	-1.864972	4.059981	0.001435	0.267154
-5.392815	-1.775098	4.069978	0.001493	0.267336
-5.193468	-1.779243	4.079974	0.001445	0.267481
-4.946603	-1.753707	4.089971	0.001385	0.267791
-4.556606	-1.829158	4.099968	0.001290	0.267794
-4.073112	-1.924133	4.109965	0.001173	0.267793
-3.597268	-2.027569	4.119962	0.001057	0.267750
-4.229780	-1.971102	4.129958	0.001212	0.267464
-4.183864	-1.980352	4.139955	0.001201	0.267462
-4.296329	-1.915562	4.149952	0.001229	0.267640
-3.895602	-2.029020	4.159949	0.001131	0.267493
-4.196532	-1.939382	4.169946	0.001205	0.267620
-3.971200	-1.949992	4.179942	0.001150	0.267760
-4.188072	-1.899527	4.189939	0.001204	0.267791
-4.585112	-1.821175	4.199936	0.001301	0.267791
-4.406434	-1.804426	4.209933	0.001258	0.268007
-4.159018	-1.833775	4.219930	0.001198	0.268087
-3.959986	-1.872469	4.229926	0.001150	0.268087
-3.614084	-1.911634	4.239923	0.001065	0.268207
-3.784926	-1.905295	4.249920	0.001108	0.268091
-3.414446	-1.967450	4.259917	0.001017	0.268135
-3.290316	-2.002122	4.269914	0.000988	0.268090
-2.918413	-2.075402	4.279910	0.000897	0.268088
-2.857224	-2.134355	4.289907	0.000883	0.267890
-3.585844	-2.014095	4.299904	0.001061	0.267793
-4.422304	-1.795614	4.309901	0.001266	0.268018
-4.601981	-1.680848	4.319898	0.001310	0.268350
-4.395835	-1.637609	4.329894	0.001260	0.268698
-3.809639	-1.672582	4.339891	0.001117	0.269032
-2.897166	-1.844096	4.349888	0.000894	0.269063
-2.297080	-2.003604	4.359885	0.000748	0.268888
-2.222460	-2.057981	4.369882	0.000731	0.268721
-2.176466	-2.142658	4.379878	0.000720	0.268404
-2.331690	-2.151546	4.389875	0.000758	0.268238
-3.587251	-1.905154	4.399872	0.001065	0.268235
-3.898307	-1.784837	4.409869	0.001141	0.268481
-4.306537	-1.609246	4.419866	0.001241	0.268879
-3.661001	-1.659985	4.429862	0.001084	0.269195
-2.908942	-1.783612	4.439859	0.000901	0.269294
-2.335943	-1.895557	4.449856	0.000761	0.269296
-2.180305	-1.925704	4.459853	0.000724	0.269296
-2.223902	-1.962041	4.469850	0.000735	0.269108
-2.034289	-2.010972	4.479846	0.000689	0.269058
-2.083751	-2.001295	4.489843	0.000701	0.269056
-2.148470	-2.033873	4.499840	0.000717	0.268866
-2.549903	-1.924084	4.509837	0.000816	0.268994
-2.672071	-1.883765	4.519834	0.000846	0.269060
-2.983890	-1.812097	4.529830	0.000923	0.269102
-2.601020	-1.841121	4.539827	0.000829	0.269294
-2.691124	-1.822915	4.549824	0.000852	0.269295
-2.207808	-1.848804	4.559821	0.000734	0.269581
-2.020733	-1.879266	4.569818	0.000689	0.269606
-1.951981	-1.893598	4.579814	0.000672	0.269601
-1.903401	-1.902666	4.589811	0.000661	0.269602
-1.821049	-1.917502	4.599808	0.000641	0.269606
-1.770991	-1.986755	4.609805	0.000629	0.269358
-1.907874	-1.913690	4.619802	0.000663	0.269549
-2.001285	-1.881931	4.629798	0.000686	0.269603
-1.829509	-1.915717	4.639795	0.000645	0.269602
-1.750255	-1.931235	4.649792	0.000626	0.269601
-1.782678	-1.924227	4.659789	0.000634	0.269602
-1.882054	-1.886496	4.669786	0.000659	0.269677
-1.682903	-1.869102	4.679782	0.000610	0.269910
-2.131370	-1.780012	4.689779	0.000720	0.269913
-2.039787	-1.733477	4.699776	0.000698	0.270180
-1.819056	-1.761361	4.709773	0.000645	0.270243
-1.637709	-1.756967	4.719770	0.000601	0.270408
-1.556566	-1.743244	4.729766	0.000581	0.270530
-1.463428	-1.760949	4.739763	0.000559	0.270531
-1.509101	-1.738908	4.749760	0.000571	0.270584
-1.297193	-1.717013	4.759757	0.000519	0.270846
-1.333992	-1.708965	4.769754	0.000529	0.270848
-1.226300	-1.729811	4.779750	0.000503	0.270848
-1.288043	-1.705263	4.789747	0.000518	0.270898
-1.208732	-1.655759	4.799744	0.000499	0.271167
-1.165174	-1.663735	4.809741	0.000489	0.271168
-1.293097	-1.615316	4.819738	0.000520	0.271263
-1.191520	-1.578700	4.829734	0.000496	0.271496
-1.279604	-1.559738	4.839731	0.000518	0.271501
-1.127498	-1.516071	4.849728	0.000481	0.271804
-1.042512	-1.532072	4.859725	0.000461	0.271805
-1.063625	-1.474264	4.869722	0.000466	0.272026
-0.984927	-1.468992	4.879718	0.000447	0.272110
-0.872478	-1.456177	4.889715	0.000420	0.272253
-0.762746	-1.434364	4.899712	0.000394	0.272430
-0.798478	-1.427074	4.909709	0.000403	0.272430
-0.624566	-1.398702	4.919706	0.000361	0.272686
-0.604275	-1.385139	4.929702	0.000356	0.272757
-0.780217	-1.341935	4.939699	0.000400	0.272791
-0.934512	-1.246579	4.949696	0.000438	0.273058
-1.114775	-1.156858	4.959693	0.000482	0.273280
-1.045460	-1.098695	4.969690	0.000465	0.273573
-0.843702	-1.074918	4.979686	0.000416	0.273832
-0.495614	-1.094937	4.989683	0.000332	0.274029
-0.218377	-1.125450	4.999680	0.000264	0.274125
-0.089050	-1.116447	5.009677	0.000233	0.274265
-0.213562	-1.091973	5.019674	0.000264	0.274264
-0.484235	-0.998632	5.029670	0.000330	0.274427
-0.550920	-0.938646	5.039667	0.000347	0.274617
-0.804180	-0.810669	5.049664	0.000409	0.274936
-0.856618	-0.716295	5.059661	0.000422	0.275277
-0.650758	-0.682328	5.069658	0.000372	0.275579
-0.267689	-0.698043	5.079654	0.000279	0.275820
-0.142847	-0.653817	5.089651	0.000249	0.276099
0.197437	-0.710056	5.099648	0.000166	0.276141
0.285213	-0.663535	5.109645	0.000145	0.276399
-0.059624	-0.578745	5.119642	0.000230	0.276466
-0.377942	-0.446604	5.129638	0.000308	0.276748
-0.637765	-0.307641	5.139635	0.000372	0.277103
-0.694169	-0.192900	5.149632	0.000386	0.277521
-0.524655	-0.126087	5.159629	0.000345	0.277924
-0.069972	-0.125816	5.169626	0.000234	0.278285
0.368813	-0.154242	5.179622	0.000127	0.278516
0.775010	-0.197720	5.189619	0.000028	0.278661
0.770079	-0.196181	5.199616	0.000030	0.278663
0.392647	-0.060433	5.209613	0.000122	0.278909
0.000000	0.042994	5.219610	0.000219	0.279014

-0.275655	0.151705	5.224614	0.000286	0.279233
-0.612189	0.275909	5.229619	0.000368	0.279466
-0.745105	0.378211	5.234624	0.000401	0.279771
-0.692665	0.458686	5.239629	0.000388	0.280134
-0.783297	0.575538	5.244634	0.000411	0.280530
-0.449297	0.608301	5.249638	0.000329	0.280923
-0.261356	0.661548	5.254643	0.000283	0.281282
0.015453	0.699390	5.259648	0.000216	0.281649
0.405217	0.713066	5.264653	0.000121	0.282008
0.801819	0.715473	5.269658	0.000024	0.282327
1.168010	0.725964	5.274662	-0.000065	0.282654
1.204967	0.783824	5.279667	-0.000074	0.282911
1.510839	0.796747	5.284672	-0.000149	0.283200
1.547409	0.865953	5.289677	-0.000157	0.283502
1.415415	0.970510	5.294682	-0.000125	0.283813
1.384854	1.055356	5.299686	-0.000117	0.284124
1.096207	1.203589	5.304691	-0.000047	0.284484
0.759260	1.390971	5.309696	0.000036	0.284962
0.633134	1.545947	5.314701	0.000067	0.285473
0.223350	1.768792	5.319706	0.000167	0.286032
0.032864	1.975184	5.324710	0.000213	0.286694
0.141079	2.123949	5.329715	0.000187	0.287358
0.119412	2.301817	5.334720	0.000192	0.288035
0.389378	2.436869	5.339725	0.000126	0.288766
0.606162	2.548697	5.344730	0.000074	0.289365
0.990471	2.648227	5.349734	-0.000020	0.290042
1.331775	2.746359	5.354739	-0.000103	0.290680
1.734529	2.830537	5.359744	-0.000202	0.291309
2.060612	2.921796	5.364749	-0.000281	0.291906
2.288336	3.023823	5.369754	-0.000337	0.292469
2.209808	3.198099	5.374758	-0.000318	0.293077
2.338006	3.337344	5.379763	-0.000349	0.293706
2.086452	3.535365	5.384768	-0.000287	0.294273
1.976050	3.743271	5.389773	-0.000260	0.294981
1.769467	3.969348	5.394778	-0.000210	0.295686
1.661057	4.205378	5.399782	-0.000183	0.296499
1.436928	4.463646	5.404787	-0.000128	0.297309
1.346421	4.715674	5.409792	-0.000106	0.298191
1.321416	4.955990	5.414797	-0.000100	0.299075
1.491039	5.156483	5.419802	-0.000142	0.299951
1.687804	5.367774	5.424806	-0.000190	0.300884
1.896787	5.572140	5.429811	-0.000241	0.301797
2.486395	5.696161	5.434816	-0.000385	0.302687
2.751842	5.876773	5.439821	-0.000449	0.303548
2.873144	6.071978	5.444826	-0.000479	0.304356
3.151759	6.247397	5.449830	-0.000547	0.305203
3.271021	6.448779	5.454835	-0.000576	0.306028
3.258113	6.689182	5.459840	-0.000573	0.306898
3.170105	6.953649	5.464845	-0.000551	0.307800
3.046685	7.225224	5.469850	-0.000521	0.308700
3.092334	7.464198	5.474854	-0.000532	0.309600
2.684672	7.815445	5.479859	-0.000433	0.310581
2.562786	8.137895	5.484864	-0.000403	0.311657
2.543954	8.444407	5.489869	-0.000399	0.312745
2.364627	8.791504	5.494874	-0.000355	0.313862
2.660804	9.048069	5.499878	-0.000427	0.314985
2.747927	9.351522	5.504883	-0.000448	0.316124
2.976544	9.634851	5.509888	-0.000504	0.317287
3.393514	9.877023	5.514893	-0.000606	0.318430
3.607097	10.128605	5.519898	-0.000658	0.319462
3.998612	10.368940	5.524902	-0.000754	0.320574
4.260048	10.623582	5.529907	-0.000818	0.321642
4.473305	10.886140	5.534912	-0.000870	0.322702
4.494046	11.195119	5.539917	-0.000875	0.323788
4.560598	11.478206	5.544922	-0.000891	0.324812
4.471316	11.827507	5.549926	-0.000870	0.325956
4.407676	12.171903	5.554931	-0.000854	0.327096
4.311302	12.534478	5.559936	-0.000831	0.328273
4.110470	12.915114	5.564941	-0.000782	0.329437
4.073120	13.290374	5.569946	-0.000772	0.330688
4.039307	13.684198	5.574950	-0.000764	0.331998
3.948298	14.092738	5.579955	-0.000742	0.333316
4.008731	14.467790	5.584960	-0.000757	0.334616
4.193932	14.844727	5.589965	-0.000802	0.335998
4.364043	15.216070	5.594970	-0.000844	0.337347
4.662074	15.563328	5.599974	-0.000917	0.338693
4.998009	15.892514	5.604979	-0.000999	0.339999
5.249095	16.241258	5.609984	-0.001060	0.341309
5.512104	16.593045	5.614989	-0.001125	0.342632
5.587060	16.969664	5.619994	-0.001143	0.343911
5.878009	17.310423	5.624998	-0.001214	0.345206
5.941476	17.703136	5.630003	-0.001230	0.346520
5.991529	18.104087	5.635008	-0.001242	0.347847
6.004757	18.505699	5.640013	-0.001245	0.349148
5.847422	18.954296	5.645018	-0.001207	0.350488
5.904391	19.392102	5.650022	-0.001221	0.351922
5.725882	19.871901	5.655027	-0.001178	0.353337
5.558325	20.352138	5.660032	-0.001137	0.354755
5.650950	20.823553	5.665037	-0.001160	0.356300
5.554082	21.328386	5.670042	-0.001136	0.357826
5.686569	21.781945	5.675046	-0.001169	0.359326
5.785843	22.263302	5.680051	-0.001193	0.360887
5.935714	22.742347	5.685056	-0.001230	0.362463
6.211901	23.189976	5.690061	-0.001297	0.364013
6.326654	23.666937	5.695066	-0.001326	0.365549
6.564283	24.137097	5.700070	-0.001384	0.367131
6.857751	24.576695	5.705075	-0.001456	0.368647
7.023932	25.039857	5.710080	-0.001496	0.370152
7.168880	25.527771	5.715085	-0.001532	0.371713
7.105287	26.051509	5.720090	-0.001517	0.373253
7.195836	26.550293	5.725094	-0.001539	0.374802
7.238503	27.080690	5.730099	-0.001550	0.376411
7.209160	27.631188	5.735104	-0.001543	0.378032
7.043803	28.209926	5.740109	-0.001502	0.379650
7.080394	28.773921	5.745114	-0.001512	0.381334
7.181220	29.340392	5.750118	-0.001536	0.383054
7.241453	29.900796	5.755123	-0.001551	0.384726
7.285406	30.493930	5.760128	-0.001562	0.386477
7.462444	31.056610	5.765133	-0.001606	0.388207
7.572330	31.622831	5.770138	-0.001633	0.389902
7.952990	32.161380	5.775142	-0.001726	0.391661
7.956751	32.761301	5.780147	-0.001727	0.393378
8.217001	33.311099	5.785152	-0.001791	0.395087
8.475756	33.879273	5.790157	-0.001854	0.396840
8.643618	34.443725	5.795162	-0.001896	0.398525
8.842282	35.013658	5.800166	-0.001944	0.400235
8.979343	35.606206	5.805171	-0.001978	0.401967
8.947169	36.225619	5.810176	-0.001970	0.403675
8.923082	36.870484	5.815181	-0.001965	0.405450
8.734314	37.560220	5.820186	-0.001919	0.407252
8.939741	38.167299	5.825190	-0.001969	0.409031
8.890275	38.848511	5.830195	-0.001958	0.410869
8.749262	39.565562	5.835200	-0.001923	0.412747
8.948587	40.217549	5.840205	-0.001972	0.414621
9.098667	40.890384	5.845210	-0.002009	0.416516
9.363117	41.539461	5.850214	-0.002074	0.418399
9.499827	42.212561	5.855219	-0.002108	0.420271
9.769881	42.870550	5.860224	-0.002174	0.422164
10.146559	43.495468	5.865229	-0.002266	0.424016
10.424576	44.137566	5.870234	-0.002335	0.425854
10.771129	44.771921	5.875238	-0.002420	0.427699
10.961380	45.408218	5.880243	-0.002466	0.429462
11.081733	46.090114	5.885248	-0.002496	0.431301
11.211481	46.764337	5.890253	-0.002528	0.433116
11.166618	47.470184	5.895258	-0.002517	0.434918
10.992633	48.236804	5.900262	-0.002475	0.436804
10.894111	48.989220	5.905267	-0.002451	0.438683
10.811591	49.771878	5.910272	-0.002432	0.440639
10.876981	50.545214	5.915277	-0.002448	0.442635
10.870414	51.316353	5.920282	-0.002447	0.444582
10.985863	52.108392	5.925286	-0.002475	0.446633
11.084092	52.876846	5.930291	-0.002500	0.448607
11.164039	53.677102	5.935296	-0.002520	0.450642
11.302290	54.476986	5.940301	-0.002554	0.452696
11.556149	55.237050	5.945306	-0.002616	0.454697
11.895873	56.004054	5.950310	-0.002699	0.456748
12.262498	56.739266	5.955315	-0.002789	0.458725
12.491374	57.505826	5.960320	-0.002846	0.460704
12.877077	58.250730	5.965325	-0.002940	0.462697
13.031813	59.014979	5.970330	-0.002978	0.464619
13.111293	59.824732	5.975334	-0.002998	0.466607
13.229014	60.604150	5.980339	-0.003027	0.468532
13.239416	61.431178	5.985344	-0.003030	0.470512
13.152344	62.295592	5.990349	-0.003009	0.472528
13.218677	63.130974	5.995354	-0.003026	0.474538
13.279602	63.997219	6.000358	-0.003041	0.476609
13.163941	64.890031	6.005363	-0.003014	0.478653
13.189886	65.792834	6.010368	-0.003020	0.480776
13.307795	66.686611	6.015373	-0.003050	0.482910
13.518885	67.553347	6.020378	-0.003102	0.485014
13.699431	68.446923	6.025382	-0.003146	0.487157
13.950370	69.298176	6.030387	-0.003208	0.489226
14.223885	70.174964	6.035392	-0.003275	0.491353
14.412966	71.053825	6.040397	-0.003322	0.493439
14.645283	71.929777	6.045402	-0.003379	0.495528
14.993205	72.784700	6.050406	-0.003464	0.497612
15.092735	73.679783	6.055411	-0.003489	0.499669
15.137070	74.606692	6.060416	-0.003500	0.501765
15.300007	75.509494	6.065421	-0.003541	0.503850
15.288712	76.466092	6.070426	-0.003538	0.505970
15.317278	77.417792	6.075430	-0.003546	0.508088
15.188635	78.418151	6.080435	-0.003515	0.510237
15.114909	79.430747	6.085440	-0.003497	0.512427
15.311671	80.401089	6.090445	-0.003546	0.514630
15.359299	81.414627	6.095450	-0.003558	0.516854
15.498584	82.401942	6.100454	-0.003593	0.519051
15.661742	83.418531	6.105459	-0.003633	0.521311
15.985070	84.376716	6.110464	-0.003713	0.523503
16.283460	85.367886	6.115469	-0.003786	0.525746
16.615525	86.315525	6.120474	-0.003868	0.527901
16.845026	87.291516	6.125478	-0.003924	0.530065
17.176296	88.256916	6.130483	-0.004006	0.532239
17.299720	89.238753	6.135488	-0.004036	0.534354
17.659570	90.211199	6.140493	-0.004125	0.536538
17.793563	91.179873	6.145498	-0.004158	0.538613
17.951272	92.194527	6.150502	-0.004197	0.540785
18.089759	93.199572	6.155507	-0.004231	0.542921
17.926302	94.281530	6.160512	-0.004192	0.545087
17.992657	95.338360	6.165517	-0.004209	0.547283
18.099025	96.379613	6.170522	-0.004235	0.549455
18.044566	97.495200	6.175526	-0.004223	0.551706
18.100949	98.578399	6.180531	-0.004237	0.553926
18.225999	99.681576	6.185536	-0.004268	0.556204
18.350987	100.767506	6.190541	-0.004299	0.558438
18.402582	101.908154	6.195546	-0.004312	0.560745
18.748412	102.976534	6.200550	-0.004397	0.563011
19.018481	104.068687	6.205555	-0.004464	0.565286
19.110615	105.180755	6.210560	-0.004487	0.567524
19.419509	106.261483	6.215565	-0.004563	0.569773
19.588363	107.373486	6.220570	-0.004605	0.572022
19.874355	108.459104	6.225574	-0.004675	0.574254
20.021201	109.589503	6.230579	-0.004712	0.576513
20.250874	110.675885	6.235584	-0.004769	0.578709
20.371908	111.826566	6.240589	-0.004799	0.580980
20.419208	112.969652	6.245594	-0.004811	0.583200
20.681733	114.104346	6.250598	-0.004876	0.585475
20.812937	115.248449	6.255603	-0.004908	0.587711
20.811088	116.430576	6.260608	-0.004909	0.589962
20.986651	117.596588	6.265613	-0.004952	0.592239
21.079052	118.769769	6.270618	-0.004975	0.594490
21.410704	119.926474	6.275622	-0.005057	0.596788
21.592519	121.081895	6.280627	-0.005102	0.599021
21.898790	122.237590	6.285632	-0.005178	0.601291
22.007578	123.415054	6.290637	-0.005205	0.603523
22.104370	124.625769	6.295642	-0.005229	0.605803
22.364033	125.770647	6.300646	-0.005293	0.608011
22.456754	126.989231	6.305651	-0.005316	0.610287
22.651922	128.172014	6.310656	-0.005365	0.612526
22.810184	129.393380	6.315661	-0.005404	0.614814
22.853696	130.622992	6.320666	-0.005415	0.617068
22.887711	131.871227	6.325670	-0.005424	0.619344
22.912143	133.158935	6.330675	-0.005431	0.621680
23.190546	134.373323	6.335680	-0.005500	0.623963
23.357050	135.651042	6.340685	-0.005541	0.626313
23.484659	136.881731	6.345690	-0.005573	0.628557
23.734575	138.151890	6.350694	-0.005635	0.630904
23.822955	139.415566	6.355699	-0.005657	0.633177
24.180218	140.659752	6.360704	-0.005745	0.635498
24.477429	141.893126	6.365709	-0.005818	0.637771
24.753521	143.131693	6.370714	-0.005887	0.640038
24.989050	144.377562	6.375718	-0.005945	0.642296
25.270969	145.620048	6.380723	-0.006014	0.644556
25.575744	146.834519	6.385728	-0.006090	0.646767
25.739547	148.079857	6.390733	-0.006130	0.648977
25.845123	149.357940	6.395738	-0.006157	0.651217
25.971215	150.617307	6.400742	-0.006188	0.653424
25.841394	151.981020	6.405747	-0.006157	0.655717
25.761333	153.313123	6.410752	-0.006139	0.657965
25.884311	154.672552	6.415757	-0.006169	0.660318
25.794858	156.061487	6.420762	-0.006148	0.662644
25.773760	157.478735	6.425766	-0.006144	0.665031
25.827349	158.879290	6.430771	-0.006158	0.667406
25.903101	160.300439	6.435776	-0.006177	0.669814
26.152926	161.691556	6.440781	-0.006239	0.672219
26.473403	163.060252	6.445786	-0.006318	0.674600
26.754986	164.438373	6.450790	-0.006388	0.676977
27.187339	165.777618	6.455795	-0.006494	0.679328
27.603124	167.103226	6.460800	-0.006596	0.681644
27.958448	168.428018	6.465805	-0.006684	0.683931
28.239234	169.764177	6.470810	-0.006753	0.686206
28.515754	171.073951	6.475814	-0.006822	0.688430
28.591440	172.462103	6.480819	-0.006841	0.690710
28.761685	173.796637	6.485824	-0.006883	0.692926
28.873908	175.209657	6.490829	-0.006911	0.695244
28.800967	176.613071	6.495834	-0.006894	0.697481
28.988006	178.025596	6.500838	-0.006941	0.699806
28.953254	179.476744	6.505843	-0.006933	0.702116
29.060179	180.926563	6.510848	-0.006960	0.704460
29.223928	182.366008	6.515853	-0.007001	0.706798
29.282101	183.828430	6.520858	-0.007016	0.709131
29.552133	185.267044	6.525862	-0.007083	0.711484
29.811720	186.706399	6.530867	-0.007147	0.713827
29.879670	188.179773	6.535872	-0.007165	0.716158
30.182792	189.613970	6.540877	-0.007240	0.718490
30.206007	191.118086	6.545882	-0.007246	0.720840
30.418190	192.582379	6.550886	-0.007299	0.723177
30.822393	194.026456	6.555891	-0.007398	0.725532
31.039922	195.451781	6.560896	-0.007452	0.727795
31.352859	196.913612	6.565901	-0.007530	0.730135
31.441667	198.368009	6.570906	-0.007552	0.732391
31.659709	199.853364	6.575910	-0.007606	0.734725
31.636957	201.360529	6.580915	-0.007602	0.737015
31.679404	202.892989	6.585920	-0.007613	0.739355
32.060902	204.362686	6.590925	-0.007707	0.741690
32.101455	205.903526	6.595930	-0.007718	0.744027
32.206632	207.428838	6.600934	-0.007744	0.746353
32.399315	208.959687	6.605939	-0.007792	0.748704
32.574153	210.483246	6.610944	-0.007836	0.751031
32.738550	212.021872	6.615949	-0.007877	0.753371
32.984651	213.550020	6.620954	-0.007938	0.755712
33.210038	215.057517	6.625958	-0.007994	0.758008
33.440004	216.611367	6.630963	-0.008051	0.760368
33.497287	218.154434	6.635968	-0.008066	0.762656
33.772119	219.713036	6.640973	-0.008134	0.765020
33.967297	221.224636	6.645978	-0.008183	0.767286
34.158687	222.788212	6.650982	-0.008230	0.769620
34.351714	224.333142	6.655987	-0.008278	0.771921
34.459908	225.914214	6.660992	-0.008306	0.774244
34.661502	227.482497	6.665997	-0.008356	0.776566
34.690842	229.086059	6.671002	-0.008364	0.778886
34.786172	230.705457	6.676006	-0.008388	0.781240
34.843398	232.342155	6.681011	-0.008403	0.783600
34.994936	233.962289	6.686016	-0.008441	0.785956
35.004180	235.622415	6.691021	-0.008444	0.788323
35.023063	237.311253	6.696026	-0.008450	0.790726
35.169343	238.977640	6.701030	-0.008487	0.793124
35.367079	240.660362	6.706035	-0.008536	0.795552
35.459371	242.338490	6.711040	-0.008560	0.797938
35.705262	244.038994	6.716045	-0.008621	0.800389
35.924659	245.710827	6.721050	-0.008675	0.802785
36.326692	247.368900	6.726054	-0.008774	0.805203
36.730462	248.966348	6.731059	-0.008874	0.807530
36.944404	250.630429	6.736064	-0.008927	0.809893
37.321416	252.232334	6.741069	-0.009020	0.812206
37.558981	253.882745	6.746074	-0.009079	0.814543
37.847409	255.471918	6.751078	-0.009151	0.816802
37.876126	257.173336	6.756083	-0.009159	0.819141
37.974709	258.834422	6.761088	-0.009184	0.821436
38.148483	260.524449	6.766093	-0.009227	0.823784
38.123775	262.233975	6.771098	-0.009222	0.826101
38.106650	263.973846	6.776102	-0.009219	0.828454
38.192244	265.720857	6.781107	-0.009241	0.830837
38.072720	267.511905	6.786112	-0.009213	0.833220
38.098667	269.328696	6.791117	-0.009221	0.835667
38.238970	271.118254	6.796122	-0.009256	0.838099
38.444882	272.913560	6.801126	-0.009307	0.840549
38.716347	274.700546	6.806131	-0.009375	0.842997
38.956338	276.473169	6.811136	-0.009434	0.845411
39.449394	278.188504	6.816141	-0.009556	0.847805
39.790894	279.931665	6.821146	-0.009640	0.850191
40.077404	281.642506	6.826150	-0.009711	0.852515
40.488457	283.373515	6.831155	-0.009813	0.854890
40.597456	285.080449	6.836160	-0.009840	0.857152
40.840730	286.847621	6.841165	-0.009901	0.859519
41.132369	288.538663	6.846170	-0.009973	0.861793
41.352204	290.284777	6.851174	-0.010028	0.864115
41.364982	292.037817	6.856179	-0.010032	0.866389
41.263092	293.853535	6.861184	-0.010008	0.868710
41.333355	295.669083	6.866189	-0.010027	0.871067
41.271212	297.531834	6.871194	-0.010013	0.873445
41.462600	299.351023	6.876198	-0.010060	0.875823
41.546382	301.223586	6.881203	-0.010082	0.878236
41.659439	303.086238	6.886208	-0.010111	0.880637
41.860360	304.958909	6.891213	-0.010161	0.883066
41.975175	306.829141	6.896218	-0.010190	0.885464
42.249878	308.676785	6.901222	-0.010258	0.887865
42.575574	310.534247	6.906227	-0.010339	0.890283
42.842969	312.356291	6.911232	-0.010406	0.892637
43.072472	314.223056	6.916237	-0.010463	0.895032
43.206989	316.075870	6.921242	-0.010497	0.897381
43.555114	317.916715	6.926246	-0.010583	0.899758
43.872706	319.745236	6.931251	-0.010662	0.902107
43.953870	321.621910	6.936256	-0.010683	0.904454
44.224573	323.444594	6.941261	-0.010750	0.906773
44.378493	325.323297	6.946266	-0.010789	0.909128
44.558384	327.154069	6.951270	-0.010834	0.911423
44.554453	329.091335	6.956275	-0.010834	0.913802
44.594660	330.977244	6.961280	-0.010845	0.916121
44.815621	332.903357	6.966285	-0.010900	0.918525
44.980854	334.797340	6.971290	-0.010942	0.920871
45.194018	336.724532	6.976294	-0.010995	0.923261
45.389771	338.617685	6.981299	-0.011044	0.925601
45.437550	340.555735	6.986304	-0.011057	0.927956
45.678103	342.492610	6.991309	-0.011117	0.930346
45.813392	344.429283	6.996314	-0.011151	0.932706
46.171409	346.336948	7.001318	-0.011239	0.935076
46.320573	348.272947	7.006323	-0.011277	0.937427
46.435533	350.229030	7.011328	-0.011306	0.939788
46.620217	352.185131	7.016333	-0.011353	0.942159
46.779341	354.151418	7.021338	-0.011393	0.944530
46.912332	356.089686	7.026342	-0.011426	0.946856
47.159184	358.070724	7.031347	-0.011488	0.949252
47.313944	360.007365	7.036352	-0.011527	0.951570
47.543435	362.009066	7.041357	-0.011584	0.953975
47.669675	363.947424	7.046362	-0.011616	0.956277
47.856466	365.960858	7.051366	-0.011663	0.958674
48.291749	367.878641	7.056371	-0.011771	0.961008
48.578606	369.834845	7.061376	-0.011842	0.963348
48.895654	371.728434	7.066381	-0.011921	0.965617
49.001118	373.695076	7.071386	-0.011947	0.967919
49.136732	375.652897	7.076390	-0.011982	0.970212
49.391933	377.610195	7.081395	-0.012045	0.972525
49.439393	379.596460	7.086400	-0.012058	0.974821
49.677403	381.557450	7.091405	-0.012118	0.977123
49.707439	383.596698	7.096410	-0.012126	0.979466
49.590857	385.644875	7.101414	-0.012099	0.981782
49.800467	387.713816	7.106419	-0.012151	0.984185
49.761489	389.773389	7.111424	-0.012143	0.986519
49.964143	391.863522	7.116429	-0.012194	0.988933
50.085020	393.922079	7.121434	-0.012225	0.991288
50.332002	396.008662	7.126438	-0.012286	0.993696
50.564372	398.045224	7.131443	-0.012344	0.996038
50.883824	400.116867	7.136448	-0.012424	0.998432
51.251222	402.113998	7.141453	-0.012515	1.000747
51.635710	404.143121	7.146458	-0.012610	1.003096
51.812793	406.128372	7.151462	-0.012654	1.005348
52.111936	408.155658	7.156467	-0.012729	1.007666
52.198331	410.179946	7.161472	-0.012751	1.009933
52.514923	412.182611	7.166477	-0.012830	1.012217
52.515181	414.258716	7.171482	-0.012831	1.014512
52.586434	416.315117	7.176486	-0.012850	1.016796
52.736692	418.420189	7.181491	-0.012888	1.019143
52.674002	420.532616	7.186496	-0.012874	1.021451
52.902536	422.659730	7.191501	-0.012931	1.023828
53.012772	424.739560	7.196506	-0.012959	1.026124
53.176129	426.889266	7.201510	-0.013000	1.028501
53.427739	428.965779	7.206515	-0.013063	1.030811
53.579918	431.125589	7.211520	-0.013102	1.033187
53.829540	433.209876	7.216525	-0.013164	1.035494
54.124344	435.335250	7.221530	-0.013237	1.037850
54.493053	437.385970	7.226534	-0.013329	1.040135
54.741098	439.500353	7.231539	-0.013390	1.042459
54.934076	441.559321	7.236544	-0.013439	1.044708
55.167456	443.637731	7.241549	-0.013497	1.046980
55.426114	445.718703	7.246554	-0.013562	1.049255
55.523008	447.801968	7.251558	-0.013587	1.051497
55.618760	449.954971	7.256563	-0.013611	1.053807
55.733076	452.053369	7.261568	-0.013641	1.056058
55.990140	454.199315	7.266573	-0.013705	1.058382
55.958916	456.354563	7.271578	-0.013698	1.060655
56.127548	458.541897	7.276582	-0.013741	1.062996
56.230960	460.698951	7.281587	-0.013768	1.065287
56.405069	462.882579	7.286592	-0.013811	1.067615
56.621621	465.037297	7.291597	-0.013866	1.069915
56.769364	467.231222	7.296602	-0.013903	1.072238
56.842812	469.424392	7.301606	-0.013922	1.074542
57.104153	471.621455	7.306611	-0.013988	1.076880
57.385103	473.794442	7.311616	-0.014058	1.079191
57.779776	475.929110	7.316621	-0.014155	1.081480
58.014472	478.093832	7.321626	-0.014214	1.083764
58.246878	480.202534	7.326630	-0.014272	1.085986
58.501806	482.382293	7.331635	-0.014336	1.088280
58.777783	484.463355	7.336640	-0.014405	1.090472
58.799753	486.679880	7.341645	-0.014411	1.092751
59.092556	488.804360	7.346650	-0.014484	1.094981
59.184071	490.993194	7.351654	-0.014508	1.097236
59.315204	493.184728	7.356659	-0.014541	1.099495
59.321817	495.411315	7.361664	-0.014544	1.101763
59.425871	497.644541	7.366669	-0.014571	1.104051
59.595360	499.845666	7.371674	-0.014614	1.106313
59.697389	502.107582	7.376678	-0.014640	1.108620
59.887226	504.336722	7.381683	-0.014688	1.110905
60.071867	506.596772	7.386688	-0.014734	1.113216
60.215902	508.836967	7.391693	-0.014771	1.115494
60.481808	511.107125	7.396698	-0.014837	1.117820
60.761229	513.300338	7.401702	-0.014907	1.120067
61.090513	515.557155	7.406707	-0.014989	1.122382
61.256190	517.733825	7.411712	-0.015031	1.124582
61.635985	519.941201	7.416717	-0.015125	1.126847
61.830018	522.150274	7.421722	-0.015174	1.129076
62.037664	524.343372	7.426726	-0.015226	1.131287
62.397013	526.544362	7.431731	-0.015315	1.133529
62.511098	528.714579	7.436736	-0.015344	1.135692
62.825300	530.921210	7.441741	-0.015422	1.137922
62.894465	533.118083	7.446746	-0.015441	1.140095
62.955501	535.373095	7.451750	-0.015457	1.142320
63.105716	537.602306	7.456755	-0.015495	1.144530
63.103453	539.872385	7.461760	-0.015496	1.146749
63.111131	542.187814	7.466765	-0.015499	1.149010
63.186030	544.500409	7.471770	-0.015519	1.151276
63.322513	546.809460	7.476774	-0.015554	1.153544
63.494487	549.138144	7.481779	-0.015597	1.155834
63.554066	551.497681	7.486784	-0.015613	1.158128
63.877575	553.796097	7.491789	-0.015694	1.160406
64.252694	556.116704	7.496794	-0.015787	1.162709
64.477349	558.344925	7.501798	-0.015843	1.164892
64.749884	560.668104	7.506803	-0.015911	1.167171
65.059208	562.901016	7.511808	-0.015988	1.169366
65.445158	565.163341	7.516813	-0.016084	1.171597
65.617763	567.415443	7.521818	-0.016127	1.173778
65.787610	569.661740	7.526822	-0.016170	1.175949
66.020798	571.952603	7.531827	-0.016229	1.178169
66.299834	574.161366	7.536832	-0.016298	1.180314
66.473462	576.460022	7.541837	-0.016342	1.182523
66.650344	578.652357	7.546842	-0.016387	1.184628
66.783444	580.947156	7.551846	-0.016421	1.186818
66.911667	583.229733	7.556851	-0.016453	1.188992
66.837763	585.563738	7.561856	-0.016437	1.191176
67.127477	587.872005	7.566861	-0.016509	1.193393
67.258601	590.173206	7.571866	-0.016543	1.195573
67.444433	592.506512	7.576870	-0.016589	1.197788
67.585939	594.835435	7.581875	-0.016625	1.199988
67.766856	597.190378	7.586880	-0.016671	1.202214
67.981228	599.468423	7.591885	-0.016725	1.204370
68.262470	601.806456	7.596890	-0.016795	1.206589
68.453703	604.111947	7.601894	-0.016843	1.208759
68.912955	606.386863	7.606899	-0.016957	1.210941
68.974832	608.700880	7.611904	-0.016973	1.213090
69.196708	610.981741	7.616909	-0.017029	1.215230
69.411406	613.321365	7.621914	-0.017083	1.217420
69.420338	615.634612	7.626918	-0.017087	1.219548
69.644286	618.006784	7.631923	-0.017143	1.221761
69.831836	620.313769	7.636928	-0.017190	1.223904
70.020600	622.654741	7.641933	-0.017238	1.226075
70.127040	625.015040	7.646938	-0.017265	1.228247
70.336787	627.332446	7.651942	-0.017318	1.230392
70.610996	629.696114	7.656947	-0.017386	1.232586
70.693700	631.997432	7.661952	-0.017408	1.234689
70.760894	634.419585	7.666957	-0.017426	1.236895
70.929822	636.788201	7.671962	-0.017469	1.239064
71.152635	639.172921	7.676966	-0.017525	1.241254
71.360415	641.540014	7.681971	-0.017577	1.243421
71.588335	643.874421	7.686976	-0.017634	1.245558
71.904465	646.251105	7.691981	-0.017713	1.247744
72.299972	648.532651	7.696986	-0.017811	1.249853
72.609524	650.855718	7.701990	-0.017888	1.251981
72.873840	653.117916	7.706995	-0.017954	1.254045
73.120475	655.418953	7.712000	-0.018016	1.256137
73.438272	657.693874	7.717005	-0.018095	1.258214
73.617883	659.974326	7.722010	-0.018140	1.260270
73.570587	662.327339	7.727014	-0.018130	1.262352
73.682103	664.620687	7.732019	-0.018159	1.264402
73.778775	666.993338	7.737024	-0.018184	1.266517
73.859862	669.349588	7.742029	-0.018205	1.268611
73.777575	671.797803	7.747034	-0.018186	1.270758
73.954597	674.196409	7.752038	-0.018231	1.272897
74.188662	676.590741	7.757043	-0.018290	1.275038
74.160519	679.076172	7.762048	-0.018285	1.277215
74.476224	681.466363	7.767053	-0.018363	1.279358
74.876614	683.881843	7.772058	-0.018463	1.281532
75.113650	686.208824	7.777062	-0.018522	1.283600
75.365072	688.606120	7.782067	-0.018585	1.285728
75.761701	690.938289	7.787072	-0.018683	1.287819
76.022998	693.265707	7.792077	-0.018749	1.289881
76.365599	695.600113	7.797082	-0.018834	1.291958
76.353242	697.915480	7.802086	-0.018832	1.293961
76.715870	700.273424	7.807091	-0.018922	1.296055
76.852198	702.614963	7.812096	-0.018957	1.298097
76.841119	705.002651	7.817101	-0.018956	1.300154
76.980070	707.412317	7.822106	-0.018991	1.302248
77.012155	709.725964	7.827110	-0.019001	1.304241
77.178026	712.183288	7.832115	-0.019043	1.306374
77.340400	714.562412	7.837120	-0.019084	1.308436
77.524241	716.986622	7.842125	-0.019130	1.310536
77.730456	719.416548	7.847130	-0.019182	1.312642
77.747859	721.837925	7.852134	-0.019188	1.314708
77.970121	724.328461	7.857139	-0.019244	1.316861
78.144832	726.723472	7.862144	-0.019288	1.318922
78.392386	729.196286	7.867149	-0.019350	1.321056
78.640040	731.601894	7.872154	-0.019412	1.323130
78.884254	734.000989	7.877158	-0.019473	1.325195
79.282339	736.398945	7.882163	-0.019572	1.327278
79.380342	738.779161	7.887168	-0.019597	1.329299
79.573935	741.212131	7.892173	-0.019646	1.331375
79.854207	743.583648	7.897178	-0.019716	1.333409
80.138333	745.959716	7.902182	-0.019787	1.335444
80.429728	748.345900	7.907187	-0.019860	1.337486
80.417844	750.738895	7.912192	-0.019858	1.339486
80.581666	753.183093	7.917197	-0.019900	1.341551
80.746964	755.548916	7.922202	-0.019942	1.343548
80.772047	758.008789	7.927206	-0.019950	1.345600
80.969100	760.470846	7.932211	-0.019999	1.347675
81.127708	762.892100	7.937216	-0.020040	1.349708
81.384028	765.355848	7.942221	-0.020104	1.351787
81.531693	767.767651	7.947226	-0.020141	1.353805
81.813759	770.198301	7.952230	-0.020212	1.355854
82.141910	772.622461	7.957235	-0.020293	1.357901
82.233947	775.040811	7.962240	-0.020317	1.359907
82.491721	777.481834	7.967245	-0.020382	1.361952
82.824450	779.808833	7.972250	-0.020465	1.363910
82.938402	782.250402	7.977254	-0.020494	1.365929
83.110426	784.661715	7.982259	-0.020538	1.367929
83.165388	787.102269	7.987264	-0.020553	1.369932
83.329977	789.567778	7.992269	-0.020594	1.371969
83.468237	792.014374	7.997274	-0.020630	1.373983
83.592606	794.490428	8.002278	-0.020662	1.376017
83.667983	797.002885	8.007283	-0.020682	1.378070
83.895315	799.481857	8.012288	-0.020739	1.380114
84.102231	801.981617	8.017293	-0.020791	1.382170
84.220927	804.451604	8.022298	-0.020821	1.384185
84.382430	806.984716	8.027302	-0.020863	1.386255
84.700993	809.417119	8.032307	-0.020942	1.388262
84.979502	811.893814	8.037312	-0.021012	1.390297
85.244121	814.333934	8.042317	-0.021078	1.392297
85.376237	816.795861	8.047322	-0.021112	1.394293
85.478480	819.304487	8.052326	-0.021138	1.396320
85.924955	821.699352	8.057331	-0.021249	1.398300
85.997591	824.183095	8.062336	-0.021268	1.400297
86.112147	826.648527	8.067341	-0.021298	1.402283
86.201437	829.121063	8.072346	-0.021321	1.404267
86.428148	831.626230	8.077350	-0.021378	1.406294
86.451985	834.116193	8.082355	-0.021385	1.408278
86.645544	836.668002	8.087360	-0.021434	1.410331
86.791938	839.176964	8.092365	-0.021472	1.412341
87.023446	841.702743	8.097370	-0.021530	1.414373
87.310538	844.214601	8.102374	-0.021601	1.416399
87.606066	846.671162	8.107379	-0.021675	1.418379
87.869895	849.175530	8.112384	-0.021741	1.420389
88.118414	851.608224	8.117389	-0.021804	1.422339
88.316497	854.074845	8.122394	-0.021853	1.424305
88.591566	856.531160	8.127398	-0.021922	1.426271
88.816878	858.936953	8.132403	-0.021979	1.428189
88.842359	861.445695	8.137408	-0.021987	1.430157
89.089364	863.906206	8.142413	-0.022048	1.432114
89.298416	866.358071	8.147418	-0.022101	1.434057
89.291499	868.883516	8.152422	-0.022101	1.436026
89.444661	871.382253	8.157427	-0.022140	1.437993
89.648342	873.917002	8.162432	-0.022191	1.439992
89.879492	876.394154	8.167437	-0.022249	1.441946
90.064677	878.883205	8.172442	-0.022296	1.443902
90.126691	881.435836	8.177446	-0.022313	1.445887
90.562616	883.864414	8.182451	-0.022421	1.447824
90.614739	886.418255	8.187456	-0.022435	1.449803
90.861671	888.904139	8.192461	-0.022497	1.451754
91.093262	891.384111	8.197466	-0.022555	1.453695
91.151129	893.929954	8.202470	-0.022571	1.455661
91.438397	896.420495	8.207475	-0.022643	1.457613
91.500566	898.964382	8.212480	-0.022660	1.459573
91.946309	901.434656	8.217485	-0.022770	1.461524
92.091788	903.908211	8.222490	-0.022807	1.463436
92.209235	906.424969	8.227494	-0.022838	1.465374
92.318895	908.928212	8.232499	-0.022866	1.467299
92.485594	911.445794	8.237504	-0.022908	1.469240
92.649207	913.996632	8.242509	-0.022950	1.471203
92.793072	916.488335	8.247514	-0.022987	1.473116
92.795426	919.088791	8.252518	-0.022989	1.475090
93.158515	921.624796	8.257523	-0.023079	1.477060
93.258772	924.188219	8.262528	-0.023105	1.479014
93.546540	926.735298	8.267533	-0.023177	1.480977
93.823380	929.197330	8.272538	-0.023246	1.482872
93.901258	931.761506	8.277542	-0.023267	1.484815
94.144009	934.325865	8.282547	-0.023328	1.486778
94.296058	936.848819	8.287552	-0.023367	1.488695
94.626915	939.381253	8.292557	-0.023449	1.490640
94.801283	941.868809	8.297562	-0.023493	1.492528
94.791067	944.457856	8.302566	-0.023493	1.494467
95.254903	946.983001	8.307571	-0.023607	1.496415
95.288834	949.505540	8.312576	-0.023617	1.498305
95.528276	952.066516	8.317581	-0.023677	1.500247
95.624030	954.588484	8.322586	-0.023702	1.502139
95.786578	957.133253	8.327590	-0.023744	1.504054
96.098303	959.701580	8.332595	-0.023822	1.506002
96.250735	962.192257	8.337600	-0.023860	1.507871
96.482227	964.751328	8.342605	-0.023919	1.509798
96.870530	967.246899	8.347610	-0.024015	1.511695
97.024058	969.708988	8.352614	-0.024054	1.513536
97.258332	972.260545	8.357619	-0.024113	1.515450
97.519497	974.698935	8.362624	-0.024178	1.517282
97.643249	977.232719	8.367629	-0.024210	1.519165
97.929614	979.736891	8.372634	-0.024282	1.521043
98.111855	982.132992	8.377638	-0.024328	1.522828
98.245781	984.686598	8.382643	-0.024362	1.524719
98.304572	987.197453	8.387648	-0.024378	1.526568
98.317395	989.745723	8.392653	-0.024383	1.528437
98.503622	992.350482	8.397658	-0.024430	1.530365
98.594629	994.857186	8.402662	-0.024454	1.532208
98.830872	997.460986	8.407667	-0.024513	1.534137
98.987709	1000.052499	8.412672	-0.024553	1.536046
99.184414	1002.596647	8.417677	-0.024603	1.537922
99.436944	1005.202307	8.422682	-0.024666	1.539847
99.589141	1007.748282	8.427686	-0.024705	1.541715
99.678657	1010.335419	8.432691	-0.024728	1.543602
99.887696	1012.953463	8.437696	-0.024781	1.545524
100.122018	1015.458807	8.442701	-0.024840	1.547365
100.401667	1018.058860	8.447706	-0.024910	1.549278
100.536982	1020.612266	8.452710	-0.024945	1.551137
100.773373	1023.147618	8.457715	-0.025004	1.552993
100.751977	1025.798405	8.462720	-0.025000	1.554899
101.081057	1028.330711	8.467725	-0.025082	1.556760
101.216846	1030.944184	8.472730	-0.025117	1.558653
101.501917	1033.516259	8.477734	-0.025189	1.560533
101.681169	1036.023673	8.482739	-0.025234	1.562351
101.984977	1038.602635	8.487744	-0.025310	1.564233
102.270838	1041.125957	8.492749	-0.025381	1.566070
102.438392	1043.653158	8.497754	-0.025424	1.567895
102.575359	1046.215370	8.502758	-0.025459	1.569738
102.820070	1048.738880	8.507763	-0.025520	1.571565
103.049032	1051.261433	8.512768	-0.025578	1.573387
103.320003	1053.800468	8.517773	-0.025646	1.575223
103.505720	1056.295506	8.522778	-0.025693	1.577016
103.525884	1058.876570	8.527782	-0.025699	1.578848
103.740326	1061.435340	8.532787	-0.025753	1.580686
103.947139	1063.912317	8.537792	-0.025805	1.582462
103.865366	1066.536206	8.542797	-0.025787	1.584307
103.981834	1069.164901	8.547802	-0.025817	1.586175
104.210903	1071.719432	8.552806	-0.025875	1.588003
104.319464	1074.386484	8.557811	-0.025903	1.589893
104.443741	1076.973319	8.562816	-0.025935	1.591727
104.580216	1079.622309	8.567821	-0.025970	1.593604
104.687375	1082.325380	8.572826	-0.025998	1.595513
104.936403	1084.923220	8.577831	-0.026060	1.597362
105.412317	1087.548606	8.582835	-0.026178	1.599255
105.554024	1090.111191	8.587840	-0.026214	1.601063
105.691736	1092.698623	8.592845	-0.026250	1.602885
106.127305	1095.294927	8.597850	-0.026358	1.604746
106.401262	1097.802599	8.602855	-0.026426	1.606525
106.828422	1100.310412	8.607859	-0.026532	1.608319
106.966038	1102.855232	8.612864	-0.026568	1.610104
107.041518	1105.318659	8.617869	-0.026588	1.611823
107.133964	1107.924923	8.622874	-0.026612	1.613642
107.177620	1110.518716	8.627879	-0.026624	1.615444
107.367682	1113.074726	8.632883	-0.026672	1.617235
107.168664	1115.801290	8.637888	-0.026625	1.619097
107.298550	1118.464402	8.642893	-0.026659	1.620951
107.500357	1121.122005	8.647898	-0.026710	1.622807
107.570442	1123.841673	8.652903	-0.026729	1.624688
107.676166	1126.519653	8.657907	-0.026756	1.626543
107.935398	1129.227216	8.662912	-0.026821	1.628433
108.261805	1131.889278	8.667917	-0.026903	1.630298
108.524198	1134.497995	8.672922	-0.026968	1.632116
108.831238	1137.139814	8.677927	-0.027045	1.633960
109.082757	1139.773920	8.682931	-0.027108	1.635790
109.459234	1142.323503	8.687936	-0.027202	1.637575
109.716917	1144.904045	8.692941	-0.027266	1.639365
110.082284	1147.391630	8.697946	-0.027357	1.641102
110.230056	1149.917857	8.702951	-0.027395	1.642840
110.376338	1152.503272	8.707955	-0.027432	1.644615
110.553165	1155.024301	8.712960	-0.027477	1.646349
110.636027	1157.606558	8.717965	-0.027499	1.648112
110.835562	1160.217999	8.722970	-0.027549	1.649905
110.766797	1162.762536	8.727975	-0.027534	1.651622
110.786281	1165.485025	8.732979	-0.027541	1.653467
110.919523	1168.168074	8.737984	-0.027575	1.655295
110.992950	1170.826608	8.742989	-0.027595	1.657099
111.294720	1173.554055	8.747994	-0.027670	1.658972
111.387579	1176.196637	8.752999	-0.027694	1.660763
111.731943	1178.821778	8.758003	-0.027780	1.662567
111.930555	1181.513665	8.763008	-0.027831	1.664399
112.153777	1184.118801	8.768013	-0.027887	1.666173
112.473752	1186.757921	8.773018	-0.027967	1.667979
112.845026	1189.356525	8.778023	-0.028059	1.669761
113.147297	1191.859774	8.783027	-0.028134	1.671469
113.477934	1194.419474	8.788032	-0.028217	1.673217
113.693882	1196.954422	8.793037	-0.028271	1.674934
113.893975	1199.466520	8.798042	-0.028322	1.676632
113.805230	1202.067637	8.803047	-0.028302	1.678357
113.912899	1204.694365	8.808051	-0.028330	1.680118
113.938466	1207.261066	8.813056	-0.028337	1.681829
113.719997	1210.027122	8.818061	-0.028286	1.683644
113.827822	1212.776017	8.823066	-0.028314	1.685480
113.888069	1215.514644	8.828071	-0.028330	1.687303
114.261782	1218.263588	8.833075	-0.028423	1.689164
114.589904	1220.919416	8.838080	-0.028505	1.690957
114.812108	1223.589756	8.843085	-0.028561	1.692746
115.225230	1226.277737	8.848090	-0.028664	1.694564
115.395727	1228.881502	8.853095	-0.028707	1.696300
115.587166	1231.561650	8.858099	-0.028756	1.698086
115.808631	1234.222073	8.863104	-0.028812	1.699861
116.187335	1236.753985	8.868109	-0.028906	1.701566
116.525486	1239.359712	8.873114	-0.028990	1.703314
116.364347	1242.008918	8.878119	-0.028952	1.705035
116.639815	1244.590861	8.883123	-0.029021	1.706757
116.909984	1247.227613	8.888128	-0.029089	1.708512
116.842683	1249.869809	8.893133	-0.029074	1.710234
117.063196	1252.499942	8.898138	-0.029130	1.711976
117.117260	1255.205581	8.903143	-0.029145	1.713748
117.167885	1257.930150	8.908147	-0.029159	1.715530
117.372651	1260.617146	8.913152	-0.029210	1.717302
117.444247	1263.363020	8.918157	-0.029230	1.719097
117.721368	1266.046349	8.923162	-0.029299	1.720870
117.968511	1268.726251	8.928167	-0.029361	1.722637
118.282748	1271.437047	8.933171	-0.029440	1.724428
118.479119	1274.048096	8.938176	-0.029489	1.726141
118.594443	1276.765380	8.943181	-0.029519	1.727912
119.012649	1279.427896	8.948186	-0.029623	1.729678
119.179330	1282.015559	8.953191	-0.029666	1.731367
119.449622	1284.668197	8.958195	-0.029733	1.733107
119.662075	1287.310252	8.963200	-0.029787	1.734833
119.894939	1289.871289	8.968205	-0.029845	1.736507
120.126652	1292.543263	8.973210	-0.029904	1.738250
120.230452	1295.134329	8.978215	-0.029931	1.739927
120.432084	1297.710714	8.983219	-0.029982	1.741602
120.590115	1300.362253	8.988224	-0.030022	1.743320
120.516132	1303.046867	8.993229	-0.030006	1.745034
120.683362	1305.692988	8.998234	-0.030048	1.746746
120.872665	1308.410751	9.003239	-0.030096	1.748504
120.920782	1311.108439	9.008243	-0.030110	1.750233
121.196582	1313.786272	9.013248	-0.030179	1.751971
121.299566	1316.520836	9.018253	-0.030206	1.753726
121.653775	1319.193261	9.023258	-0.030294	1.755465
121.801732	1321.875979	9.028263	-0.030332	1.757187
121.983718	1324.597503	9.033267	-0.030378	1.758937
122.286377	1327.200768	9.038272	-0.030453	1.760621
122.349352	1329.873174	9.043277	-0.030471	1.762324
122.743301	1332.573129	9.048282	-0.030568	1.764075
122.880319	1335.155624	9.053287	-0.030604	1.765725
123.061051	1337.841021	9.058291	-0.030649	1.767443
123.123110	1340.574673	9.063296	-0.030666	1.769178
123.185487	1343.205169	9.068301	-0.030683	1.770846
123.473413	1345.952678	9.073306	-0.030755	1.772608
123.519765	1348.697850	9.078311	-0.030768	1.774344
123.744202	1351.365951	9.083315	-0.030825	1.776046
123.954760	1354.114306	9.088320	-0.030878	1.777797
124.175095	1356.819930	9.093325	-0.030934	1.779519
124.474286	1359.428105	9.098330	-0.031009	1.781187
124.576935	1362.168167	9.103335	-0.031035	1.782916
124.882425	1364.824599	9.108339	-0.031112	1.784611
125.064154	1367.469102	9.113344	-0.031158	1.786285
125.392953	1370.112105	9.118349	-0.031240	1.787971
125.648468	1372.744924	9.123354	-0.031304	1.789641
125.758979	1375.338667	9.128359	-0.031333	1.791272
125.869998	1378.029094	9.133363	-0.031361	1.792961
125.877969	1380.745695	9.138368	-0.031365	1.794655
125.839333	1383.455084	9.143373	-0.031357	1.796338
126.062025	1386.250004	9.148378	-0.031414	1.798099
126.138448	1388.973288	9.153383	-0.031434	1.799799
126.259103	1391.721202	9.158387	-0.031465	1.801516
126.513864	1394.504015	9.163392	-0.031529	1.803267
126.545010	1397.287873	9.168397	-0.031539	1.804995
126.790196	1400.071384	9.173402	-0.031600	1.806742
127.118957	1402.833814	9.178407	-0.031682	1.808483
127.408747	1405.534297	9.183411	-0.031755	1.810179
127.752540	1408.228508	9.188416	-0.031841	1.811875
128.011673	1410.929121	9.193421	-0.031906	1.813566
128.441892	1413.545721	9.198426	-0.032012	1.815219
128.544508	1416.180122	9.203431	-0.032039	1.816851
128.728518	1418.864227	9.208435	-0.032086	1.818519
128.951881	1421.462159	9.213440	-0.032142	1.820137
129.096537	1424.071602	9.218445	-0.032179	1.821752
129.102246	1426.811074	9.223450	-0.032182	1.823433
128.985183	1429.524923	9.228455	-0.032155	1.825085
128.899939	1432.347228	9.233459	-0.032136	1.826805
129.261942	1435.185774	9.238464	-0.032227	1.828576
129.237238	1437.906744	9.243469	-0.032222	1.830236
129.535350	1440.756071	9.248474	-0.032297	1.832004
129.720771	1443.566740	9.253479	-0.032344	1.833736
129.919621	1446.321158	9.258483	-0.032394	1.835433
130.335819	1449.101635	9.263488	-0.032498	1.837165
130.752125	1451.817061	9.268493	-0.032601	1.838855
130.950115	1454.410158	9.273498	-0.032651	1.840449
131.266295	1457.091287	9.278503	-0.032730	1.842107
131.552509	1459.792148	9.283507	-0.032802	1.843772
131.803321	1462.356674	9.288512	-0.032865	1.845349
131.948825	1464.997417	9.293517	-0.032902	1.846962
132.119233	1467.704315	9.298522	-0.032945	1.848615
132.211466	1470.266794	9.303527	-0.032970	1.850173
132.417264	1472.949011	9.308531	-0.033022	1.851811
132.344818	1475.723179	9.313536	-0.033006	1.853479
132.401826	1478.404857	9.318541	-0.033021	1.855100
132.393646	1481.249007	9.323546	-0.033021	1.856813
132.580514	1484.069809	9.328551	-0.033069	1.858527
132.760021	1486.788676	9.333555	-0.033114	1.860178
133.118356	1489.563258	9.338560	-0.033204	1.861878
133.279747	1492.329732	9.343565	-0.033245	1.863553
133.624228	1494.996798	9.348570	-0.033331	1.865183
133.841589	1497.709171	9.353575	-0.033385	1.866828
134.142578	1500.427153	9.358579	-0.033461	1.868482
134.436992	1503.026675	9.363584	-0.033534	1.870064
134.607823	1505.697768	9.368589	-0.033578	1.871675
134.827322	1508.409577	9.373594	-0.033633	1.873314
134.998818	1511.016451	9.378599	-0.033677	1.874884
135.076288	1513.709318	9.383603	-0.033697	1.876496
135.247801	1516.434538	9.388608	-0.033741	1.878134
135.197494	1519.096167	9.393613	-0.033730	1.879713
135.239051	1521.890822	9.398618	-0.033742	1.881378
135.292616	1524.713225	9.403623	-0.033757	1.883058
135.320802	1527.519647	9.408627	-0.033766	1.884726
135.620198	1530.353001	9.413632	-0.033841	1.886433
135.715849	1533.193018	9.418637	-0.033866	1.888123
135.998781	1535.982939	9.423642	-0.033937	1.889799
136.191567	1538.776927	9.428647	-0.033986	1.891468
136.593526	1541.599666	9.433651	-0.034086	1.893172
136.959926	1544.288345	9.438656	-0.034177	1.894791
137.133858	1546.995300	9.443661	-0.034221	1.896403
137.443468	1549.738702	9.448666	-0.034299	1.898046
137.726639	1552.342911	9.453671	-0.034370	1.899604
137.944244	1554.991634	9.458675	-0.034424	1.901181
138.135853	1557.702614	9.463680	-0.034473	1.902791
138.094356	1560.383027	9.468685	-0.034464	1.904361
138.138543	1563.134705	9.473690	-0.034477	1.905980
138.153947	1565.931971	9.478695	-0.034483	1.907620
138.196711	1568.747527	9.483699	-0.034495	1.909273
138.274486	1571.576278	9.488704	-0.034516	1.910935
138.180660	1574.500918	9.493709	-0.034495	1.912637
138.483806	1577.404527	9.498714	-0.034571	1.914359
138.597516	1580.272148	9.503719	-0.034600	1.916043
138.962288	1583.184963	9.508723	-0.034691	1.917773
139.280170	1585.957162	9.513728	-0.034771	1.919415
139.833436	1588.662967	9.518733	-0.034908	1.921039
140.146348	1591.438151	9.523738	-0.034986	1.922680
140.452848	1594.093928	9.528743	-0.035062	1.924249
140.707962	1596.741366	9.533747	-0.035126	1.925809
140.925916	1599.452311	9.538752	-0.035181	1.927400
141.066194	1602.090965	9.543757	-0.035217	1.928941
141.110332	1604.780393	9.548762	-0.035230	1.930503
141.254137	1607.524847	9.553767	-0.035267	1.932103
141.323901	1610.272687	9.558771	-0.035285	1.933698
141.416643	1613.024519	9.563776	-0.035310	1.935296
141.572973	1615.818128	9.568781	-0.035350	1.936922
141.758417	1618.648237	9.573786	-0.035397	1.938570
141.847844	1621.352304	9.578791	-0.035421	1.940136
141.960110	1624.187534	9.583795	-0.035450	1.941778
142.149637	1627.027805	9.588800	-0.035498	1.943428
142.269011	1629.773400	9.593805	-0.035529	1.945016
142.496074	1632.630601	9.598810	-0.035586	1.946676
142.783647	1635.441577	9.603815	-0.035658	1.948314
143.042612	1638.109990	9.608819	-0.035723	1.949866
143.179873	1640.956238	9.613824	-0.035759	1.951508
143.411162	1643.746765	9.618829	-0.035817	1.953125
143.686406	1646.440584	9.623834	-0.035886	1.954689
143.730122	1649.261698	9.628839	-0.035898	1.956305
144.024653	1652.044973	9.633843	-0.035972	1.957919
144.230843	1654.705758	9.638848	-0.036024	1.959454
144.328121	1657.480416	9.643853	-0.036050	1.961044
144.418019	1660.338501	9.648858	-0.036073	1.962679
144.883320	1663.019449	9.653863	-0.036189	1.964244
144.982758	1665.758392	9.658867	-0.036215	1.965810
145.231910	1668.551083	9.663872	-0.036278	1.967418
145.329845	1671.257608	9.668877	-0.036303	1.968963
145.583536	1673.992848	9.673882	-0.036367	1.970535
145.751824	1676.763052	9.678887	-0.036410	1.972120
146.038772	1679.482746	9.683891	-0.036482	1.973684
146.020305	1682.238913	9.688896	-0.036479	1.975242
146.177660	1685.037362	9.693901	-0.036519	1.976838
146.387095	1687.814698	9.698906	-0.036572	1.978424
146.432810	1690.531826	9.703911	-0.036585	1.979962
146.577420	1693.373843	9.708915	-0.036622	1.981577
146.825986	1696.210427	9.713920	-0.036685	1.983197
146.937233	1698.932312	9.718925	-0.036714	1.984739
147.254489	1701.775678	9.723930	-0.036793	1.986365
147.327291	1704.611775	9.728935	-0.036813	1.987966
147.580587	1707.286968	9.733939	-0.036876	1.989489
147.685570	1710.158750	9.738944	-0.036904	1.991110
147.811660	1713.001693	9.743949	-0.036936	1.992715
148.116500	1715.754769	9.748954	-0.037013	1.994283
148.338544	1718.583553	9.753959	-0.037069	1.995886
148.544217	1721.381345	9.758963	-0.037121	1.997468
148.763156	1724.106860	9.763968	-0.037176	1.999010
148.922417	1726.857229	9.768973	-0.037217	2.000559
149.187144	1729.666548	9.773978	-0.037283	2.002149
149.353405	1732.412754	9.778983	-0.037325	2.003695
149.445532	1735.159606	9.783987	-0.037350	2.005233
149.671421	1737.998449	9.788992	-0.037407	2.006833
149.781517	1740.762480	9.793997	-0.037435	2.008380
149.843310	1743.567155	9.799002	-0.037452	2.009944
150.102707	1746.410489	9.804007	-0.037517	2.011545
150.270336	1749.232093	9.809011	-0.037560	2.013125
150.500375	1752.006358	9.814016	-0.037618	2.014683
150.542295	1754.861704	9.819021	-0.037630	2.016269
150.827442	1757.713612	9.824026	-0.037702	2.017871
151.007915	1760.450720	9.829031	-0.037748	2.019401
151.095627	1763.301945	9.834035	-0.037771	2.020984
151.357043	1766.182262	9.839040	-0.037837	2.022597
151.493540	1768.899489	9.844045	-0.037872	2.024108
151.869616	1771.725059	9.849050	-0.037965	2.025697
152.005771	1774.546584	9.854055	-0.038000	2.027263
152.275384	1777.250967	9.859059	-0.038068	2.028775
152.477651	1780.042347	9.864064	-0.038119	2.030327
152.552749	1782.833556	9.869069	-0.038139	2.031868
152.733447	1785.637520	9.874074	-0.038185	2.033424
152.827039	1788.430369	9.879079	-0.038210	2.034965
152.962689	1791.277916	9.884083	-0.038245	2.036538
153.091533	1794.134664	9.889088	-0.038278	2.038115
153.291471	1796.872272	9.894093	-0.038329	2.039631
153.510960	1799.776578	9.899098	-0.038384	2.041238
153.572286	1802.656031	9.904103	-0.038401	2.042818
153.751751	1805.427335	9.909107	-0.038447	2.044347
154.116361	1808.313674	9.914112	-0.038538	2.045952
154.362003	1811.132485	9.919117	-0.038600	2.047510
154.406221	1813.893941	9.924122	-0.038612	2.049019
154.700416	1816.734488	9.929127	-0.038686	2.050590
154.831740	1819.572824	9.934131	-0.038720	2.052146
155.028777	1822.394752	9.939136	-0.038770	2.053697
155.315554	1825.170407	9.944141	-0.038842	2.055229
155.424251	1828.028012	9.949146	-0.038870	2.056790
155.648618	1830.806270	9.954151	-0.038926	2.058315
155.827238	1833.548861	9.959155	-0.038972	2.059817
156.099416	1836.394494	9.964160	-0.039040	2.061381
156.233361	1839.175614	9.969165	-0.039075	2.062898
156.516882	1841.893335	9.974170	-0.039146	2.064390
156.552709	1844.739361	9.979175	-0.039156	2.065933
156.851043	1847.529307	9.984179	-0.039231	2.067463
157.015464	1850.238991	9.989184	-0.039273	2.068940
157.102867	1853.065779	9.994189	-0.039296	2.070472
157.242879	1855.920499	9.999194	-0.039332	2.072022
157.390390	1858.729384	10.004199	-0.039370	2.073547
157.699647	1861.515360	10.009203	-0.039447	2.075071
157.967921	1864.351077	10.014208	-0.039515	2.076617
158.131422	1867.067936	10.019213	-0.039556	2.078090
158.312719	1869.806328	10.024218	-0.039602	2.079576
158.512422	1872.617987	10.029223	-0.039653	2.081100
158.699741	1875.397135	10.034227	-0.039700	2.082606
158.867304	1878.124636	10.039232	-0.039743	2.084081
159.036079	1880.940216	10.044237	-0.039786	2.085602
159.294854	1883.736414	10.049242	-0.039851	2.087118
159.535642	1886.425461	10.054247	-0.039912	2.088575
159.512806	1889.217961	10.059251	-0.039908	2.090066
159.622383	1892.096059	10.064256	-0.039937	2.091612
159.679022	1894.918552	10.069261	-0.039952	2.093123
159.988961	1897.758600	10.074266	-0.040030	2.094661
160.155701	1900.628623	10.079271	-0.040072	2.096203
160.282481	1903.450438	10.084275	-0.040105	2.097716
160.575298	1906.222191	10.089280	-0.040178	2.099213
160.744707	1909.046249	10.094285	-0.040222	2.100727
161.031971	1911.874032	10.099290	-0.040294	2.102252
161.072191	1914.609885	10.104295	-0.040305	2.103708
161.285583	1917.430710	10.109299	-0.040359	2.105221
161.654849	1920.284736	10.114304	-0.040451	2.106762
161.824919	1922.973835	10.119309	-0.040495	2.108199
161.996527	1925.714428	10.124314	-0.040538	2.109663
162.171944	1928.528728	10.129319	-0.040583	2.111166
162.430503	1931.299473	10.134323	-0.040648	2.112650
162.673803	1934.013796	10.139328	-0.040709	2.114102
162.709200	1936.805264	10.144333	-0.040719	2.115579
163.034139	1939.591345	10.149338	-0.040801	2.117073
163.073102	1942.275535	10.154343	-0.040812	2.118492
163.217969	1945.059932	10.159347	-0.040849	2.119970
163.380450	1947.901375	10.164352	-0.040891	2.121478
163.526441	1950.659648	10.169357	-0.040928	2.122940
163.617695	1953.487473	10.174362	-0.040952	2.124434
163.900268	1956.335522	10.179367	-0.041023	2.125951
164.018386	1959.139000	10.184371	-0.041054	2.127432
164.196195	1961.920084	10.189376	-0.041099	2.128904
164.378205	1964.746925	10.194381	-0.041145	2.130400
164.602742	1967.628294	10.199386	-0.041202	2.131926
164.845919	1970.384845	10.204391	-0.041263	2.133387
164.894049	1973.195201	10.209395	-0.041277	2.134861
165.279977	1976.038274	10.214400	-0.041373	2.136376
165.415326	1978.755356	10.219405	-0.041407	2.137805
165.527802	1981.494207	10.224410	-0.041437	2.139244

165.812894	1984.224182	10.229415	-0.041508	2.140689
165.913828	1986.918690	10.234419	-0.041534	2.142101
165.999399	1989.475703	10.239424	-0.041557	2.143440
166.263497	1992.098987	10.244429	-0.041623	2.144825
166.485927	1994.653589	10.249434	-0.041679	2.146171
166.655271	1997.138829	10.254439	-0.041722	2.147476
166.719519	1999.502863	10.259443	-0.041739	2.148709
166.905738	2001.989985	10.264448	-0.041786	2.150015
166.907758	2004.424979	10.269453	-0.041788	2.151279
167.178401	2006.781038	10.274458	-0.041856	2.152521
167.276620	2009.076473	10.279463	-0.041881	2.153718
167.381976	2011.396021	10.284467	-0.041909	2.154928
167.477042	2013.731874	10.289472	-0.041933	2.156145
167.577838	2015.961519	10.294477	-0.041959	2.157306
167.865940	2018.066446	10.299482	-0.042031	2.158416
168.151753	2020.203318	10.304487	-0.042102	2.159542
168.114651	2022.318382	10.309491	-0.042094	2.160632
168.311940	2024.444315	10.314496	-0.042144	2.161745
168.569094	2026.374493	10.319501	-0.042208	2.162760
168.747169	2028.303168	10.324506	-0.042253	2.163768
168.917698	2030.252269	10.329511	-0.042295	2.164785
168.983505	2032.164905	10.334515	-0.042313	2.165776
169.232414	2034.046663	10.339520	-0.042375	2.166764
169.282610	2035.786242	10.344525	-0.042388	2.167664
169.459546	2037.512524	10.349530	-0.042432	2.168565
169.554876	2039.303197	10.354535	-0.042457	2.169493
169.648543	2041.047545	10.359539	-0.042481	2.170398
169.905235	2042.741188	10.364544	-0.042544	2.171287
169.963453	2044.389527	10.369549	-0.042559	2.172138
170.178485	2045.901337	10.374554	-0.042613	2.172930
170.293625	2047.514905	10.379559	-0.042642	2.173767
170.310624	2049.025781	10.384563	-0.042647	2.174544
170.453607	2050.631906	10.389568	-0.042683	2.175379
170.676679	2052.042451	10.394573	-0.042738	2.176118
170.640957	2053.592006	10.399578	-0.042730	2.176911
170.649628	2054.966179	10.404583	-0.042733	2.177616
170.815435	2056.368087	10.409587	-0.042775	2.178346
170.885196	2057.794858	10.414592	-0.042792	2.179082
170.845957	2059.211384	10.419597	-0.042784	2.179805
171.088776	2060.590536	10.424602	-0.042844	2.180528
171.182268	2061.958201	10.429607	-0.042867	2.181235
171.186197	2063.270191	10.434611	-0.042869	2.181907
171.156417	2064.557273	10.439616	-0.042863	2.182563
171.416956	2065.785064	10.444621	-0.042927	2.183209
171.489409	2067.023890	10.449626	-0.042945	2.183848
171.680949	2068.274978	10.454631	-0.042993	2.184500
171.961953	2069.416223	10.459635	-0.043062	2.185103
172.177573	2070.504979	10.464640	-0.043115	2.185674
172.207528	2071.534620	10.469645	-0.043123	2.186202
172.328039	2072.610903	10.474650	-0.043153	2.186760
172.427867	2073.642270	10.479655	-0.043178	2.187294
172.478632	2074.435557	10.484659	-0.043191	2.187702
172.587103	2075.491604	10.489664	-0.043218	2.188248
172.451691	2076.439980	10.494669	-0.043185	2.188723
172.478112	2077.410647	10.499674	-0.043192	2.189220
172.397681	2078.546062	10.504679	-0.043173	2.189793
172.332607	2079.494410	10.509683	-0.043158	2.190272
172.296505	2080.562160	10.514688	-0.043150	2.190813
172.427677	2081.604407	10.519693	-0.043182	2.191354
172.380897	2082.602115	10.524698	-0.043171	2.191859
172.434434	2083.575406	10.529703	-0.043185	2.192358
172.681519	2084.492324	10.534707	-0.043246	2.192842
172.929290	2085.344667	10.539712	-0.043307	2.193293
173.044599	2086.201053	10.544717	-0.043335	2.193737
173.355444	2086.966388	10.549722	-0.043411	2.194147
173.659575	2087.678181	10.554727	-0.043486	2.194531
173.736284	2088.313524	10.559731	-0.043505	2.194859
173.602425	2089.015247	10.564736	-0.043473	2.195207
173.607562	2089.687193	10.569741	-0.043474	2.195549
173.664184	2090.450213	10.574746	-0.043488	2.195940
173.554667	2091.150501	10.579751	-0.043462	2.196289
173.503969	2091.857366	10.584755	-0.043450	2.196645
173.587979	2092.598326	10.589760	-0.043471	2.197027
173.592439	2093.183361	10.594765	-0.043472	2.197324
173.683715	2093.769324	10.599770	-0.043495	2.197628
173.709592	2094.442588	10.604775	-0.043501	2.197972
173.757770	2095.098496	10.609779	-0.043513	2.198308
174.092053	2095.705964	10.614784	-0.043595	2.198640
174.098151	2096.252785	10.619789	-0.043597	2.198918
174.114685	2096.808718	10.624794	-0.043601	2.199201
174.343828	2097.382410	10.629799	-0.043657	2.199508
174.297641	2097.821182	10.634803	-0.043646	2.199728
174.444525	2098.281876	10.639808	-0.043682	2.199971
174.468990	2098.787789	10.644813	-0.043688	2.200230
174.535749	2099.287737	10.649818	-0.043705	2.200488
174.476182	2099.710663	10.654823	-0.043690	2.200698
174.126972	2100.242014	10.659827	-0.043605	2.200944
174.178736	2100.790626	10.664832	-0.043618	2.201226
174.127106	2101.336659	10.669837	-0.043606	2.201499
174.130043	2101.940958	10.674842	-0.043607	2.201806
174.113804	2102.565791	10.679847	-0.043603	2.202121
174.316845	2102.952618	10.684851	-0.043652	2.202331
174.475170	2103.385565	10.689856	-0.043691	2.202561
174.753196	2103.687824	10.694861	-0.043759	2.202734
175.035382	2104.184225	10.699866	-0.043828	2.203004
175.257568	2104.168807	10.704871	-0.043882	2.203012
175.498251	2104.749452	10.709875	-0.043941	2.203322
175.662923	2104.752588	10.714880	-0.043982	2.203335
175.557863	2104.749318	10.719885	-0.043956	2.203326
175.422320	2105.016353	10.724890	-0.043923	2.203452
175.149106	2105.403974	10.729895	-0.043856	2.203630
174.771533	2105.647014	10.734899	-0.043764	2.203727
174.671333	2106.091435	10.739904	-0.043739	2.203945
174.539501	2106.620912	10.744909	-0.043707	2.204205
174.439252	2107.041078	10.749914	-0.043683	2.204410
174.391287	2107.528514	10.754919	-0.043671	2.204654
174.406298	2107.976058	10.759923	-0.043675	2.204882
174.656158	2108.545204	10.764928	-0.043736	2.205187
174.882355	2108.799089	10.769933	-0.043792	2.205331
175.032503	2109.149911	10.774938	-0.043828	2.205518
175.494596	2109.253910	10.779943	-0.043941	2.205603
175.841438	2109.668011	10.784947	-0.044026	2.205836
176.101697	2109.656457	10.789952	-0.044089	2.205848
176.264202	2109.622309	10.794957	-0.044129	2.205841
176.606478	2109.579953	10.799962	-0.044212	2.205843
176.557693	2109.330946	10.804967	-0.044200	2.205714
176.286278	2108.963953	10.809971	-0.044133	2.205510
176.060318	2109.019210	10.814976	-0.044078	2.205522
175.905912	2109.322641	10.819981	-0.044040	2.205665
175.439359	2109.725556	10.824986	-0.043926	2.205837
174.982626	2109.812863	10.829991	-0.043814	2.205850
174.713415	2110.310403	10.834995	-0.043749	2.206083
174.518297	2110.697427	10.840000	-0.043701	2.206266
174.500476	2111.086176	10.845005	-0.043697	2.206461
174.676570	2111.684545	10.850010	-0.043740	2.206776
174.813071	2112.045792	10.855015	-0.043774	2.206968
174.976032	2112.294568	10.860019	-0.043813	2.207105
175.485506	2112.525050	10.865024	-0.043938	2.207256
175.891693	2112.640158	10.870029	-0.044037	2.207342
176.421191	2112.567970	10.875034	-0.044166	2.207342
176.798751	2112.530767	10.880039	-0.044258	2.207348
176.950427	2112.024012	10.885043	-0.044295	2.207102
177.065266	2112.030551	10.890048	-0.044323	2.207113
176.974843	2111.971245	10.895053	-0.044300	2.207077
176.705828	2111.410171	10.900058	-0.044234	2.206775
176.620644	2111.440893	10.905063	-0.044213	2.206785
176.101959	2111.493647	10.910067	-0.044086	2.206776
175.717609	2111.560690	10.915072	-0.043992	2.206784
175.336959	2111.838915	10.920077	-0.043899	2.206898
175.075511	2112.289634	10.925082	-0.043835	2.207108
174.987909	2112.434869	10.930087	-0.043814	2.207176
174.762307	2112.782652	10.935091	-0.043759	2.207336
174.990392	2113.146473	10.940096	-0.043814	2.207536
175.343554	2113.329563	10.945101	-0.043901	2.207652
175.744271	2113.272886	10.950106	-0.043998	2.207651
176.136036	2113.239025	10.955111	-0.044094	2.207661
176.320286	2113.197013	10.960115	-0.044139	2.207652
176.781866	2113.154052	10.965120	-0.044251	2.207662
177.044196	2113.103370	10.970125	-0.044315	2.207654
177.119647	2113.008725	10.975130	-0.044333	2.207611
177.040674	2112.515712	10.980135	-0.044313	2.207356
176.753593	2112.521486	10.985139	-0.044243	2.207339
176.475108	2112.585671	10.990144	-0.044175	2.207353
176.045060	2112.627691	10.995149	-0.044070	2.207345
175.808977	2112.662087	11.000154	-0.044012	2.207346
175.699392	2112.693939	11.005159	-0.043985	2.207355
175.538351	2112.686430	11.010163	-0.043945	2.207340
175.494802	2113.131319	11.015168	-0.043935	2.207562
175.612717	2113.302594	11.020173	-0.043964	2.207656
175.834932	2113.270283	11.025178	-0.044018	2.207655
176.158445	2113.240372	11.030183	-0.044096	2.207662
176.381342	2113.182965	11.035187	-0.044151	2.207648
176.706145	2113.162450	11.040192	-0.044230	2.207660
177.111095	2113.095326	11.045197	-0.044329	2.207653
177.138712	2112.521267	11.050202	-0.044335	2.207365
177.134496	2112.500952	11.055207	-0.044333	2.207354
176.968149	2112.305571	11.060211	-0.044293	2.207244
176.738628	2112.087857	11.065216	-0.044236	2.207118
176.455796	2112.112200	11.070221	-0.044167	2.207111
176.273976	2112.137123	11.075226	-0.044122	2.207111
176.055355	2112.181513	11.080231	-0.044069	2.207119
175.739631	2112.205352	11.085235	-0.043991	2.207109
175.709168	2112.230550	11.090240	-0.043984	2.207120
175.599015	2112.630672	11.095245	-0.043957	2.207315
175.682863	2112.679970	11.100250	-0.043977	2.207345
175.828580	2112.672164	11.105255	-0.044013	2.207351
176.140436	2112.613878	11.110259	-0.044089	2.207343
176.662454	2112.566464	11.115264	-0.044216	2.207355
176.838233	2112.526210	11.120269	-0.044259	2.207346
177.221107	2112.246927	11.125274	-0.044352	2.207231
177.264780	2112.015842	11.130279	-0.044362	2.207117
177.208532	2111.834654	11.135283	-0.044348	2.207022
177.264941	2111.363333	11.140288	-0.044361	2.206787
176.979118	2111.393023	11.145293	-0.044291	2.206782
176.675663	2110.935102	11.150298	-0.044217	2.206530
176.583162	2110.810690	11.155303	-0.044194	2.206461
176.271981	2110.837945	11.160307	-0.044118	2.206453
176.036870	2110.888264	11.165312	-0.044060	2.206463
175.891417	2110.892864	11.170317	-0.044024	2.206455
175.888519	2110.893053	11.175322	-0.044023	2.206455
175.879181	2111.526935	11.180327	-0.044021	2.206775
175.938482	2111.517812	11.185331	-0.044036	2.206774
176.187228	2111.507217	11.190336	-0.044096	2.206786
176.457913	2111.470213	11.195341	-0.044162	2.206785
176.715011	2111.257921	11.200346	-0.044225	2.206695
176.873948	2110.781181	11.205351	-0.044263	2.206465
177.049590	2110.726134	11.210355	-0.044306	2.206449
177.143670	2110.589835	11.215360	-0.044328	2.206386
177.278671	2110.080901	11.220365	-0.044361	2.206138
177.020343	2110.109982	11.225370	-0.044297	2.206135
176.907347	2109.679585	11.230375	-0.044269	2.205910
176.751477	2109.558517	11.235379	-0.044231	2.205838
176.610431	2109.588750	11.240384	-0.044196	2.205843
176.374886	2109.627101	11.245389	-0.044139	2.205847
176.284072	2109.626809	11.250394	-0.044116	2.205840
176.306025	2109.646162	11.255399	-0.044121	2.205851
176.359095	2109.610426	11.260403	-0.044134	2.205837
176.451868	2109.618376	11.265408	-0.044157	2.205847
176.456087	2109.253966	11.270413	-0.044157	2.205663
176.766565	2108.916430	11.275418	-0.044233	2.205513
177.010165	2108.907733	11.280423	-0.044292	2.205525
177.070124	2108.830053	11.285427	-0.044306	2.205490
177.151620	2108.272409	11.290432	-0.044326	2.205213
177.266999	2108.247700	11.295437	-0.044354	2.205209
177.020032	2107.791169	11.300442	-0.044293	2.204961
176.818942	2107.696928	11.305447	-0.044243	2.204899
176.642748	2107.699534	11.310451	-0.044200	2.204888
176.384074	2107.741015	11.315456	-0.044137	2.204892
176.213221	2107.767565	11.320461	-0.044095	2.204893
176.181686	2107.759594	11.325466	-0.044087	2.204887
176.079472	2107.797231	11.330471	-0.044062	2.204899
176.050559	2107.773182	11.335475	-0.044055	2.204885
176.142174	2107.774492	11.340480	-0.044077	2.204892
176.210385	2107.773719	11.345485	-0.044093	2.204896
176.506942	2107.717164	11.350490	-0.044165	2.204888
176.849053	2107.573377	11.355495	-0.044249	2.204838
177.119950	2107.022706	11.360499	-0.044314	2.204578
177.348276	2107.010499	11.365504	-0.044370	2.204587
177.337048	2106.433836	11.370509	-0.044367	2.204294
177.209182	2106.360271	11.375514	-0.044335	2.204248
177.244089	2105.912460	11.380519	-0.044343	2.204024
177.207663	2105.729180	11.385523	-0.044334	2.203928
177.014912	2105.537426	11.390528	-0.044286	2.203818
176.758314	2105.182978	11.395533	-0.044223	2.203621
176.548057	2105.193288	11.400538	-0.044172	2.203612
176.457085	2105.233715	11.405543	-0.044149	2.203626
176.254480	2105.235289	11.410547	-0.044100	2.203613
176.300484	2105.250138	11.415552	-0.044111	2.203623
176.100934	2105.282421	11.420557	-0.044062	2.203626
176.284740	2105.231523	11.425562	-0.044106	2.203613
176.453918	2105.237138	11.430567	-0.044148	2.203627
176.529186	2105.198736	11.435571	-0.044166	2.203613
176.601405	2104.807335	11.440576	-0.044183	2.203419
176.841517	2104.586467	11.445581	-0.044241	2.203324
176.814741	2104.589880	11.450586	-0.044235	2.203324
176.982892	2104.584846	11.455591	-0.044275	2.203333
176.880217	2103.989446	11.460595	-0.044250	2.203024
177.010664	2103.939285	11.465600	-0.044281	2.203007
177.054535	2103.932235	11.470605	-0.044292	2.203007
176.796390	2103.347450	11.475610	-0.044228	2.202693
176.695321	2103.382457	11.480615	-0.044203	2.202703
176.668076	2103.341274	11.485619	-0.044197	2.202681
176.509159	2103.382554	11.490624	-0.044158	2.202691
176.638316	2103.371070	11.495629	-0.044189	2.202693
176.614858	2102.780864	11.500634	-0.044183	2.202393
176.568217	2102.784190	11.505639	-0.044171	2.202391
176.492356	2102.756663	11.510643	-0.044152	2.202372
176.651285	2102.747314	11.515648	-0.044191	2.202378
176.643149	2102.756834	11.520653	-0.044189	2.202382
176.614050	2102.679878	11.525658	-0.044181	2.202341
176.707168	2102.276631	11.530663	-0.044204	2.202143
176.817542	2102.239349	11.535667	-0.044230	2.202132
176.804130	2102.253892	11.540672	-0.044227	2.202138
176.730257	2102.250120	11.545677	-0.044209	2.202131
176.717347	2101.599527	11.550682	-0.044205	2.201800
176.691811	2101.629561	11.555687	-0.044198	2.201814
176.606614	2101.616855	11.560691	-0.044177	2.201801
176.673775	2101.630362	11.565696	-0.044194	2.201813
176.671874	2101.572537	11.570701	-0.044193	2.201783
176.685883	2100.971358	11.575706	-0.044196	2.201479
176.716190	2100.994766	11.580711	-0.044203	2.201493
176.685020	2100.967993	11.585715	-0.044195	2.201477
176.928171	2100.955562	11.590720	-0.044254	2.201488
176.860174	2100.392011	11.595725	-0.044237	2.201197
176.774089	2100.330496	11.600730	-0.044216	2.201160
176.925110	2100.332047	11.605735	-0.044253	2.201171
176.984300	2100.078851	11.610739	-0.044267	2.201047
176.986753	2099.727776	11.615744	-0.044267	2.200869
176.870322	2099.752235	11.620749	-0.044238	2.200873
176.944818	2099.470538	11.625754	-0.044256	2.200735
176.893955	2099.119027	11.630759	-0.044243	2.200554
176.744292	2099.112286	11.635763	-0.044206	2.200540
176.697863	2099.131899	11.640768	-0.044195	2.200546
176.589723	2098.992774	11.645773	-0.044168	2.200468
176.546566	2098.510437	11.650778	-0.044157	2.200221
176.602679	2098.537108	11.655783	-0.044171	2.200238
176.725527	2098.491071	11.660787	-0.044200	2.200223
176.702860	2098.502548	11.665792	-0.044195	2.200227
176.940818	2098.301584	11.670797	-0.044252	2.200142
177.006362	2097.840301	11.675802	-0.044268	2.199912
176.978199	2097.860519	11.680807	-0.044261	2.199920
176.986449	2097.630956	11.685811	-0.044263	2.199804
176.982554	2097.262483	11.690816	-0.044261	2.199617
176.954674	2097.257748	11.695821	-0.044254	2.199613
176.841289	2097.088646	11.700826	-0.044226	2.199519
176.700978	2096.659329	11.705831	-0.044191	2.199291
176.665702	2096.640219	11.710835	-0.044183	2.199279
176.681595	2096.635716	11.715840	-0.044186	2.199278
176.568133	2096.661930	11.720845	-0.044158	2.199283
176.552684	2096.597701	11.725850	-0.044154	2.199250
176.649411	2096.030609	11.730855	-0.044177	2.198968
176.611959	2096.014872	11.735859	-0.044168	2.198958
176.614270	2096.022661	11.740864	-0.044168	2.198962
176.687685	2096.027903	11.745869	-0.044186	2.198969
176.889045	2095.820593	11.750874	-0.044235	2.198878
176.981499	2095.363612	11.755879	-0.044257	2.198652
176.959175	2095.346447	11.760883	-0.044251	2.198642
177.035158	2095.161653	11.765888	-0.044270	2.198553
176.970728	2094.779140	11.770893	-0.044253	2.198355
176.868536	2094.764485	11.775898	-0.044228	2.198340
176.788801	2094.805811	11.780903	-0.044209	2.198355
176.669329	2094.178443	11.785907	-0.044179	2.198029
176.642970	2094.179042	11.790912	-0.044172	2.198027
176.527581	2094.205519	11.795917	-0.044144	2.198032
176.424398	2094.195000	11.800922	-0.044118	2.198020
176.453096	2094.222572	11.805927	-0.044125	2.198036
176.551717	2094.189971	11.810931	-0.044149	2.198026
176.588917	2093.967139	11.815936	-0.044158	2.197915
176.628538	2093.574047	11.820941	-0.044167	2.197718
176.828671	2093.528016	11.825946	-0.044216	2.197709
177.022963	2093.517194	11.830951	-0.044263	2.197717
176.978576	2093.224921	11.835955	-0.044252	2.197565
176.969494	2092.920516	11.840960	-0.044249	2.197410
177.162763	2092.897537	11.845965	-0.044296	2.197411
176.954095	2092.569472	11.850970	-0.044245	2.197230
176.957921	2092.499010	11.855975	-0.044245	2.197195
176.869566	2092.490799	11.860979	-0.044224	2.197184
176.759660	2092.130668	11.865984	-0.044196	2.196994
176.644445	2091.873274	11.870989	-0.044168	2.196855
176.631153	2091.867501	11.875994	-0.044164	2.196851
176.542124	2091.905463	11.880999	-0.044142	2.196864
176.474675	2091.886133	11.886003	-0.044126	2.196850
176.535549	2091.885370	11.891008	-0.044140	2.196853
176.557498	2091.665332	11.896013	-0.044145	2.196743
176.573294	2091.236356	11.901018	-0.044149	2.196526
176.669075	2091.246529	11.906023	-0.044172	2.196538
176.699608	2091.226530	11.911027	-0.044179	2.196530
176.790150	2091.208849	11.916032	-0.044201	2.196527
176.812932	2090.894134	11.921037	-0.044206	2.196368
176.835221	2090.570295	11.926042	-0.044211	2.196205
176.925985	2090.586057	11.931047	-0.044233	2.196219
176.827684	2090.534371	11.936051	-0.044209	2.196186
176.955846	2089.980968	11.941056	-0.044240	2.195914
176.949979	2089.989546	11.946061	-0.044238	2.195918
176.826858	2089.983298	11.951066	-0.044208	2.195906
176.967005	2089.483295	11.956071	-0.044242	2.195661
176.768690	2089.365045	11.961075	-0.044193	2.195587
176.729561	2089.366767	11.966080	-0.044183	2.195586
176.667018	2089.387011	11.971085	-0.044168	2.195592
176.748539	2088.872303	11.976090	-0.044187	2.195335
176.674743	2088.769749	11.981095	-0.044169	2.195278
176.700800	2088.747294	11.986099	-0.044175	2.195268
176.707047	2088.750544	11.991104	-0.044176	2.195270
176.677591	2088.693556	11.996109	-0.044169	2.195239
176.695440	2088.135070	12.001114	-0.044173	2.194957
176.703528	2088.154337	12.006119	-0.044174	2.194967
176.648805	2088.145898	12.011123	-0.044161	2.194959
176.665350	2088.147139	12.016128	-0.044165	2.194960
176.690499	2087.987005	12.021133	-0.044171	2.194881
176.627384	2087.543610	12.026138	-0.044155	2.194651
176.693606	2087.564203	12.031143	-0.044171	2.194666
176.590603	2087.550341	12.036147	-0.044145	2.194652
176.541112	2087.558688	12.041152	-0.044133	2.194652
176.564276	2087.570079	12.046157	-0.044138	2.194660
176.505725	2087.201905	12.051162	-0.044124	2.194468
176.561873	2086.930520	12.056167	-0.044137	2.194334
176.515660	2086.924002	12.061171	-0.044126	2.194327
176.606302	2086.902620	12.066176	-0.044147	2.194323
176.555681	2086.928917	12.071181	-0.044135	2.194333
176.612492	2086.890334	12.076186	-0.044149	2.194317
176.712047	2086.601117	12.081191	-0.044173	2.194176
176.777648	2086.260989	12.086195	-0.044188	2.194008
176.785091	2086.254872	12.091200	-0.044190	2.194005
176.867018	2086.254305	12.096205	-0.044210	2.194011
176.694258	2085.967676	12.101210	-0.044167	2.193853
176.757631	2085.652438	12.106215	-0.044182	2.193697
176.693527	2085.639455	12.111219	-0.044166	2.193686
176.730170	2085.639809	12.116224	-0.044175	2.193688
176.682470	2085.667547	12.121229	-0.044163	2.193699
176.612852	2085.136030	12.126234	-0.044146	2.193424
176.634918	2085.088980	12.131239	-0.044151	2.193401
176.708891	2085.073844	12.136243	-0.044169	2.193398
176.654205	2085.073390	12.141248	-0.044155	2.193394
176.581256	2085.105469	12.146253	-0.044137	2.193406
176.588264	2084.663918	12.151258	-0.044138	2.193181
176.657224	2084.459943	12.156263	-0.044155	2.193082
176.669513	2084.445197	12.161267	-0.044158	2.193076
176.679725	2084.434106	12.166272	-0.044160	2.193071
176.720914	2084.450093	12.171277	-0.044170	2.193081
176.499440	2084.111339	12.176282	-0.044115	2.192894
176.628286	2083.848983	12.181287	-0.044146	2.192769
176.735342	2083.820161	12.186291	-0.044172	2.192762
176.661473	2083.825073	12.191296	-0.044154	2.192759
176.714848	2083.838791	12.196301	-0.044167	2.192770
176.606302	2083.670880	12.201306	-0.044140	2.192677
176.606119	2083.240873	12.206311	-0.044139	2.192458
176.730311	2083.209727	12.211315	-0.044170	2.192450
176.836235	2083.192402	12.216320	-0.044195	2.192449
176.774182	2083.222691	12.221325	-0.044180	2.192460
176.661352	2082.745471	12.226330	-0.044152	2.192209
176.817226	2082.722289	12.231335	-0.044190	2.192208
176.800004	2082.715229	12.236339	-0.044185	2.192203
176.654440	2082.730176	12.241344	-0.044150	2.192200
176.777778	2082.377604	12.246349	-0.044179	2.192029
176.831109	2082.038231	12.251354	-0.044192	2.191860
176.827597	2082.070995	12.256359	-0.044191	2.191877
176.715434	2082.076204	12.261363	-0.044163	2.191871
176.584949	2081.666177	12.266368	-0.044131	2.191653
176.530516	2081.478768	12.271373	-0.044117	2.191554
176.190436	2081.498662	12.276378	-0.044034	2.191541
176.174130	2081.523351	12.281383	-0.044030	2.191552
176.246939	2081.503467	12.286387	-0.044047	2.191547
176.042497	2081.525490	12.291392	-0.043997	2.191544
176.062584	2081.534516	12.296397	-0.044002	2.191550
176.193984	2081.499633	12.301402	-0.044034	2.191541
176.260505	2081.510327	12.306407	-0.044050	2.191551
176.464421	2081.478476	12.311411	-0.044100	2.191549
176.612834	2081.453237	12.316416	-0.044136	2.191546
177.060081	2081.403081	12.321421	-0.044245	2.191552
177.017364	2081.171801	12.326426	-0.044234	2.191431
177.111700	2080.775168	12.331431	-0.044256	2.191235
177.034002	2080.768353	12.336435	-0.044237	2.191226
176.971630	2080.378622	12.341440	-0.044222	2.191023
176.886170	2080.222438	12.346445	-0.044200	2.190938
176.658344	2080.228955	12.351450	-0.044145	2.190925
176.621837	2080.255768	12.356455	-0.044135	2.190936
176.450670	2080.242648	12.361459	-0.044093	2.190918
176.267428	2079.646083	12.366464	-0.044048	2.190601
176.353400	2079.648304	12.371469	-0.044069	2.190608
176.442708	2079.622199	12.376474	-0.044090	2.190601
176.501055	2079.635828	12.381479	-0.044105	2.190612
176.591185	2079.608386	12.386483	-0.044126	2.190604
176.730297	2079.589304	12.391488	-0.044160	2.190604
176.792261	2079.594478	12.396493	-0.044175	2.190611
176.704013	2079.060751	12.401498	-0.044153	2.190333
176.656196	2078.990781	12.406503	-0.044141	2.190294
176.770035	2078.970534	12.411507	-0.044169	2.190291
176.768280	2078.961997	12.416512	-0.044168	2.190287
176.927566	2078.636674	12.421517	-0.044206	2.190132
176.780612	2078.342841	12.426522	-0.044170	2.189972
176.774280	2078.360344	12.431527	-0.044168	2.189980
176.702309	2078.371753	12.436531	-0.044151	2.189981
176.447074	2078.294743	12.441536	-0.044088	2.189924
176.437406	2077.813598	12.446541	-0.044085	2.189678
176.427869	2077.789893	12.451546	-0.044083	2.189665
176.424138	2077.808571	12.456551	-0.044082	2.189674
176.300395	2077.820887	12.461555	-0.044051	2.189672
176.479152	2077.793354	12.466560	-0.044095	2.189670
176.497465	2077.808120	12.471565	-0.044099	2.189679
176.642964	2077.768568	12.476570	-0.044134	2.189669
176.798293	2077.685736	12.481575	-0.044172	2.189637
176.769753	2077.116595	12.486579	-0.044164	2.189345
176.753030	2077.112851	12.491584	-0.044160	2.189342
176.978154	2077.100141	12.496589	-0.044215	2.189351
177.118844	2076.705220	12.501594	-0.044249	2.189159
177.064994	2076.464697	12.506599	-0.044235	2.189033
177.093184	2076.453935	12.511603	-0.044242	2.189029
176.956491	2075.850674	12.516608	-0.044208	2.188712
176.743968	2075.902296	12.521613	-0.044156	2.188724
176.552192	2075.900909	12.526618	-0.044109	2.188710
176.499558	2075.919184	12.531623	-0.044096	2.188715
176.306781	2075.943029	12.536627	-0.044048	2.188714
176.319747	2075.921787	12.541632	-0.044051	2.188704
176.269755	2075.955005	12.546637	-0.044039	2.188718
176.269463	2075.758982	12.551642	-0.044039	2.188617
176.227910	2075.370894	12.556647	-0.044028	2.188417
176.395076	2075.340334	12.561651	-0.044069	2.188413
176.501303	2075.311322	12.566656	-0.044094	2.188405
176.764418	2075.309649	12.571661	-0.044159	2.188422
176.755393	2075.284972	12.576666	-0.044156	2.188409
176.948529	2075.221814	12.581671	-0.044203	2.188390
177.145687	2074.611319	12.586675	-0.044251	2.188092
177.256913	2074.579791	12.591680	-0.044278	2.188084
177.246706	2074.136439	12.596685	-0.044275	2.187857
176.903391	2074.012187	12.601690	-0.044190	2.187770
176.756612	2074.053960	12.606695	-0.044154	2.187781
176.565101	2073.785812	12.611699	-0.044107	2.187631
176.473317	2073.472630	12.616704	-0.044084	2.187464
176.415013	2073.504825	12.621709	-0.044070	2.187477
176.308967	2073.493651	12.626714	-0.044044	2.187464
176.285845	2073.514029	12.631719	-0.044038	2.187472
176.117529	2073.522942	12.636723	-0.043997	2.187465
175.965481	2073.543407	12.641728	-0.043959	2.187465
176.260984	2073.533633	12.646733	-0.044031	2.187480
176.307304	2073.494717	12.651738	-0.044042	2.187464
176.494261	2073.489602	12.656743	-0.044088	2.187474
176.714091	2073.467479	12.661747	-0.044141	2.187478
176.787522	2073.439866	12.666752	-0.044159	2.187469
176.918174	2073.225850	12.671757	-0.044191	2.187369
177.024274	2072.961962	12.676762	-0.044216	2.187241
177.153287	2072.965330	12.681767	-0.044248	2.187252
177.111422	2072.412998	12.686771	-0.044237	2.186967
176.943560	2072.330728	12.691776	-0.044196	2.186913
176.864267	2072.371276	12.696781	-0.044176	2.186928
176.759784	2071.831519	12.701786	-0.044150	2.186646
176.640318	2071.749110	12.706791	-0.044120	2.186595
176.490517	2071.762551	12.711795	-0.044084	2.186592
176.409977	2071.768411	12.716800	-0.044064	2.186589
176.257827	2071.813663	12.721805	-0.044026	2.186601
176.114015	2071.806723	12.726810	-0.043991	2.186588
176.237892	2071.808638	12.731815	-0.044021	2.186597
176.312514	2071.796765	12.736819	-0.044039	2.186596
176.253274	2071.786581	12.741824	-0.044025	2.186587
176.367895	2071.806265	12.746829	-0.044052	2.186605
176.554238	2071.744653	12.751834	-0.044098	2.186586
176.660185	2071.471396	12.756839	-0.044123	2.186454
176.639559	2071.127014	12.761843	-0.044118	2.186277
176.874132	2071.071074	12.766848	-0.044175	2.186265
176.978122	2071.090668	12.771853	-0.044200	2.186282
176.971343	2070.659448	12.776858	-0.044198	2.186061
176.912776	2070.489620	12.781863	-0.044183	2.185970
176.832880	2070.507622	12.786867	-0.044164	2.185974
176.664056	2070.433489	12.791872	-0.044122	2.185924
176.635186	2069.909384	12.796877	-0.044114	2.185654
176.412245	2069.921476	12.801882	-0.044060	2.185645
176.286180	2069.946064	12.806887	-0.044029	2.185649
176.187171	2069.973084	12.811891	-0.044004	2.185656
176.161498	2069.957735	12.816896	-0.043998	2.185646
176.289571	2069.961815	12.821901	-0.044029	2.185657
176.140345	2069.966021	12.826906	-0.043992	2.185649
176.340100	2069.947516	12.831911	-0.044041	2.185653
176.360879	2069.948159	12.836915	-0.044046	2.185655
176.469145	2069.911536	12.841920	-0.044072	2.185643
176.504461	2069.932206	12.846925	-0.044081	2.185656
176.532670	2069.908000	12.851930	-0.044087	2.185646
176.643743	2069.853575	12.856935	-0.044114	2.185626
176.652683	2069.292926	12.861939	-0.044116	2.185340
176.536578	2069.284075	12.866944	-0.044087	2.185327
176.574982	2069.296681	12.871949	-0.044096	2.185336
176.631294	2069.272016	12.876954	-0.044110	2.185328
176.527604	2069.302118	12.881959	-0.044084	2.185336
176.598637	2069.236948	12.886963	-0.044102	2.185307
176.536362	2068.672627	12.891968	-0.044086	2.185015
176.593170	2068.690058	12.896973	-0.044099	2.185027
176.638488	2068.659558	12.901978	-0.044110	2.185015
176.768887	2068.659950	12.906983	-0.044142	2.185024
176.655625	2068.676077	12.911987	-0.044114	2.185025
176.698574	2068.202297	12.916992	-0.044124	2.184785
176.657883	2068.084827	12.921997	-0.044114	2.184722
176.609625	2068.067367	12.927002	-0.044102	2.184710
176.494161	2068.102430	12.932007	-0.044074	2.184720
176.508960	2068.099912	12.937011	-0.044077	2.184720
176.404417	2068.100802	12.942016	-0.044051	2.184713
176.322116	2068.128604	12.947021	-0.044031	2.184721
176.309239	2068.106941	12.952026	-0.044028	2.184709
176.466102	2067.546561	12.957031	-0.044065	2.184434
176.447880	2067.471260	12.962035	-0.044061	2.184394
176.401911	2067.456242	12.967040	-0.044049	2.184383
176.477009	2067.469648	12.972045	-0.044067	2.184395
176.425315	2067.452966	12.977050	-0.044055	2.184383
176.390265	2067.462424	12.982055	-0.044046	2.184385
176.305233	2067.485709	12.987059	-0.044025	2.184391
176.529868	2067.434783	12.992064	-0.044079	2.184381
176.462438	2067.457200	12.997069	-0.044063	2.184387
176.477058	2067.440656	13.002074	-0.044066	2.184380
176.557215	2066.873079	13.007079	-0.044085	2.184095
176.537931	2066.837025	13.012083	-0.044080	2.184075
176.413420	2066.824761	13.017088	-0.044050	2.184060
176.537179	2066.836426	13.022093	-0.044080	2.184075
176.487832	2066.826147	13.027098	-0.044067	2.184066
176.545612	2066.818084	13.032103	-0.044081	2.184066
176.464989	2066.838937	13.037107	-0.044061	2.184071
176.416511	2066.639201	13.042112	-0.044049	2.183966
176.475394	2066.226992	13.047117	-0.044063	2.183759
176.243976	2066.246385	13.052122	-0.044006	2.183753
176.219177	2066.256585	13.057127	-0.044000	2.183756
176.245749	2066.259793	13.062131	-0.044007	2.183759
176.232316	2066.230277	13.067136	-0.044003	2.183743
176.174210	2066.269439	13.072141	-0.043989	2.183759
176.220231	2066.244350	13.077146	-0.044000	2.183750
176.432044	2066.222649	13.082151	-0.044051	2.183753
176.518197	2066.220800	13.087155	-0.044072	2.183758
176.517317	2066.203317	13.092160	-0.044072	2.183749
176.630563	2066.215185	13.097165	-0.044099	2.183763
176.407329	2066.221861	13.102170	-0.044044	2.183751
176.480861	2066.214096	13.107175	-0.044062	2.183752
176.642403	2065.947331	13.112179	-0.044101	2.183627
176.598210	2065.602031	13.117184	-0.044090	2.183447
176.619881	2065.622391	13.122189	-0.044095	2.183459
176.543900	2065.632841	13.127194	-0.044076	2.183459
176.656104	2065.615231	13.132199	-0.044104	2.183458
176.573771	2065.636927	13.137203	-0.044083	2.183463
176.484883	2065.206461	13.142208	-0.044061	2.183237
176.644269	2064.994684	13.147213	-0.044100	2.183139
176.554395	2064.990543	13.152218	-0.044078	2.183131
176.553152	2064.998146	13.157223	-0.044077	2.183135
176.606068	2065.001427	13.162227	-0.044090	2.183140
176.604365	2064.978566	13.167232	-0.044089	2.183128
176.592387	2064.622857	13.172237	-0.044086	2.182945
176.569323	2064.365135	13.177242	-0.044080	2.182812
176.399618	2064.408801	13.182247	-0.044038	2.182822
176.495679	2064.398574	13.187251	-0.044061	2.182824
176.406923	2064.390623	13.192256	-0.044040	2.182814
176.464787	2064.402079	13.197261	-0.044054	2.182823
176.475482	2064.375702	13.202266	-0.044056	2.182811
176.399955	2064.398607	13.207271	-0.044037	2.182817
176.367276	2064.413236	13.212275	-0.044029	2.182822
176.341662	2064.098807	13.217280	-0.044023	2.182659
176.318356	2063.828032	13.222285	-0.044016	2.182519
176.443461	2063.795538	13.227290	-0.044047	2.182511
176.539912	2063.795021	13.232295	-0.044070	2.182518
176.499468	2063.805824	13.237299	-0.044060	2.182520
176.456012	2063.791708	13.242304	-0.044049	2.182510
176.567660	2063.797362	13.247309	-0.044076	2.182521
176.653298	2063.766580	13.252314	-0.044097	2.182511
176.642703	2063.494701	13.257319	-0.044094	2.182371
176.722513	2063.315495	13.262323	-0.044113	2.182285
176.660178	2063.298460	13.267328	-0.044098	2.182272
176.752909	2063.307297	13.272333	-0.044120	2.182283
176.636957	2063.310991	13.277338	-0.044092	2.182276
176.652191	2062.827839	13.282343	-0.044095	2.182030
176.318435	2062.719028	13.287347	-0.044013	2.181951
176.427358	2062.686297	13.292352	-0.044040	2.181942
176.482401	2062.706670	13.297357	-0.044053	2.181956
176.405899	2062.693400	13.302362	-0.044034	2.181944
176.415988	2062.690608	13.307367	-0.044036	2.181943
176.359259	2062.712782	13.312371	-0.044022	2.181951
176.351749	2062.695911	13.317376	-0.044020	2.181941
176.319406	2062.722086	13.322381	-0.044012	2.181952
176.269750	2062.715228	13.327386	-0.044000	2.181945
176.279893	2062.717614	13.332391	-0.044002	2.181947
176.342625	2062.712837	13.337395	-0.044017	2.181949
176.400821	2062.682135	13.342400	-0.044031	2.181937
176.419013	2062.166932	13.347405	-0.044035	2.181675
176.405000	2062.065535	13.352410	-0.044031	2.181622
176.428230	2062.057596	13.357415	-0.044037	2.181620
176.660709	2062.048910	13.362419	-0.044093	2.181631
176.669194	2062.020406	13.367424	-0.044095	2.181617
176.707461	2062.035739	13.372429	-0.044104	2.181628
176.761196	2061.739344	13.377434	-0.044117	2.181480
176.678447	2061.412458	13.382439	-0.044097	2.181307
176.634068	2061.427458	13.387443	-0.044086	2.181311
176.526562	2061.413542	13.392448	-0.044059	2.181297
176.475293	2061.446560	13.397453	-0.044046	2.181310
176.511563	2061.430745	13.402458	-0.044055	2.181304
176.390424	2061.443393	13.407463	-0.044025	2.181302
176.311260	2060.916294	13.412467	-0.044005	2.181027
176.217810	2060.874852	13.417472	-0.043982	2.180999
176.178250	2060.904747	13.422477	-0.043972	2.181011
176.059195	2061.197077	13.427482	-0.043943	2.181153
176.136747	2061.479409	13.432487	-0.043962	2.181303
176.144969	2061.497001	13.437491	-0.043964	2.181312
176.170390	2061.466804	13.442496	-0.043970	2.181298
176.357737	2061.468834	13.447501	-0.044016	2.181312
176.425672	2061.215687	13.452506	-0.044032	2.181188
176.650246	2060.827759	13.457511	-0.044086	2.181005
176.929898	2060.800126	13.462515	-0.044154	2.181010
176.831153	2060.794782	13.467520	-0.044130	2.181000
176.818107	2060.631378	13.472525	-0.044127	2.180916
176.777903	2060.181082	13.477530	-0.044116	2.180682
176.766337	2060.182156	13.482535	-0.044113	2.180682
176.728770	2060.202629	13.487539	-0.044104	2.180690
176.629790	2060.181770	13.492544	-0.044080	2.180672
176.555972	2059.615073	13.497549	-0.044061	2.180377
176.485824	2059.614071	13.502554	-0.044044	2.180371
176.282089	2059.630059	13.507559	-0.043994	2.180365
176.210966	2059.655714	13.512563	-0.043976	2.180373
176.117773	2059.649622	13.517568	-0.043953	2.180364
176.068544	2059.681134	13.522573	-0.043941	2.180376
176.041613	2059.676071	13.527578	-0.043934	2.180372
176.042590	2059.672082	13.532583	-0.043934	2.180370
176.106565	2059.675968	13.537587	-0.043950	2.180376
176.126857	2059.651968	13.542592	-0.043954	2.180365
176.235787	2059.665276	13.547597	-0.043981	2.180380
176.395008	2059.630875	13.552602	-0.044020	2.180373
176.368399	2059.631560	13.557607	-0.044013	2.180371
176.513739	2059.626491	13.562611	-0.044048	2.180379
176.574740	2059.595722	13.567616	-0.044063	2.180367
176.553403	2059.623737	13.572621	-0.044057	2.180380
176.482645	2059.612758	13.577626	-0.044040	2.180370
176.465130	2059.617387	13.582631	-0.044035	2.180371
176.514824	2059.619866	13.587635	-0.044047	2.180375
176.337350	2059.406369	13.592640	-0.044004	2.180254
176.438608	2059.028688	13.597645	-0.044028	2.180067
176.417973	2059.021244	13.602650	-0.044023	2.180062
176.486213	2059.000465	13.607655	-0.044039	2.180056
176.380572	2059.035398	13.612659	-0.044013	2.180066
176.422921	2059.009613	13.617664	-0.044023	2.180056
176.403053	2059.037120	13.622669	-0.044018	2.180069
176.419455	2059.018835	13.627674	-0.044022	2.180061
176.350101	2059.019557	13.632679	-0.044005	2.180056
176.335896	2059.039280	13.637683	-0.044001	2.180065
176.410564	2059.004517	13.642688	-0.044019	2.180052
176.453218	2058.746418	13.647693	-0.044029	2.179923
176.367544	2058.419269	13.652698	-0.044008	2.179750
176.397706	2058.417092	13.657703	-0.044015	2.179751
176.295283	2058.450670	13.662707	-0.043990	2.179760
176.167418	2058.438647	13.667712	-0.043959	2.179745
176.272136	2058.444592	13.672717	-0.043984	2.179756
176.343863	2058.429434	13.677722	-0.044001	2.179753
176.456382	2058.402923	13.682727	-0.044029	2.179747
176.549979	2058.412518	13.687731	-0.044051	2.179758
176.634437	2058.379165	13.692736	-0.044072	2.179747
176.706362	2058.388668	13.697741	-0.044089	2.179757
176.658763	2057.899400	13.702746	-0.044077	2.179503
176.593608	2057.739561	13.707751	-0.044061	2.179417
176.701854	2057.758124	13.712755	-0.044087	2.179434
176.715711	2057.729220	13.717760	-0.044090	2.179420
176.646892	2057.752120	13.722765	-0.044073	2.179427
176.550448	2057.321391	13.727770	-0.044049	2.179199
176.449632	2057.141760	13.732775	-0.044024	2.179100
176.363717	2057.170038	13.737779	-0.044003	2.179108
176.196680	2057.171292	13.742784	-0.043962	2.179097
176.162688	2057.191574	13.747789	-0.043954	2.179105
176.328102	2057.166075	13.752794	-0.043994	2.179104
176.078219	2057.191730	13.757799	-0.043932	2.179099
176.231156	2057.196879	13.762803	-0.043970	2.179113
176.158820	2057.179429	13.767808	-0.043952	2.179099
176.172094	2057.203625	13.772813	-0.043955	2.179112
176.103727	2057.201173	13.777818	-0.043938	2.179106
176.256359	2057.173761	13.782823	-0.043975	2.179102
176.293218	2057.189256	13.787827	-0.043984	2.179113
176.249376	2057.170357	13.792832	-0.043973	2.179100
176.304870	2057.183311	13.797837	-0.043986	2.179110
176.285032	2057.172717	13.802842	-0.043981	2.179104
176.327901	2057.163930	13.807847	-0.043992	2.179102
176.496876	2057.163541	13.812851	-0.044033	2.179114
176.381615	2057.149202	13.817856	-0.044004	2.179098
176.560712	2057.149260	13.822861	-0.044048	2.179111
176.502909	2057.152680	13.827866	-0.044034	2.179108
176.614196	2057.045287	13.832871	-0.044060	2.179061
176.617481	2056.527610	13.837875	-0.044061	2.178796
176.448351	2056.527937	13.842880	-0.044019	2.178784
176.611186	2056.531425	13.847885	-0.044059	2.178797
176.473813	2056.538083	13.852890	-0.044025	2.178791
176.403938	2056.535839	13.857895	-0.044008	2.178785
176.413239	2056.559964	13.862899	-0.044010	2.178798
176.312020	2056.547068	13.867904	-0.043985	2.178784
176.379481	2056.557167	13.872909	-0.044001	2.178794
176.279919	2056.568417	13.877914	-0.043977	2.178793
176.202918	2056.572324	13.882919	-0.043958	2.178789
176.290606	2056.351181	13.887923	-0.043979	2.178682
176.300114	2055.970126	13.892928	-0.043981	2.178487
176.454867	2055.965267	13.897933	-0.044018	2.178496
176.419277	2055.965051	13.902938	-0.044009	2.178493
176.490059	2055.948497	13.907943	-0.044026	2.178490
176.596361	2055.959081	13.912947	-0.044052	2.178502
176.467163	2055.945438	13.917952	-0.044020	2.178486
176.621914	2055.941189	13.922957	-0.044058	2.178495
176.499988	2055.960060	13.927962	-0.044028	2.178496
176.633129	2055.497293	13.932967	-0.044060	2.178268
176.588101	2055.329936	13.937971	-0.044049	2.178179
176.554628	2055.298366	13.942976	-0.044040	2.178160
176.481240	2055.337115	13.947981	-0.044022	2.178175
176.514567	2055.334808	13.952986	-0.044030	2.178176
176.420015	2055.325581	13.957991	-0.044007	2.178165
176.702478	2055.313345	13.962995	-0.044076	2.178178
176.542274	2054.707336	13.968000	-0.044036	2.177856
176.564963	2054.720487	13.973005	-0.044041	2.177865
176.396537	2054.736571	13.978010	-0.044000	2.177861
176.444681	2054.729500	13.983015	-0.044012	2.177861
176.436160	2054.744474	13.988019	-0.044009	2.177868
176.482129	2054.709379	13.993024	-0.044020	2.177853
176.569405	2054.716458	13.998029	-0.044042	2.177863
176.518278	2054.658983	14.003034	-0.044029	2.177830
176.495245	2054.105000	14.008039	-0.044023	2.177544
176.480973	2054.130500	14.013043	-0.044019	2.177556
176.425926	2054.116806	14.018048	-0.044005	2.177545
176.354357	2054.144340	14.023053	-0.043988	2.177554
176.424690	2054.128150	14.028058	-0.044005	2.177551
176.367878	2054.127485	14.033063	-0.043991	2.177546
176.336973	2054.157082	14.038067	-0.043983	2.177559
176.242878	2054.142018	14.043072	-0.043960	2.177545
176.247423	2054.150335	14.048077	-0.043961	2.177549
176.153224	2054.174563	14.053082	-0.043937	2.177555
176.255037	2054.139158	14.058087	-0.043962	2.177544
176.337915	2054.148051	14.063091	-0.043982	2.177554
176.077605	2054.165108	14.068096	-0.043918	2.177545
176.066238	2054.183513	14.073101	-0.043915	2.177553
176.181947	2054.165699	14.078106	-0.043943	2.177552
176.297373	2054.135135	14.083111	-0.043971	2.177545
176.305592	2054.156956	14.088115	-0.043973	2.177556
176.391651	2054.118830	14.093120	-0.043994	2.177543
176.615280	2054.105165	14.098125	-0.044048	2.177551
176.809805	2053.673176	14.103130	-0.044095	2.177343
176.843461	2053.591359	14.108135	-0.044103	2.177304
176.776289	2053.624685	14.113139	-0.044087	2.177316
176.852924	2053.531219	14.118144	-0.044105	2.177274
176.734780	2052.972397	14.123149	-0.044076	2.176979
176.777510	2052.966672	14.128154	-0.044086	2.176979
176.556636	2052.978664	14.133159	-0.044032	2.176969
176.444905	2053.020810	14.138163	-0.044005	2.176983
176.310445	2053.014310	14.143168	-0.043971	2.176970
176.034253	2053.069163	14.148173	-0.043904	2.176979
175.927499	2053.081712	14.153178	-0.043878	2.176978
175.888773	2053.068233	14.158183	-0.043868	2.176968
176.019699	2053.072994	14.163187	-0.043900	2.176980
176.141713	2053.039400	14.168192	-0.043929	2.176971
176.153773	2053.041514	14.173197	-0.043932	2.176973
176.165901	2053.047880	14.178202	-0.043935	2.176977
176.302922	2053.012847	14.183207	-0.043968	2.176968
176.591091	2053.001929	14.188211	-0.044038	2.176983
176.805535	2052.950544	14.193216	-0.044090	2.176972
176.936123	2052.731316	14.198221	-0.044122	2.176868
177.041822	2052.309438	14.203226	-0.044147	2.176659
177.203633	2052.273456	14.208231	-0.044187	2.176652
177.098571	2051.837174	14.213235	-0.044161	2.176421
176.872967	2051.700403	14.218240	-0.044105	2.176335
176.816630	2051.715201	14.223245	-0.044091	2.176338
176.728075	2051.476349	14.228250	-0.044069	2.176210
176.377886	2051.185305	14.233255	-0.043983	2.176036
176.269987	2051.220836	14.238259	-0.043957	2.176046
175.969546	2051.231239	14.243264	-0.043883	2.176031
176.008099	2051.244337	14.248269	-0.043892	2.176040
175.979680	2051.642061	14.253274	-0.043885	2.176242
175.942281	2051.831983	14.258279	-0.043876	2.176337
175.986152	2051.842229	14.263283	-0.043887	2.176345
176.206303	2051.788542	14.268288	-0.043940	2.176333
176.293824	2051.783395	14.273293	-0.043962	2.176336
176.448097	2051.764873	14.278298	-0.043999	2.176338
176.473818	2051.748383	14.283303	-0.044005	2.176331
176.508998	2051.365144	14.288307	-0.044013	2.176137
176.605847	2051.148162	14.293312	-0.044037	2.176032
176.808685	2051.133656	14.298317	-0.044086	2.176039
176.789021	2051.142229	14.303322	-0.044081	2.176042
176.759616	2050.998783	14.308327	-0.044073	2.175966
176.627374	2050.533813	14.313331	-0.044041	2.175718
176.341164	2050.559622	14.318336	-0.043971	2.175711
176.346072	2050.559972	14.323341	-0.043972	2.175712
176.355203	2050.570393	14.328346	-0.043974	2.175718
176.181597	2050.578998	14.333351	-0.043931	2.175710
175.957101	2050.635320	14.338355	-0.043876	2.175723
175.810009	2050.636958	14.343360	-0.043840	2.175713
176.023792	2050.606956	14.348365	-0.043892	2.175713
175.983655	2050.893956	14.353370	-0.043882	2.175857
175.964643	2051.242592	14.358375	-0.043877	2.176035
176.056884	2051.251706	14.363379	-0.043900	2.176046
176.306645	2051.194280	14.368384	-0.043961	2.176034
176.477684	2051.177421	14.373389	-0.044002	2.176037
176.574823	2050.853618	14.378394	-0.044026	2.175878
176.533400	2050.520770	14.383399	-0.044015	2.175704
176.640874	2050.533276	14.388403	-0.044041	2.175718
176.494580	2050.524765	14.393408	-0.044005	2.175703
176.550299	2050.522131	14.398413	-0.044019	2.175706
176.357768	2050.567698	14.403418	-0.043971	2.175716
176.263073	2050.556400	14.408423	-0.043948	2.175703
176.246623	2050.589480	14.413427	-0.043944	2.175719
176.231239	2050.568264	14.418432	-0.043940	2.175707
176.316736	2050.565517	14.423437	-0.043961	2.175711
176.278241	2050.578791	14.428442	-0.043951	2.175715
176.219288	2050.569609	14.433447	-0.043936	2.175707
176.342689	2050.580548	14.438451	-0.043966	2.175721
176.253455	2050.572459	14.443456	-0.043944	2.175710
176.364304	2049.985836	14.448461	-0.043971	2.175417
176.416669	2049.952023	14.453466	-0.043983	2.175403
176.554819	2049.913186	14.458471	-0.044017	2.175393
176.586038	2049.928496	14.463475	-0.044024	2.175403
176.466726	2049.923912	14.468480	-0.043995	2.175392
176.563096	2049.917244	14.473485	-0.044018	2.175395
176.735568	2049.905353	14.478490	-0.044060	2.175401
176.464320	2049.449769	14.483495	-0.043993	2.175149
176.486281	2049.335562	14.488499	-0.043999	2.175091
176.293150	2049.336809	14.493504	-0.043951	2.175078
176.159386	2049.358838	14.498509	-0.043918	2.175080
176.046012	2049.385686	14.503514	-0.043890	2.175086
176.132124	2049.356695	14.508519	-0.043911	2.175077
176.093136	2049.381896	14.513523	-0.043902	2.175087
176.041570	2049.372625	14.518528	-0.043889	2.175079
176.135504	2049.393355	14.523533	-0.043912	2.175096
176.216940	2049.975439	14.528538	-0.043932	2.175400
176.410058	2049.487757	14.533543	-0.043978	2.175164
176.699678	2049.303531	14.538547	-0.044049	2.175089
176.731208	2049.283820	14.543552	-0.044056	2.175081
176.670270	2049.291035	14.548557	-0.044041	2.175081
176.601034	2049.313070	14.553562	-0.044024	2.175087
176.659342	2049.026633	14.558567	-0.044038	2.174944
176.676412	2048.709357	14.563571	-0.044042	2.174782
176.359278	2048.737587	14.568576	-0.043964	2.174775
176.381607	2048.741029	14.573581	-0.043969	2.174778
176.324571	2048.769303	14.578586	-0.043955	2.174788
176.038028	2048.779062	14.583591	-0.043885	2.174773
176.050528	2048.801484	14.588595	-0.043888	2.174786
176.050581	2048.785772	14.593600	-0.043888	2.174777
176.049795	2048.784162	14.598605	-0.043887	2.174777
176.154443	2048.790346	14.603610	-0.043913	2.174787
176.247747	2048.752771	14.608615	-0.043935	2.174774
176.192675	2048.781993	14.613619	-0.043922	2.174785
176.329918	2048.749970	14.618624	-0.043955	2.174778
176.571388	2048.714655	14.623629	-0.044014	2.174777
176.560855	2048.731406	14.628634	-0.044011	2.174785
176.594382	2048.701389	14.633639	-0.044019	2.174772
176.491789	2048.741968	14.638643	-0.043994	2.174785
176.453660	2048.736034	14.643648	-0.043984	2.174780
176.425575	2048.330388	14.648653	-0.043977	2.174569
176.296633	2048.124939	14.653658	-0.043945	2.174455
176.074286	2048.139010	14.658663	-0.043891	2.174446
176.027918	2048.292611	14.663667	-0.043879	2.174522
176.075265	2048.787660	14.668672	-0.043891	2.174779
176.126301	2048.778057	14.673677	-0.043903	2.174778
176.239458	2048.779734	14.678682	-0.043931	2.174787
176.239402	2048.760083	14.683687	-0.043930	2.174777
176.336854	2048.769075	14.688691	-0.043954	2.174788
176.327051	2048.668349	14.693696	-0.043951	2.174735
176.445102	2048.097714	14.698701	-0.043980	2.174451
176.628565	2048.085827	14.703706	-0.044024	2.174457
176.532581	2048.081719	14.708711	-0.044001	2.174449
176.865151	2048.057668	14.713715	-0.044082	2.174459
176.802156	2048.051484	14.718720	-0.044066	2.174452
176.715685	2047.486365	14.723725	-0.044044	2.174156
176.761355	2047.448007	14.728730	-0.044055	2.174139
176.635216	2047.432519	14.733735	-0.044024	2.174122
176.438485	2047.487480	14.738739	-0.043976	2.174137
176.300974	2047.490267	14.743744	-0.043942	2.174128
176.252175	2047.494003	14.748749	-0.043930	2.174127
176.200647	2047.519696	14.753754	-0.043917	2.174136
175.895515	2047.540223	14.758759	-0.043843	2.174125
175.952195	2047.556904	14.763763	-0.043856	2.174138
175.900420	2047.544023	14.768768	-0.043843	2.174127
175.918812	2047.541921	14.773773	-0.043848	2.174128
176.124720	2047.532130	14.778778	-0.043898	2.174137
176.225231	2047.491445	14.783783	-0.043922	2.174123
176.449628	2047.488247	14.788787	-0.043977	2.174137
176.607572	2047.450354	14.793792	-0.044015	2.174129
176.615471	2047.451814	14.798797	-0.044017	2.174130
176.654710	2047.462368	14.803802	-0.044026	2.174138
176.625291	2046.982855	14.808807	-0.044019	2.173890
176.560835	2046.850734	14.813811	-0.044003	2.173817
176.497749	2046.844569	14.818816	-0.043987	2.173810
176.379345	2046.853869	14.823821	-0.043958	2.173806
176.330863	2046.875800	14.828826	-0.043946	2.173814
176.154569	2046.875079	14.833831	-0.043903	2.173801
176.030036	2046.918651	14.838835	-0.043872	2.173815
175.855547	2046.935616	14.843840	-0.043829	2.173811
175.780807	2046.945027	14.848845	-0.043811	2.173811
175.858744	2047.056976	14.853850	-0.043830	2.173873
176.041937	2047.517194	14.858855	-0.043875	2.174123
176.078994	2047.536253	14.863859	-0.043883	2.174135
176.294759	2047.501098	14.868864	-0.043936	2.174132
176.351167	2047.477689	14.873869	-0.043949	2.174124
176.601609	2047.068148	14.878874	-0.044010	2.173931
176.481538	2046.839975	14.883879	-0.043980	2.173805
176.616496	2046.845042	14.888883	-0.044013	2.173817
176.658882	2046.834189	14.893888	-0.044023	2.173815
176.548774	2046.829588	14.898893	-0.043996	2.173805
176.481943	2046.868921	14.903898	-0.043980	2.173820
176.305303	2046.866727	14.908903	-0.043936	2.173807
176.388390	2046.855174	14.913907	-0.043957	2.173806
176.317970	2046.297464	14.918912	-0.043939	2.173515
176.219087	2046.305010	14.923917	-0.043914	2.173512
176.233013	2046.328135	14.928922	-0.043918	2.173525
176.154032	2046.299226	14.933927	-0.043898	2.173504
176.338312	2046.308790	14.938931	-0.043943	2.173522
176.272632	2046.312708	14.943936	-0.043927	2.173519
176.397751	2046.285380	14.948941	-0.043957	2.173514
176.600727	2046.278409	14.953946	-0.044007	2.173525
176.648282	2046.247399	14.958951	-0.044018	2.173512
176.821237	2046.230855	14.963955	-0.044060	2.173516
176.795948	2045.983087	14.968960	-0.044053	2.173386
176.752999	2045.597967	14.973965	-0.044042	2.173186
176.639115	2045.635522	14.978970	-0.044014	2.173197
176.556877	2045.624386	14.983975	-0.043994	2.173185
176.476564	2045.648540	14.988979	-0.043974	2.173192
176.513235	2045.646065	14.993984	-0.043983	2.173193
176.358171	2045.257474	14.998989	-0.043945	2.172983
176.270562	2045.081184	15.003994	-0.043923	2.172886
176.118797	2045.076521	15.008999	-0.043886	2.172873
176.127344	2045.205801	15.014003	-0.043888	2.172940
175.990145	2045.713252	15.019008	-0.043854	2.173191
176.006392	2045.703846	15.024013	-0.043858	2.173187
176.169525	2045.704137	15.029018	-0.043898	2.173199
176.161703	2045.681309	15.034023	-0.043896	2.173186
176.304776	2045.683431	15.039027	-0.043931	2.173197
176.324840	2045.675934	15.044032	-0.043935	2.173195
176.388751	2045.650287	15.049037	-0.043951	2.173186
176.489606	2045.398077	15.054042	-0.043975	2.173063
176.515263	2045.031895	15.059047	-0.043981	2.172877
176.473552	2045.056239	15.064051	-0.043970	2.172887
176.496803	2045.041014	15.069056	-0.043976	2.172880
176.446713	2045.042501	15.074061	-0.043963	2.172878
176.406210	2045.063338	15.079066	-0.043953	2.172885
176.424728	2045.031443	15.084071	-0.043958	2.172870
176.357488	2045.067480	15.089075	-0.043941	2.172884
176.311419	2045.069633	15.094080	-0.043930	2.172882
176.231120	2045.078593	15.099085	-0.043910	2.172881
176.214721	2045.094007	15.104090	-0.043906	2.172887
176.152867	2045.066113	15.109095	-0.043890	2.172869
176.286399	2045.074092	15.114099	-0.043923	2.172882
176.238564	2045.072536	15.119104	-0.043911	2.172878
176.237401	2045.063080	15.124109	-0.043910	2.172873
176.279358	2045.086314	15.129114	-0.043920	2.172888
176.256355	2045.059185	15.134119	-0.043915	2.172872
176.343100	2044.818660	15.139123	-0.043935	2.172755
176.453114	2044.458006	15.144128	-0.043962	2.172577
176.386412	2044.449616	15.149133	-0.043945	2.172568
176.398887	2044.463510	15.154138	-0.043948	2.172576
176.412295	2044.434748	15.159143	-0.043951	2.172562
176.459341	2044.448471	15.164147	-0.043963	2.172572
176.536453	2044.435300	15.169152	-0.043981	2.172571
176.603510	2044.412568	15.174157	-0.043997	2.172564
176.579772	2044.442350	15.179162	-0.043991	2.172577
176.515576	2044.148072	15.184167	-0.043975	2.172422
176.591440	2043.942187	15.189171	-0.043994	2.172321
176.751488	2043.908257	15.194176	-0.044032	2.172315
176.651550	2043.918083	15.199181	-0.044008	2.172313
176.688279	2043.926836	15.204186	-0.044017	2.172320
176.562917	2043.781283	15.209191	-0.043986	2.172236
176.584681	2043.290643	15.214195	-0.043991	2.171985
176.461871	2043.311800	15.219200	-0.043960	2.171988
176.429192	2043.295726	15.224205	-0.043952	2.171977
176.410186	2043.332144	15.229210	-0.043947	2.171994

176.321306	2043.305231	15.234215	-0.043925	2.171974
176.195144	2043.349624	15.239219	-0.043894	2.171988
176.127159	2043.091482	15.244224	-0.043877	2.171851
176.072152	2042.723179	15.249229	-0.043864	2.171657
175.943486	2042.770341	15.254234	-0.043832	2.171672
176.090811	2042.559303	15.259239	-0.043868	2.171574
176.215267	2042.106684	15.264243	-0.043897	2.171350
176.210361	2041.821778	15.269248	-0.043896	2.171203
176.349338	2041.394563	15.274253	-0.043929	2.170993
176.553387	2040.814001	15.279258	-0.043979	2.170709
176.508956	2040.186182	15.284263	-0.043967	2.170383
176.429534	2039.569014	15.289267	-0.043947	2.170060
176.522549	2038.897997	15.294272	-0.043969	2.169721
176.312695	2038.177247	15.299277	-0.043917	2.169336
176.274033	2037.494457	15.304282	-0.043907	2.168981
176.187812	2036.794946	15.309287	-0.043885	2.168615
176.121421	2036.011593	15.314291	-0.043868	2.168207
175.985144	2035.223721	15.319296	-0.043834	2.167792
175.991489	2034.525263	15.324301	-0.043835	2.167432
176.067505	2033.647387	15.329306	-0.043853	2.166985
175.785778	2032.767532	15.334311	-0.043783	2.166512
175.713652	2031.878840	15.339315	-0.043765	2.166049
175.818240	2030.948547	15.344320	-0.043789	2.165577
175.707527	2029.906609	15.349325	-0.043762	2.165032
175.681304	2028.941421	15.354330	-0.043754	2.164532
175.537441	2027.905461	15.359335	-0.043718	2.163987
175.636927	2026.775875	15.364339	-0.043741	2.163412
175.694754	2025.646855	15.369344	-0.043755	2.162833
175.734017	2024.537008	15.374349	-0.043763	2.162263
175.590787	2023.310157	15.379354	-0.043727	2.161619
175.481991	2022.068382	15.384359	-0.043700	2.160970
175.563278	2020.739553	15.389363	-0.043718	2.160289
175.503551	2019.399718	15.394368	-0.043703	2.159592
175.443136	2018.032345	15.399373	-0.043687	2.158881
175.385719	2016.687649	15.404378	-0.043671	2.158181
175.201543	2015.322226	15.409383	-0.043625	2.157461
175.315252	2013.928648	15.414387	-0.043652	2.156748
175.197884	2012.437704	15.419392	-0.043622	2.155968
175.111030	2010.927445	15.424397	-0.043599	2.155179
175.044018	2009.376762	15.429402	-0.043582	2.154371
175.058223	2007.806445	15.434407	-0.043584	2.153558
174.819853	2006.233613	15.439411	-0.043524	2.152725
174.746230	2004.728968	15.444416	-0.043505	2.151940
174.620645	2003.104226	15.449421	-0.043473	2.151087
174.705786	2001.444755	15.454426	-0.043493	2.150232
174.568023	1999.702807	15.459431	-0.043457	2.149317
174.559252	1998.006890	15.464435	-0.043454	2.148436
174.378952	1996.371998	15.469440	-0.043409	2.147573
174.358605	1994.630148	15.474445	-0.043402	2.146666
174.359596	1992.848586	15.479450	-0.043401	2.145739
174.318415	1990.976166	15.484455	-0.043389	2.144761
174.234824	1989.118268	15.489459	-0.043367	2.143788
174.165341	1987.284143	15.494464	-0.043349	2.142827
174.205701	1985.355388	15.499469	-0.043357	2.141825
174.214611	1983.387287	15.504474	-0.043358	2.140799
173.886627	1981.418645	15.509479	-0.043276	2.139749
173.709556	1979.461805	15.514483	-0.043231	2.138715
173.511250	1977.578229	15.519488	-0.043181	2.137717
173.379533	1975.686030	15.524493	-0.043148	2.136719
173.345226	1973.711645	15.529498	-0.043138	2.135684
173.244747	1971.663549	15.534503	-0.043111	2.134606
173.139515	1969.661017	15.539507	-0.043084	2.133550
172.964695	1967.675129	15.544512	-0.043040	2.132498
172.964229	1965.597474	15.549517	-0.043038	2.131410
173.108771	1963.457823	15.554522	-0.043072	2.130299
172.904329	1961.301142	15.559527	-0.043020	2.129154
172.910087	1959.135738	15.564531	-0.043020	2.128018
173.016913	1956.962170	15.569536	-0.043044	2.126885
172.885733	1954.660933	15.574541	-0.043010	2.125667
172.941708	1952.332576	15.579546	-0.043022	2.124448
172.709378	1950.019634	15.584551	-0.042963	2.123215
172.552846	1947.792740	15.589555	-0.042923	2.122032
172.367838	1945.478588	15.594560	-0.042876	2.120800
172.069598	1943.163559	15.599565	-0.042802	2.119559
171.945810	1940.902277	15.604570	-0.042770	2.118358
171.821327	1938.711661	15.609575	-0.042737	2.117194
171.753534	1936.367027	15.614579	-0.042719	2.115952
171.664356	1934.005490	15.619584	-0.042695	2.114699
171.468146	1931.636723	15.624589	-0.042646	2.113433
171.662541	1929.318347	15.629594	-0.042691	2.112223
171.444015	1926.864943	15.634599	-0.042636	2.110909
171.419018	1924.375361	15.639603	-0.042628	2.109590
171.405746	1921.925194	15.644608	-0.042623	2.108291
171.192846	1919.518109	15.649613	-0.042569	2.107000
171.069436	1917.005781	15.654618	-0.042537	2.105659
171.011581	1914.442332	15.659623	-0.042520	2.104295
171.069775	1911.957735	15.664627	-0.042533	2.102981
170.792885	1909.416920	15.669632	-0.042463	2.101610
170.775129	1906.798786	15.674637	-0.042457	2.100217
170.712263	1904.176423	15.679642	-0.042439	2.098818
170.459296	1901.665001	15.684647	-0.042375	2.097462
170.355101	1899.053418	15.689651	-0.042348	2.096064
170.407889	1896.360847	15.694656	-0.042359	2.094633
170.343307	1893.648918	15.699661	-0.042341	2.093182
170.206188	1890.999717	15.704666	-0.042305	2.091758
170.031650	1888.252150	15.709671	-0.042261	2.090277
169.901819	1885.513688	15.714675	-0.042227	2.088804
169.668029	1882.936629	15.719680	-0.042168	2.087408
169.605078	1880.175044	15.724685	-0.042150	2.085925
169.393953	1877.437876	15.729690	-0.042096	2.084444
169.254567	1874.768545	15.734695	-0.042060	2.083002
168.918340	1872.120851	15.739699	-0.041976	2.081557
168.772475	1869.410573	15.744704	-0.041938	2.080091
168.581620	1866.716473	15.749709	-0.041889	2.078630
168.521182	1864.182927	15.754714	-0.041873	2.077264
168.317458	1861.417222	15.759719	-0.041821	2.075761
168.338855	1858.664490	15.764723	-0.041824	2.074281
168.291520	1855.974198	15.769728	-0.041810	2.072828
168.339925	1853.116405	15.774733	-0.041820	2.071292
168.406463	1850.226312	15.779738	-0.041834	2.069738
168.280636	1847.359993	15.784743	-0.041801	2.068182
168.216536	1844.474935	15.789747	-0.041783	2.066618
168.209940	1841.519504	15.794752	-0.041779	2.065020
167.990688	1838.579981	15.799757	-0.041723	2.063413
167.983765	1835.661775	15.804762	-0.041719	2.061832
167.833092	1832.640209	15.809767	-0.041680	2.060183
167.658945	1829.668488	15.814771	-0.041635	2.058558
167.398537	1826.789711	15.819776	-0.041569	2.056976
167.089207	1823.813635	15.824781	-0.041492	2.055335
166.943949	1820.921306	15.829786	-0.041454	2.053752
166.635880	1818.054581	15.834791	-0.041376	2.052168
166.544788	1815.100282	15.839795	-0.041352	2.050553
166.487905	1812.150017	15.844800	-0.041336	2.048941
166.221061	1809.318657	15.849805	-0.041268	2.047376
166.143695	1806.357372	15.854810	-0.041247	2.045754
165.907203	1803.414186	15.859815	-0.041187	2.044128
165.862408	1800.553758	15.864819	-0.041174	2.042561
165.707233	1797.590464	15.869824	-0.041134	2.040928
165.665232	1794.541175	15.874829	-0.041121	2.039256
165.609881	1791.675469	15.879834	-0.041105	2.037681
165.509671	1788.626078	15.884839	-0.041078	2.036001
165.383027	1785.556034	15.889843	-0.041045	2.034307
165.406547	1782.577146	15.894848	-0.041048	2.032672
165.226807	1779.427313	15.899853	-0.041002	2.030927
165.111333	1776.354059	15.904858	-0.040972	2.029227
165.083185	1773.305645	15.909863	-0.040962	2.027546
164.957875	1770.157732	15.914867	-0.040929	2.025801
164.851041	1766.996597	15.919872	-0.040901	2.024049
164.577345	1763.942682	15.924877	-0.040832	2.022341
164.463364	1760.798800	15.929882	-0.040801	2.020595
164.341230	1757.653775	15.934887	-0.040769	2.018846
164.216967	1754.551009	15.939891	-0.040736	2.017119
164.035027	1751.367768	15.944896	-0.040689	2.015341
163.667453	1748.266437	15.949901	-0.040597	2.013592
163.633275	1745.166389	15.954906	-0.040586	2.011869
163.329055	1742.039188	15.959911	-0.040510	2.010108
163.139638	1739.000843	15.964915	-0.040461	2.008403
163.007797	1735.919163	15.969920	-0.040426	2.006678
162.852971	1732.784119	15.974925	-0.040386	2.004920
162.866923	1729.710404	15.979930	-0.040387	2.003208
162.559411	1726.599796	15.984935	-0.040310	2.001448
162.585234	1723.412034	15.989939	-0.040314	1.999670
162.572567	1720.333526	15.994944	-0.040308	1.997949
162.414374	1717.113237	15.999949	-0.040267	1.996135
162.436340	1713.871792	16.004954	-0.040270	1.994322
162.178365	1710.715213	16.009959	-0.040204	1.992532
161.957198	1707.475753	16.014963	-0.040148	1.990697
161.881259	1704.294220	16.019968	-0.040127	1.988905
161.717663	1701.088726	16.024973	-0.040084	1.987090
161.581477	1697.859992	16.029978	-0.040049	1.985263
161.372542	1694.687925	16.034983	-0.039995	1.983461
161.263325	1691.470641	16.039987	-0.039966	1.981639
161.197992	1688.201753	16.044992	-0.039948	1.979790
160.980122	1685.047121	16.049997	-0.039892	1.977991
160.772053	1681.821074	16.055002	-0.039839	1.976151
160.620562	1678.575415	16.060007	-0.039799	1.974303
160.610447	1675.339839	16.065011	-0.039794	1.972471
160.570604	1672.034823	16.070016	-0.039782	1.970595
160.357401	1668.765164	16.075021	-0.039727	1.968723
160.439947	1665.459942	16.080026	-0.039745	1.966854
160.157375	1662.096749	16.085031	-0.039673	1.964919
159.894044	1658.890487	16.090035	-0.039606	1.963073
159.685118	1655.601711	16.095040	-0.039553	1.961183
159.600754	1652.299915	16.100045	-0.039530	1.959295
159.312948	1649.130506	16.105050	-0.039457	1.957462
159.098181	1645.856035	16.110055	-0.039402	1.955575
159.069435	1642.590500	16.115059	-0.039393	1.953706
158.722881	1639.376654	16.120064	-0.039305	1.951838
158.609737	1636.077909	16.125069	-0.039275	1.949940
158.530997	1632.916137	16.130074	-0.039254	1.948121
158.370898	1629.612788	16.135079	-0.039212	1.946212
158.374048	1626.315874	16.140083	-0.039210	1.944319
158.332869	1623.038001	16.145088	-0.039198	1.942431
158.132218	1619.649886	16.150093	-0.039146	1.940465
157.994669	1616.385079	16.155098	-0.039110	1.938572
157.989959	1613.010042	16.160103	-0.039106	1.936626
157.841885	1609.611957	16.165107	-0.039067	1.934652
157.651797	1606.285248	16.170112	-0.039018	1.932714
157.255849	1602.919609	16.175117	-0.038919	1.930733
157.182815	1599.645350	16.180122	-0.038899	1.928832
156.965610	1596.337233	16.185127	-0.038843	1.926896
156.902445	1592.943802	16.190131	-0.038825	1.924922
156.793353	1589.666362	16.195136	-0.038796	1.923009
156.497507	1586.298902	16.200141	-0.038721	1.921026
156.452444	1583.024750	16.205146	-0.038707	1.919117
156.441377	1579.659287	16.210151	-0.038702	1.917156
156.289852	1576.225789	16.215155	-0.038663	1.915141
156.130467	1572.931341	16.220160	-0.038621	1.913204
155.959306	1569.480753	16.225165	-0.038577	1.911173
155.920854	1566.119814	16.230170	-0.038565	1.909204
155.669732	1562.744838	16.235175	-0.038501	1.907206
155.406951	1559.345429	16.240179	-0.038434	1.905191
155.326794	1556.059373	16.245184	-0.038412	1.903256
155.069313	1552.632642	16.250189	-0.038346	1.901220
154.866560	1549.356382	16.255194	-0.038294	1.899276
154.615089	1546.063870	16.260199	-0.038230	1.897316
154.383527	1542.687622	16.265203	-0.038171	1.895306
154.156691	1539.471461	16.270208	-0.038113	1.893389
153.978965	1536.133327	16.275213	-0.038067	1.891402
153.938103	1532.821840	16.280218	-0.038055	1.889442
153.730893	1529.550638	16.285223	-0.038002	1.887488
153.630180	1526.182430	16.290227	-0.037974	1.885484
153.621845	1522.897494	16.295232	-0.037970	1.883535
153.503188	1519.493130	16.300237	-0.037938	1.881504
153.457430	1516.128404	16.305242	-0.037924	1.879501
153.415379	1512.762258	16.310247	-0.037912	1.877495
153.291104	1509.288298	16.315251	-0.037879	1.875415
153.095240	1505.950070	16.320256	-0.037828	1.873408
152.854421	1502.492135	16.325261	-0.037767	1.871323
152.836026	1499.102933	16.330266	-0.037760	1.869296
152.616779	1495.720939	16.335271	-0.037703	1.867254
152.409855	1492.268397	16.340275	-0.037650	1.865168
152.315824	1488.940500	16.345280	-0.037625	1.863164
152.131200	1485.467814	16.350285	-0.037577	1.861064
151.976941	1482.102777	16.355290	-0.037537	1.859028
151.675735	1478.731553	16.360295	-0.037460	1.856973
151.597835	1475.293670	16.365299	-0.037439	1.854896
151.451876	1471.930416	16.370304	-0.037401	1.852856
151.238344	1468.495182	16.375309	-0.037346	1.850763
151.178776	1465.148750	16.380314	-0.037329	1.848736
150.873346	1461.740325	16.385319	-0.037251	1.846647
150.663497	1458.380706	16.390323	-0.037198	1.844593
150.639928	1455.006287	16.395328	-0.037189	1.842546
150.528556	1451.554776	16.400333	-0.037159	1.840441
150.347201	1448.273418	16.405338	-0.037113	1.838431
150.242024	1444.802334	16.410343	-0.037084	1.836310
150.101106	1441.397955	16.415347	-0.037047	1.834224
149.966130	1437.982505	16.420352	-0.037012	1.832130
149.676539	1434.578780	16.425357	-0.036938	1.830025
149.698843	1431.193192	16.430362	-0.036941	1.827959
149.640636	1427.704496	16.435367	-0.036924	1.825819
149.443953	1424.318022	16.440371	-0.036874	1.823727
149.403596	1420.822237	16.445376	-0.036861	1.821580
149.155982	1417.414802	16.450381	-0.036798	1.819465
148.903049	1413.999806	16.455386	-0.036734	1.817342
148.820502	1410.549785	16.460391	-0.036711	1.815212
148.584580	1407.141582	16.465395	-0.036650	1.813090
148.396254	1403.696165	16.470400	-0.036602	1.810947
148.132902	1400.348932	16.475405	-0.036535	1.808855
147.978581	1396.936468	16.480410	-0.036495	1.806731
147.809774	1393.555286	16.485415	-0.036451	1.804623
147.580113	1390.173997	16.490419	-0.036392	1.802505
147.410822	1386.818547	16.495424	-0.036348	1.800407
147.237291	1383.493355	16.500429	-0.036303	1.798326
147.064648	1380.095910	16.505434	-0.036258	1.796196
146.907440	1376.776839	16.510439	-0.036217	1.794115
146.803377	1373.348739	16.515443	-0.036189	1.791968
146.522220	1370.051975	16.520448	-0.036118	1.789884
146.394121	1366.691764	16.525453	-0.036084	1.787772
146.366968	1363.290092	16.530458	-0.036075	1.785642
146.237457	1359.941900	16.535463	-0.036041	1.783532
146.040673	1356.503995	16.540467	-0.035990	1.781357
146.069891	1353.161184	16.545472	-0.035995	1.779262
145.872660	1349.708882	16.550477	-0.035944	1.777073
145.811824	1346.290571	16.555482	-0.035926	1.774916
145.749780	1342.827102	16.560487	-0.035909	1.772728
145.604128	1339.347933	16.565491	-0.035870	1.770519
145.388726	1335.955025	16.570496	-0.035815	1.768354
145.335259	1332.432565	16.575501	-0.035799	1.766121
145.186906	1329.023890	16.580506	-0.035761	1.763948
144.945441	1325.547768	16.585511	-0.035699	1.761720
144.694290	1322.165653	16.590515	-0.035635	1.759548
144.533925	1318.754584	16.595520	-0.035593	1.757364
144.288187	1315.340458	16.600525	-0.035531	1.755167
144.200130	1311.921463	16.605530	-0.035506	1.752980
144.074826	1308.478908	16.610535	-0.035473	1.750771
143.732713	1305.134635	16.615539	-0.035387	1.748600
143.690240	1301.710875	16.620544	-0.035374	1.746406
143.408420	1298.367344	16.625549	-0.035303	1.744237
143.324278	1294.937143	16.630554	-0.035279	1.742029
143.163521	1291.595889	16.635559	-0.035238	1.739867
142.996618	1288.177787	16.640563	-0.035194	1.737653
142.864662	1284.808735	16.645568	-0.035159	1.735472
142.654772	1281.412049	16.650573	-0.035105	1.733261
142.474195	1278.006897	16.655578	-0.035059	1.731045
142.333914	1274.668585	16.660583	-0.035022	1.728874
142.135468	1271.253100	16.665587	-0.034971	1.726644
142.063409	1267.928192	16.670592	-0.034951	1.724483
141.829437	1264.508436	16.675597	-0.034891	1.722241
141.814317	1261.143372	16.680602	-0.034885	1.720054
141.649414	1257.754904	16.685607	-0.034842	1.717834
141.550079	1254.321118	16.690611	-0.034815	1.715588
141.415835	1250.935731	16.695616	-0.034779	1.713367
141.185946	1247.502203	16.700621	-0.034721	1.711102
141.078221	1244.138741	16.705626	-0.034692	1.708892
140.971614	1240.696542	16.710631	-0.034663	1.706628
140.851466	1237.307064	16.715635	-0.034631	1.704394
140.697418	1233.862371	16.720640	-0.034591	1.702117
140.416187	1230.498057	16.725645	-0.034520	1.699877
140.300504	1227.077115	16.730650	-0.034489	1.697614
140.096385	1223.690131	16.735655	-0.034436	1.695361
139.812014	1220.296741	16.740659	-0.034364	1.693092
139.580244	1216.954344	16.745664	-0.034305	1.690859
139.427337	1213.611788	16.750669	-0.034265	1.688632
139.269793	1210.236531	16.755674	-0.034224	1.686379
139.145140	1206.930875	16.760679	-0.034191	1.684173
139.030536	1203.506072	16.765683	-0.034160	1.681886
138.940514	1200.213602	16.770688	-0.034136	1.679687
138.779368	1196.800144	16.775693	-0.034094	1.677397
138.807238	1193.412603	16.780698	-0.034098	1.675141
138.609166	1189.981767	16.785703	-0.034047	1.672828
138.618090	1186.552398	16.790707	-0.034047	1.670536
138.459336	1183.126423	16.795712	-0.034005	1.668225
138.163901	1179.713650	16.800717	-0.033930	1.665905
138.264589	1176.279720	16.805722	-0.033952	1.663610
138.012626	1172.840103	16.810727	-0.033888	1.661269
137.545530	1169.519776	16.815731	-0.033771	1.658983
137.577162	1166.088160	16.820736	-0.033777	1.656672
137.317720	1162.738821	16.825741	-0.033711	1.654382
137.212216	1159.287557	16.830746	-0.033682	1.652037
137.081505	1155.950386	16.835751	-0.033648	1.649763
136.738866	1152.536378	16.840755	-0.033561	1.647410
136.651668	1149.223669	16.845760	-0.033538	1.645151
136.371703	1145.849654	16.850765	-0.033467	1.642826
136.281597	1142.517645	16.855770	-0.033442	1.640547
136.156437	1139.169706	16.860775	-0.033409	1.638250
135.991132	1135.792625	16.865779	-0.033366	1.635926
135.938229	1132.426934	16.870784	-0.033350	1.633618
135.752769	1129.032765	16.875789	-0.033302	1.631273
135.601228	1125.690784	16.880794	-0.033263	1.628964
135.531858	1122.275435	16.885799	-0.033243	1.626611
135.328336	1118.933949	16.890803	-0.033191	1.624290
135.202133	1115.518989	16.895808	-0.033158	1.621924
134.979163	1112.191853	16.900813	-0.033101	1.619603
134.911758	1108.749239	16.905818	-0.033081	1.617218
134.622682	1105.439854	16.910823	-0.033008	1.614896
134.384362	1102.032228	16.915827	-0.032947	1.612508
134.285062	1098.744752	16.920832	-0.032921	1.610216
133.971677	1095.390967	16.925837	-0.032842	1.607850
133.893413	1092.082073	16.930842	-0.032820	1.605538
133.727591	1088.735065	16.935847	-0.032777	1.603187
133.562072	1085.418246	16.940851	-0.032734	1.600853
133.580400	1082.074948	16.945856	-0.032736	1.598519
133.470173	1078.689501	16.950861	-0.032706	1.596136
133.233243	1075.350068	16.955866	-0.032646	1.593768
133.090265	1071.995094	16.960871	-0.032608	1.591396
133.008195	1068.635351	16.965875	-0.032586	1.589025
132.863132	1065.279982	16.970880	-0.032548	1.586645
132.659980	1061.934880	16.975885	-0.032495	1.584263
132.433280	1058.585981	16.980890	-0.032437	1.581871
132.314150	1055.303402	16.985895	-0.032406	1.579535
132.065588	1051.913043	16.990899	-0.032343	1.577105
131.915918	1048.638506	16.995904	-0.032303	1.574764
131.739318	1045.269959	17.000909	-0.032258	1.572350
131.542704	1042.014759	17.005914	-0.032207	1.570010
131.528390	1038.646920	17.010919	-0.032201	1.567608
131.323190	1035.360731	17.015923	-0.032148	1.565238
131.115822	1032.006433	17.020928	-0.032095	1.562816
131.022143	1028.739186	17.025933	-0.032070	1.560465
130.819697	1025.405361	17.030938	-0.032018	1.558051
130.744271	1022.105614	17.035943	-0.031997	1.555672
130.537763	1018.747539	17.040947	-0.031944	1.553232
130.456868	1015.467879	17.045952	-0.031922	1.550859
130.207632	1012.144795	17.050957	-0.031858	1.548432
129.997025	1008.871315	17.055962	-0.031804	1.546041
129.907338	1005.556521	17.060967	-0.031780	1.543631
129.787054	1002.245164	17.065971	-0.031748	1.541216
129.533479	998.969048	17.070976	-0.031683	1.538806
129.472040	995.641178	17.075981	-0.031666	1.536379
129.319798	992.303583	17.080986	-0.031626	1.533929
129.112103	989.034332	17.085991	-0.031573	1.531519
128.801148	985.758147	17.090995	-0.031494	1.529087
128.866315	982.466291	17.096000	-0.031508	1.526686
128.609514	979.170347	17.101005	-0.031442	1.524238
128.526589	975.874657	17.106010	-0.031420	1.521808
128.322836	972.633602	17.111015	-0.031367	1.519400
128.197392	969.311352	17.116019	-0.031334	1.516937
128.183520	966.004560	17.121024	-0.031328	1.514496
127.944409	962.694315	17.126029	-0.031267	1.512020
127.643530	959.461736	17.131034	-0.031191	1.509590
127.435487	956.205828	17.136039	-0.031138	1.507151
127.428590	952.917214	17.141043	-0.031134	1.504708
127.306176	949.631172	17.146048	-0.031101	1.502249
127.281983	946.351594	17.151053	-0.031093	1.499802
127.089428	943.025295	17.156058	-0.031043	1.497296
126.782461	939.788651	17.161063	-0.030966	1.494838
126.463842	936.518188	17.166067	-0.030885	1.492349
126.267073	933.340269	17.171072	-0.030835	1.489941
126.134896	930.082110	17.176077	-0.030800	1.487477
125.959412	926.879436	17.181082	-0.030755	1.485045
125.815446	923.647985	17.186087	-0.030717	1.482591
125.475393	920.505771	17.191091	-0.030632	1.480176
125.391070	917.285908	17.196096	-0.030608	1.477730
125.236304	914.106210	17.201101	-0.030568	1.475302
125.129670	910.858683	17.206106	-0.030540	1.472824
125.049424	907.696343	17.211111	-0.030518	1.470411
124.874755	904.439688	17.216115	-0.030472	1.467909
124.791945	901.276772	17.221120	-0.030450	1.465487
124.827056	897.960205	17.226125	-0.030456	1.462959
124.512853	894.791936	17.231130	-0.030377	1.460494
124.601629	891.489966	17.236135	-0.030396	1.457975
124.291146	888.253912	17.241139	-0.030317	1.455450
124.385152	884.948630	17.246144	-0.030338	1.452920
124.114470	881.730042	17.251149	-0.030269	1.450405
123.879600	878.458307	17.256154	-0.030209	1.447849
123.653042	875.270327	17.261159	-0.030152	1.445355
123.362524	872.051748	17.266163	-0.030078	1.442824
123.255091	868.904383	17.271168	-0.030049	1.440368
123.118270	865.670917	17.276173	-0.030014	1.437837
122.951557	862.483178	17.281178	-0.029970	1.435333
122.789462	859.272688	17.286183	-0.029928	1.432808
122.556571	856.110397	17.291187	-0.029869	1.430306
122.455686	852.914995	17.296192	-0.029842	1.427792
122.206566	849.772354	17.301197	-0.029779	1.425294
122.095594	846.575109	17.306202	-0.029749	1.422768
122.037015	843.424757	17.311207	-0.029732	1.420282
121.653895	840.248582	17.316211	-0.029636	1.417727
121.622203	837.100333	17.321216	-0.029626	1.415237
121.440989	833.921611	17.326221	-0.029579	1.412698
121.454126	830.733185	17.331226	-0.029580	1.410173
121.257356	827.566132	17.336231	-0.029530	1.407632
121.174450	824.367447	17.341235	-0.029507	1.405077
120.980970	821.205012	17.346240	-0.029457	1.402531
120.795844	818.046776	17.351245	-0.029409	1.399984
120.590706	814.890801	17.356250	-0.029357	1.397432
120.489424	811.732510	17.361255	-0.029330	1.394888
120.390734	808.547904	17.366259	-0.029303	1.392319
120.254622	805.376070	17.371264	-0.029267	1.389749
119.980851	802.255243	17.376269	-0.029198	1.387197
119.805143	799.098798	17.381274	-0.029153	1.384625
119.720598	795.962628	17.386279	-0.029130	1.382078
119.496564	792.789218	17.391283	-0.029073	1.379476
119.511471	789.634155	17.396288	-0.029074	1.376917
119.380647	786.442476	17.401293	-0.029039	1.374304
119.155588	783.298915	17.406298	-0.028982	1.371711
119.022432	780.137064	17.411303	-0.028947	1.369112
118.760762	777.029322	17.416307	-0.028881	1.366533
118.753338	773.832809	17.421312	-0.028876	1.363913
118.458781	770.774757	17.426317	-0.028802	1.361361
118.331081	767.600482	17.431322	-0.028768	1.358732
118.194757	764.505452	17.436327	-0.028733	1.356162
117.997583	761.343063	17.441331	-0.028682	1.353523
117.756798	758.286534	17.446336	-0.028621	1.350960
117.574396	755.177019	17.451341	-0.028574	1.348356
117.326818	752.125519	17.456346	-0.028511	1.345787
117.152085	749.056025	17.461351	-0.028466	1.343208
117.012379	746.001651	17.466355	-0.028430	1.340641
117.051757	742.886560	17.471360	-0.028437	1.338045
116.938455	739.762954	17.476365	-0.028407	1.335415
116.688678	736.678133	17.481370	-0.028343	1.332792
116.701135	733.569466	17.486375	-0.028344	1.330182
116.545807	730.455834	17.491379	-0.028304	1.327538
116.314207	727.364687	17.496384	-0.028245	1.324897
116.213954	724.299091	17.501389	-0.028218	1.322291
116.051351	721.195162	17.506394	-0.028176	1.319638
116.117597	718.082090	17.511399	-0.028189	1.317007
115.807168	714.941169	17.516403	-0.028111	1.314290
115.692693	711.898378	17.521408	-0.028081	1.311680
115.489665	708.775577	17.526413	-0.028029	1.308984
115.265776	705.744917	17.531418	-0.027972	1.306358
114.990714	702.693884	17.536423	-0.027902	1.303701
114.881693	699.691569	17.541427	-0.027873	1.301106
114.643064	696.638355	17.546432	-0.027813	1.298442
114.463065	693.588088	17.551437	-0.027766	1.295784
114.343684	690.536750	17.556442	-0.027735	1.293129
114.269334	687.502896	17.561447	-0.027714	1.290490
114.065713	684.453756	17.566451	-0.027662	1.287813
113.935984	681.407990	17.571456	-0.027628	1.285144
113.773180	678.407553	17.576461	-0.027586	1.282505
113.644614	675.349739	17.581466	-0.027552	1.279815
113.462504	672.356432	17.586471	-0.027505	1.277167
113.290226	669.283835	17.591475	-0.027461	1.274446
113.097207	666.334330	17.596480	-0.027412	1.271825
112.891490	663.309129	17.601485	-0.027359	1.269129
112.741439	660.324354	17.606490	-0.027320	1.266471
112.657923	657.318714	17.611495	-0.027297	1.263801
112.420092	654.348459	17.616499	-0.027237	1.261131
112.435453	651.319050	17.621504	-0.027238	1.258443
112.193148	648.322047	17.626509	-0.027177	1.255738
112.107186	645.316500	17.631514	-0.027153	1.253044
112.165013	642.266654	17.636519	-0.027165	1.250327
111.968247	639.256221	17.641523	-0.027115	1.247599
111.813196	636.222749	17.646528	-0.027075	1.244851
111.690535	633.256076	17.651533	-0.027042	1.242162
111.571287	630.200164	17.656538	-0.027011	1.239387
111.384189	627.219386	17.661543	-0.026963	1.236664
111.061513	624.225921	17.666547	-0.026882	1.233900
110.877220	621.286427	17.671552	-0.026834	1.231202
110.625189	618.338453	17.676557	-0.026770	1.228480
110.422349	615.388043	17.681562	-0.026719	1.225757
110.259979	612.465496	17.686567	-0.026677	1.223060
109.987209	609.532901	17.691571	-0.026608	1.220329
109.835030	606.624575	17.696576	-0.026568	1.217635
109.789951	603.662371	17.701581	-0.026555	1.214903
109.527240	600.782755	17.706586	-0.026489	1.212204
109.468303	597.848561	17.711591	-0.026472	1.209483
109.340932	594.922538	17.716595	-0.026439	1.206752
109.330703	591.980995	17.721600	-0.026434	1.204020
109.251180	589.050898	17.726605	-0.026412	1.201281
109.188274	586.071040	17.731610	-0.026394	1.198492
109.118087	583.105790	17.736615	-0.026375	1.195709
108.836071	580.181107	17.741619	-0.026304	1.192921
108.724469	577.225313	17.746624	-0.026274	1.190127
108.570059	574.325113	17.751629	-0.026234	1.187371
108.311019	571.381090	17.756634	-0.026169	1.184549
108.190358	568.519878	17.761639	-0.026137	1.181823
108.017504	565.580614	17.766643	-0.026092	1.179008
107.854314	562.672328	17.771648	-0.026050	1.176216
107.573581	559.814512	17.776653	-0.025980	1.173446
107.496920	556.888925	17.781658	-0.025959	1.170640
107.201381	554.076415	17.786663	-0.025884	1.167898
107.104583	551.158501	17.791667	-0.025858	1.165082
107.108921	548.319552	17.796672	-0.025857	1.162353
106.872897	545.424772	17.801677	-0.025797	1.159522
106.730582	542.550560	17.806682	-0.025760	1.156720
106.751082	539.655956	17.811687	-0.025763	1.153920
106.350890	536.817770	17.816691	-0.025663	1.151094
106.279315	533.969756	17.821696	-0.025643	1.148310
106.153130	531.096119	17.826701	-0.025610	1.145484
105.932122	528.279772	17.831706	-0.025554	1.142690
105.782348	525.426632	17.836711	-0.025515	1.139866
105.498398	522.611257	17.841715	-0.025444	1.137049
105.326196	519.791272	17.846720	-0.025399	1.134239
105.128541	516.991185	17.851725	-0.025349	1.131438
105.003975	514.178767	17.856730	-0.025316	1.128631
104.965857	511.349821	17.861735	-0.025305	1.125815
104.876656	508.552420	17.866739	-0.025281	1.123015
104.681812	505.729789	17.871744	-0.025231	1.120164
104.543378	502.938669	17.876749	-0.025195	1.117347
104.433683	500.103040	17.881754	-0.025166	1.114483
104.453818	497.276149	17.886759	-0.025169	1.111645
104.175400	494.477362	17.891763	-0.025099	1.108773
104.173934	491.632417	17.896768	-0.025096	1.105897
104.021219	488.853600	17.901773	-0.025057	1.103054
103.835525	486.011760	17.906778	-0.025009	1.100132
103.700547	483.216562	17.911783	-0.024974	1.097260
103.527432	480.408529	17.916787	-0.024929	1.094360
103.171188	477.668729	17.921792	-0.024840	1.091488
103.006710	474.915229	17.926797	-0.024798	1.088631
102.897899	472.118921	17.931802	-0.024769	1.085732
102.779362	469.413560	17.936807	-0.024738	1.082917
102.425990	466.664213	17.941811	-0.024650	1.080006
102.264629	463.951304	17.946816	-0.024608	1.077160
102.250996	461.198820	17.951821	-0.024602	1.074294
101.895823	458.498899	17.956826	-0.024514	1.071410
101.890664	455.795325	17.961831	-0.024510	1.068581
101.733375	453.041249	17.966835	-0.024470	1.065663
101.598295	450.355382	17.971840	-0.024435	1.062812
101.417692	447.631905	17.976845	-0.024388	1.059905
101.160414	444.930637	17.981850	-0.024323	1.056999
101.250449	442.208033	17.986855	-0.024343	1.054130
101.164758	439.462073	17.991859	-0.024320	1.051194
101.001750	436.766226	17.996864	-0.024278	1.048288
100.761361	434.065098	18.001869	-0.024217	1.045353
100.492402	431.424423	18.006874	-0.024150	1.042469
100.493446	428.707364	18.011879	-0.024148	1.039548
100.311641	426.007798	18.016883	-0.024101	1.036602
100.222926	423.335537	18.021888	-0.024077	1.033695
99.988571	420.660519	18.026893	-0.024018	1.030747
99.876198	417.998250	18.031898	-0.023989	1.027830
99.761527	415.326158	18.036903	-0.023958	1.024893
99.619471	412.658493	18.041907	-0.023922	1.021947
99.440904	409.997370	18.046912	-0.023876	1.018992
99.287623	407.326097	18.051917	-0.023836	1.016023
99.125288	404.701205	18.056922	-0.023795	1.013094
99.018645	402.038725	18.061927	-0.023767	1.010127
98.840443	399.391148	18.066931	-0.023721	1.007152
98.748499	396.765142	18.071936	-0.023696	1.004211
98.709508	394.096051	18.076941	-0.023685	1.001224
98.442695	391.482788	18.081946	-0.023618	0.998243
98.293892	388.854318	18.086951	-0.023579	0.995260
98.177610	386.224695	18.091955	-0.023549	0.992274
97.880347	383.650454	18.096960	-0.023474	0.989304
97.642706	381.060664	18.101965	-0.023414	0.986320
97.554288	378.469977	18.106970	-0.023390	0.983357
97.437034	375.869311	18.111975	-0.023360	0.980367
97.201055	373.277574	18.116979	-0.023300	0.977354
97.006894	370.732241	18.121984	-0.023251	0.974393
96.903631	368.152045	18.126989	-0.023223	0.971402
96.690340	365.609645	18.131994	-0.023169	0.968423
96.668093	363.034051	18.136999	-0.023162	0.965436
96.481812	360.491029	18.142003	-0.023114	0.962443
96.421653	357.919915	18.147008	-0.023098	0.959435
96.265493	355.356450	18.152013	-0.023057	0.956406
96.114681	352.828535	18.157018	-0.023019	0.953410
96.029986	350.263836	18.162023	-0.022996	0.950375
95.715422	347.750314	18.167027	-0.022917	0.947341
95.534169	345.265112	18.172032	-0.022871	0.944360
95.389480	342.735781	18.177037	-0.022833	0.941325
95.126376	340.253427	18.182042	-0.022767	0.938310
95.034429	337.755644	18.187047	-0.022743	0.935305
94.739483	335.292968	18.192051	-0.022669	0.932287
94.736143	332.798190	18.197056	-0.022666	0.929286
94.530219	330.328238	18.202061	-0.022614	0.926259
94.290416	327.903782	18.207066	-0.022553	0.923270
94.168007	325.443944	18.212071	-0.022521	0.920255
93.911203	322.996992	18.217075	-0.022457	0.917216
93.853404	320.569238	18.222080	-0.022441	0.914234
93.746787	318.114712	18.227085	-0.022413	0.911200
93.623446	315.668198	18.232090	-0.022381	0.908161
93.540942	313.232482	18.237095	-0.022359	0.905134
93.451459	310.766388	18.242099	-0.022335	0.902058
93.331501	308.323801	18.247104	-0.022304	0.898994
92.995785	305.926624	18.252109	-0.022220	0.895925
92.860409	303.504697	18.257114	-0.022185	0.892862
92.813223	301.095191	18.262119	-0.022171	0.889825
92.647946	298.663629	18.267123	-0.022129	0.886721
92.603137	296.272643	18.272128	-0.022116	0.883687
92.523104	293.847251	18.277133	-0.022095	0.880590
92.313396	291.434143	18.282138	-0.022041	0.877466
92.138319	289.070652	18.287143	-0.021997	0.874404
92.034897	286.655277	18.292147	-0.021970	0.871281
91.854823	284.285176	18.297152	-0.021924	0.868187
91.703300	281.924745	18.302157	-0.021885	0.865101
91.586249	279.529585	18.307162	-0.021854	0.861967
91.428103	277.177885	18.312167	-0.021814	0.858868
91.315935	274.795889	18.317171	-0.021785	0.855730
91.175958	272.430256	18.322176	-0.021749	0.852595
91.039428	270.091015	18.327181	-0.021713	0.849484
90.684202	267.774230	18.332186	-0.021625	0.846337
90.512991	265.478544	18.337191	-0.021581	0.843252
90.304738	263.176396	18.342195	-0.021528	0.840137
90.120876	260.871225	18.347200	-0.021482	0.837013
89.864190	258.631839	18.352205	-0.021417	0.833948
89.562973	256.374699	18.357210	-0.021342	0.830835
89.395247	254.135232	18.362215	-0.021299	0.827769
89.098526	251.931806	18.367219	-0.021225	0.824708
89.046444	249.671706	18.372224	-0.021210	0.821620
88.830787	247.461462	18.377229	-0.021156	0.818547
88.801213	245.211057	18.382234	-0.021147	0.815455
88.603109	242.989204	18.387239	-0.021097	0.812347
88.561038	240.766256	18.392243	-0.021085	0.809267
88.438679	238.540390	18.397248	-0.021053	0.806149
88.420987	236.304655	18.402253	-0.021047	0.803033
88.182554	234.102970	18.407258	-0.020987	0.799895
87.973131	231.911679	18.412263	-0.020934	0.796766
87.805371	229.725420	18.417267	-0.020891	0.793643
87.619086	227.552010	18.422272	-0.020844	0.790521
87.325960	225.409826	18.427277	-0.020771	0.787402
87.058023	223.301556	18.432282	-0.020703	0.784325
86.924720	221.154188	18.437287	-0.020669	0.781218
86.660825	219.037466	18.442291	-0.020603	0.778106
86.648330	216.900962	18.447296	-0.020598	0.775022
86.349270	214.810500	18.452301	-0.020523	0.771913
86.048516	212.739424	18.457306	-0.020448	0.768820
85.927561	210.671449	18.462311	-0.020417	0.765769
85.721783	208.596871	18.467315	-0.020365	0.762672
85.455536	206.568216	18.472320	-0.020298	0.759613
85.301552	204.516166	18.477325	-0.020259	0.756539
85.112974	202.474271	18.482330	-0.020211	0.753457
84.914262	200.470427	18.487335	-0.020161	0.750417
84.633172	198.465530	18.492339	-0.020091	0.747339
84.356605	196.498306	18.497344	-0.020022	0.744306
83.997745	194.555150	18.502349	-0.019933	0.741274
83.612216	192.620851	18.507354	-0.019837	0.738235
83.382599	190.728744	18.512359	-0.019779	0.735292
83.069816	188.823032	18.517363	-0.019701	0.732293
82.783871	186.956976	18.522368	-0.019630	0.729350
82.488818	185.111259	18.527373	-0.019556	0.726424
82.267860	183.255559	18.532378	-0.019501	0.723492
81.872142	181.466313	18.537383	-0.019403	0.720600
81.677281	179.630543	18.542387	-0.019354	0.717684
81.379114	177.863662	18.547392	-0.019279	0.714832
81.327906	176.038958	18.552397	-0.019265	0.711952
80.981109	174.270310	18.557402	-0.019179	0.709060
80.672662	172.542154	18.562407	-0.019102	0.706232
80.501712	170.772691	18.567411	-0.019059	0.703368
80.089525	169.082556	18.572416	-0.018957	0.700546
79.912358	167.346570	18.577421	-0.018912	0.697711
79.654554	165.652768	18.582426	-0.018848	0.694907
79.397741	163.964857	18.587431	-0.018784	0.692102
79.030397	162.320809	18.592435	-0.018693	0.689322
78.809286	160.667697	18.597440	-0.018637	0.686562
78.471830	159.059647	18.602445	-0.018553	0.683828
78.234081	157.438073	18.607450	-0.018494	0.681092
78.033384	155.810933	18.612455	-0.018444	0.678348
77.705770	154.243105	18.617459	-0.018362	0.675650
77.534748	152.631070	18.622464	-0.018319	0.672918
77.275146	151.083728	18.627469	-0.018254	0.670254
77.028902	149.499896	18.632474	-0.018193	0.667523
76.825808	147.959090	18.637479	-0.018142	0.664867
76.673827	146.388448	18.642483	-0.018104	0.662167
76.604929	144.798260	18.647488	-0.018086	0.659449
76.320488	143.279308	18.652493	-0.018015	0.656771
76.004254	141.763158	18.657498	-0.017936	0.654076
75.921607	140.227286	18.662503	-0.017915	0.651413
75.692151	138.706482	18.667507	-0.017857	0.648717
75.331196	137.253421	18.672512	-0.017768	0.646083
75.002918	135.794143	18.677517	-0.017687	0.643438
74.738463	134.340262	18.682522	-0.017621	0.640813
74.553142	132.873920	18.687527	-0.017574	0.638182
74.307176	131.454134	18.692531	-0.017513	0.635602
74.248387	129.973531	18.697536	-0.017497	0.632967
73.999871	128.558815	18.702541	-0.017435	0.630374
73.823606	127.112386	18.707546	-0.017391	0.627738
73.575569	125.727087	18.712551	-0.017329	0.625175
73.249173	124.329303	18.717555	-0.017248	0.622553
72.990698	122.954572	18.722560	-0.017184	0.619984
72.733146	121.588802	18.727565	-0.017120	0.617422
72.517056	120.224807	18.732570	-0.017066	0.614866
72.355706	118.855563	18.737575	-0.017025	0.612310
72.002495	117.537862	18.742579	-0.016938	0.609769
71.695588	116.227036	18.747584	-0.016862	0.607247
71.561223	114.905534	18.752589	-0.016828	0.604756
71.184936	113.620985	18.757594	-0.016735	0.602237
71.104385	112.298418	18.762599	-0.016714	0.599743
70.907090	111.000743	18.767603	-0.016665	0.597243
70.628647	109.728398	18.772608	-0.016596	0.594750
70.549392	108.430537	18.777613	-0.016575	0.592271
70.356022	107.144450	18.782618	-0.016527	0.589763
70.154572	105.878443	18.787623	-0.016477	0.587279
69.824024	104.638828	18.792627	-0.016395	0.584787
69.573037	103.396296	18.797632	-0.016332	0.582308
69.586371	102.110665	18.802637	-0.016334	0.579835
69.245763	100.889469	18.807642	-0.016250	0.577343
68.978166	99.682628	18.812647	-0.016184	0.574895
68.756129	98.469060	18.817651	-0.016128	0.572441
68.677869	97.230932	18.822656	-0.016108	0.569983
68.465003	96.034325	18.827661	-0.016055	0.567545
68.199954	94.848779	18.832666	-0.015989	0.565098
67.970726	93.664257	18.837671	-0.015932	0.562657
67.679712	92.497862	18.842675	-0.015860	0.560217
67.533225	91.313527	18.847680	-0.015823	0.557786
67.235313	90.186524	18.852685	-0.015750	0.555401
66.919531	89.053513	18.857690	-0.015672	0.552987
66.868408	87.889444	18.862695	-0.015658	0.550604
66.680372	86.741581	18.867699	-0.015611	0.548188
66.529833	85.613486	18.872704	-0.015573	0.545818
66.158870	84.513356	18.877709	-0.015482	0.543407
65.861037	83.421615	18.882714	-0.015408	0.541032
65.788831	82.286907	18.887719	-0.015389	0.538647
65.715978	81.177430	18.892723	-0.015371	0.536305
65.662990	80.018308	18.897728	-0.015357	0.533856
65.517628	78.926004	18.902733	-0.015320	0.531499
65.304737	77.808226	18.907738	-0.015267	0.529050
65.054314	76.748221	18.912743	-0.015205	0.526697
64.986099	75.624440	18.917747	-0.015187	0.524273
64.687852	74.566772	18.922752	-0.015113	0.521883
64.479865	73.489566	18.927757	-0.015062	0.519478
64.152219	72.459392	18.932762	-0.014981	0.517114
63.979864	71.401372	18.937767	-0.014938	0.514743
63.926544	70.331115	18.942771	-0.014924	0.512385
63.595052	69.298319	18.947776	-0.014842	0.509980
63.342727	68.291762	18.952781	-0.014779	0.507656
63.095969	67.268932	18.957786	-0.014718	0.505287
62.883562	66.259715	18.962791	-0.014665	0.502952
62.812695	65.215717	18.967795	-0.014647	0.500589
62.323093	64.267308	18.972800	-0.014526	0.498248
62.336042	63.243479	18.977805	-0.014529	0.495946
62.255860	62.212338	18.982810	-0.014508	0.493575
62.166742	61.205304	18.987815	-0.014486	0.491244
61.757043	60.246090	18.992819	-0.014385	0.488868
61.380657	59.330166	18.997824	-0.014292	0.486595
61.375262	58.320582	19.002829	-0.014290	0.484262
61.093274	57.377983	19.007834	-0.014220	0.481949
60.873907	56.426413	19.012839	-0.014165	0.479631
60.695037	55.485254	19.017843	-0.014121	0.477345
60.477308	54.542561	19.022848	-0.014067	0.475027
60.274952	53.622564	19.027853	-0.014016	0.472758
60.217556	52.656582	19.032858	-0.014001	0.470436
60.114605	51.713900	19.037863	-0.013975	0.468137
59.897067	50.796752	19.042867	-0.013921	0.465835
59.753012	49.858178	19.047872	-0.013885	0.463503
59.636492	48.926152	19.052877	-0.013856	0.461189
59.319305	48.025188	19.057882	-0.013778	0.458844
59.196935	47.117124	19.062887	-0.013747	0.456562
58.928103	46.223432	19.067891	-0.013681	0.454234
58.885865	45.305638	19.072896	-0.013669	0.451943
58.854714	44.369464	19.077901	-0.013661	0.449600
58.442659	43.530497	19.082906	-0.013559	0.447303
58.232379	42.647440	19.087911	-0.013507	0.444982
58.026972	41.787230	19.092915	-0.013456	0.442709
57.836057	40.904140	19.097920	-0.013409	0.440372
57.752607	40.031264	19.102925	-0.013388	0.438104
57.456998	39.187766	19.107930	-0.013315	0.435792
57.401488	38.309580	19.112935	-0.013300	0.433500
57.138626	37.481139	19.117939	-0.013235	0.431219
56.940337	36.625324	19.122944	-0.013186	0.428888
56.807047	35.791102	19.127949	-0.013153	0.426634
56.313697	35.007558	19.132954	-0.013031	0.424316
56.325414	34.156344	19.137959	-0.013033	0.422068
56.110819	33.333986	19.142963	-0.012980	0.419767
55.935213	32.526172	19.147968	-0.012937	0.417512
55.710619	31.719379	19.152973	-0.012881	0.415222
55.449638	30.935065	19.157978	-0.012816	0.412961
55.321017	30.129351	19.162983	-0.012784	0.410700
55.234356	29.323396	19.167987	-0.012762	0.408448
54.955935	28.553088	19.172992	-0.012693	0.406179
54.859513	27.756676	19.177997	-0.012669	0.403923
54.608146	26.988478	19.183002	-0.012607	0.401648
54.478885	26.195350	19.188007	-0.012575	0.399358
54.367521	25.425895	19.193011	-0.012547	0.397131
54.136144	24.655066	19.198016	-0.012489	0.394821
53.845277	23.930298	19.203021	-0.012418	0.392595
53.698096	23.163458	19.208026	-0.012381	0.390317
53.427163	22.445191	19.213031	-0.012314	0.388096
53.194436	21.717380	19.218035	-0.012257	0.385856
52.902208	21.005089	19.223040	-0.012184	0.383614
52.818886	20.265313	19.228045	-0.012163	0.381398
52.606216	19.543100	19.233050	-0.012111	0.379146
52.367444	18.848256	19.238055	-0.012052	0.376948
51.899989	18.191538	19.243059	-0.011937	0.374716
51.509271	17.554298	19.248064	-0.011841	0.372575
51.058496	16.932220	19.253069	-0.011730	0.370431
50.775404	16.298386	19.258074	-0.011660	0.368340
50.639930	15.637741	19.263079	-0.011626	0.366242
50.483174	14.978865	19.268083	-0.011587	0.364125
50.143292	14.368638	19.273088	-0.011504	0.362036
50.054256	13.707950	19.278093	-0.011481	0.359930
49.651766	13.129287	19.283098	-0.011382	0.357876
49.202717	12.558166	19.288103	-0.011272	0.355805
48.997603	11.963536	19.293107	-0.011221	0.353800
48.924027	11.337318	19.298112	-0.011203	0.351764
48.701433	10.742836	19.303117	-0.011148	0.349724
48.216182	10.215022	19.308122	-0.011029	0.347721
47.767727	9.685984	19.313127	-0.010918	0.345727
47.599862	9.122818	19.318131	-0.010877	0.343788
47.381746	8.560169	19.323136	-0.010823	0.341808
47.209667	7.997405	19.328141	-0.010780	0.339846
46.851294	7.490447	19.333146	-0.010692	0.337936
46.501578	6.976916	19.338151	-0.010606	0.335999
46.260635	6.458578	19.343155	-0.010547	0.334107
46.152680	5.916145	19.348160	-0.010520	0.332210
45.862549	5.407767	19.353165	-0.010448	0.330296
45.635724	4.907123	19.358170	-0.010392	0.328441
45.431491	4.399655	19.363175	-0.010342	0.326566
45.117923	3.913176	19.368179	-0.010265	0.324679
44.754126	3.456697	19.373184	-0.010175	0.322851
44.487233	2.979446	19.378189	-0.010110	0.321006
44.312627	2.493079	19.383194	-0.010066	0.319183
44.142964	2.017884	19.388199	-0.010024	0.317391
44.052841	1.513368	19.393203	-0.010002	0.315541
43.547767	1.106821	19.398208	-0.009878	0.313739
43.347579	0.653359	19.403213	-0.009829	0.311973
43.081306	0.200021	19.408218	-0.009763	0.310150
42.922252	-0.243151	19.413223	-0.009724	0.308430
42.548039	-0.651881	19.418227	-0.009632	0.306672
42.235044	-1.076627	19.423232	-0.009555	0.304889
41.897359	-1.463276	19.428237	-0.009472	0.303218
41.470108	-1.847172	19.433242	-0.009367	0.301483
41.316003	-2.269445	19.438247	-0.009329	0.299795
41.025380	-2.643903	19.443251	-0.009257	0.298177
40.581954	-3.002624	19.448256	-0.009149	0.296495
40.113548	-3.335734	19.453261	-0.009034	0.294883
37.943238	-3.300991	19.458266	-0.008503	0.293391
34.921367	-2.994390	19.463271	-0.007765	0.292292
33.267547	-2.908712	19.468275	-0.007361	0.291373
32.667381	-2.977961	19.473280	-0.007214	0.290652
31.132713	-2.822378	19.478285	-0.006839	0.290088
29.877322	-2.703334	19.483290	-0.006532	0.289595
29.451351	-2.700259	19.488295	-0.006428	0.289282
28.701732	-2.608067	19.493299	-0.006244	0.289068
28.733588	-2.680006	19.498304	-0.006252	0.288813
28.177111	-2.623943	19.503309	-0.006116	0.288605
27.738294	-2.622552	19.508314	-0.006008	0.288275
27.655451	-2.627944	19.513319	-0.005988	0.288190
27.105321	-2.578018	19.518323	-0.005853	0.287963
27.200801	-2.641786	19.523328	-0.005877	0.287787
26.927314	-2.618724	19.528333	-0.005810	0.287667
26.923855	-2.688562	19.533338	-0.005808	0.287392
27.022688	-2.742630	19.538343	-0.005832	0.287256
26.439866	-2.687009	19.543347	-0.005690	0.287025
26.665145	-2.792909	19.548352	-0.005745	0.286784
26.297183	-2.754751	19.553357	-0.005654	0.286650
25.904169	-2.741532	19.558362	-0.005558	0.286399
26.247431	-2.862982	19.563367	-0.005642	0.286186
25.377194	-2.722584	19.568371	-0.005429	0.286066
25.101495	-2.749822	19.573376	-0.005362	0.285746
25.081297	-2.742998	19.578381	-0.005356	0.285757
24.420381	-2.695129	19.583386	-0.005195	0.285435
24.427436	-2.695035	19.588391	-0.005196	0.285440
24.097187	-2.633244	19.593395	-0.005116	0.285427
23.772400	-2.643266	19.598400	-0.005036	0.285136
23.670529	-2.620795	19.603405	-0.005011	0.285145
23.285175	-2.547241	19.608410	-0.004917	0.285137
23.196779	-2.528636	19.613415	-0.004895	0.285141
22.985245	-2.560882	19.618419	-0.004843	0.284850
22.909179	-2.555664	19.623424	-0.004824	0.284811
23.034433	-2.576754	19.628429	-0.004855	0.284824
22.875959	-2.594392	19.633434	-0.004816	0.284631
22.595284	-2.571243	19.638439	-0.004747	0.284505
22.686264	-2.589213	19.643443	-0.004769	0.284504
22.619412	-2.655500	19.648448	-0.004752	0.284190
22.386622	-2.605896	19.653453	-0.004695	0.284205
22.070009	-2.608181	19.658458	-0.004618	0.283949
22.315539	-2.658790	19.663463	-0.004678	0.283939
21.812951	-2.640210	19.668467	-0.004555	0.283622
21.666510	-2.614311	19.673472	-0.004519	0.283610
21.475461	-2.649595	19.678477	-0.004472	0.283321
21.068531	-2.577432	19.683482	-0.004372	0.283290
20.942607	-2.599993	19.688487	-0.004341	0.283102
20.315462	-2.507425	19.693491	-0.004188	0.282980
20.456706	-2.538180	19.698496	-0.004222	0.282968
20.598486	-2.583376	19.703501	-0.004256	0.282898
20.001176	-2.521419	19.708506	-0.004110	0.282678
20.253109	-2.570489	19.713511	-0.004172	0.282679
19.797249	-2.550411	19.718515	-0.004060	0.282403
19.705329	-2.546177	19.723520	-0.004038	0.282347
20.037705	-2.643584	19.728525	-0.004118	0.282219
19.711335	-2.625811	19.733530	-0.004039	0.282034
19.825946	-2.702548	19.738535	-0.004066	0.281818
19.369861	-2.635552	19.743539	-0.003955	0.281727
19.246068	-2.688850	19.748544	-0.003924	0.281417
18.810753	-2.605688	19.753549	-0.003818	0.281407
17.924649	-2.511200	19.758554	-0.003601	0.281089
17.988962	-2.523912	19.763559	-0.003617	0.281089
17.572228	-2.440445	19.768563	-0.003515	0.281094
17.244542	-2.379298	19.773568	-0.003434	0.281081
17.035271	-2.334086	19.778573	-0.003383	0.281097
16.979430	-2.324401	19.783578	-0.003369	0.281091
17.036497	-2.373118	19.788583	-0.003383	0.280941
16.595889	-2.326463	19.793587	-0.003275	0.280781
17.036322	-2.415818	19.798592	-0.003383	0.280769
17.313151	-2.475193	19.803597	-0.003450	0.280748
17.067937	-2.499538	19.808602	-0.003390	0.280458
17.414203	-2.601659	19.813607	-0.003474	0.280320
16.969929	-2.552493	19.818611	-0.003366	0.280167
16.966853	-2.633105	19.823616	-0.003365	0.279841
17.003609	-2.682150	19.828621	-0.003373	0.279673
16.393742	-2.611052	19.833626	-0.003224	0.279477
16.391252	-2.676006	19.838631	-0.003223	0.279213
16.110278	-2.654660	19.843635	-0.003154	0.279077
15.608904	-2.579214	19.848640	-0.003032	0.278984
15.293087	-2.595237	19.853645	-0.002954	0.278669
14.774265	-2.497131	19.858650	-0.002828	0.278653
14.464676	-2.437221	19.863655	-0.002752	0.278649
14.213394	-2.464565	19.868659	-0.002690	0.278339
13.974254	-2.420330	19.873664	-0.002632	0.278327
13.735990	-2.370644	19.878669	-0.002573	0.278338
13.658868	-2.357126	19.883674	-0.002554	0.278331
13.909135	-2.426821	19.888679	-0.002615	0.278248
13.181087	-2.340672	19.893683	-0.002437	0.278018
13.125917	-2.333442	19.898688	-0.002423	0.278002
13.216972	-2.347436	19.903693	-0.002445	0.278018
12.944528	-2.295418	19.908698	-0.002379	0.278011
13.013982	-2.382919	19.913703	-0.002395	0.277712
12.892615	-2.356920	19.918707	-0.002366	0.277720
12.841467	-2.386440	19.923712	-0.002353	0.277560
12.607332	-2.381018	19.928717	-0.002296	0.277395
12.769756	-2.439812	19.933722	-0.002335	0.277286
12.497752	-2.439324	19.938727	-0.002268	0.277071
12.483824	-2.474713	19.943731	-0.002265	0.276915
12.113755	-2.440597	19.948736	-0.002174	0.276758
12.548022	-2.577156	19.953741	-0.002280	0.276550
12.139395	-2.543078	19.958746	-0.002180	0.276362
11.913698	-2.556343	19.963751	-0.002125	0.276127
11.915729	-2.621605	19.968755	-0.002125	0.275863
11.665812	-2.615266	19.973760	-0.002064	0.275688
11.223826	-2.574454	19.978765	-0.001955	0.275500
10.866866	-2.567612	19.983770	-0.001868	0.275242
10.201702	-2.448169	19.988775	-0.001705	0.275195
10.134638	-2.438841	19.993779	-0.001689	0.275179
9.936760	-2.476850	19.998784	-0.001640	0.274865
9.568954	-2.400557	20.003789	-0.001550	0.274881
8.931880	-2.276389	20.008794	-0.001394	0.274876
9.393508	-2.377829	20.013799	-0.001507	0.274831
8.796507	-2.324578	20.018803	-0.001361	0.274569
8.262390	-2.223211	20.023808	-0.001230	0.274554
8.348141	-2.236738	20.028813	-0.001251	0.274567
8.649785	-2.297304	20.033818	-0.001325	0.274561
8.945300	-2.356022	20.038823	-0.001397	0.274558
8.494791	-2.340145	20.043827	-0.001286	0.274260
8.502977	-2.345318	20.048832	-0.001288	0.274245
8.539055	-2.391161	20.053837	-0.001297	0.274086
8.293089	-2.359248	20.058842	-0.001236	0.274018
8.394848	-2.452214	20.063847	-0.001261	0.273718
8.190563	-2.437060	20.068851	-0.001211	0.273615
7.830494	-2.428787	20.073856	-0.001123	0.273358
8.235148	-2.554943	20.078861	-0.001221	0.273166
7.978922	-2.555479	20.083866	-0.001159	0.272956
7.563024	-2.524348	20.088871	-0.001057	0.272747
7.503018	-2.587992	20.093875	-0.001042	0.272436
7.225819	-2.571455	20.098880	-0.000974	0.272279
6.636373	-2.495282	20.103885	-0.000830	0.272115
6.336344	-2.495998	20.108890	-0.000756	0.271868
5.700296	-2.389426	20.113895	-0.000601	0.271792
5.792652	-2.404558	20.118899	-0.000623	0.271804
5.725510	-2.454067	20.123904	-0.000607	0.271544
5.113474	-2.346213	20.128909	-0.000457	0.271492
4.716937	-2.268501	20.133914	-0.000360	0.271491
4.823697	-2.289257	20.138919	-0.000386	0.271491
4.705821	-2.297621	20.143923	-0.000357	0.271360
3.690494	-2.148021	20.148928	-0.000109	0.271153
3.911408	-2.188481	20.153933	-0.000162	0.271164
3.770573	-2.161079	20.158938	-0.000128	0.271163
3.915154	-2.191694	20.163943	-0.000163	0.271153
4.160326	-2.236571	20.168947	-0.000223	0.271166
4.227904	-2.302131	20.173952	-0.000239	0.270949
3.930936	-2.269328	20.178957	-0.000166	0.270842
4.204200	-2.371974	20.183962	-0.000233	0.270639
4.250666	-2.420678	20.188967	-0.000244	0.270474
3.972185	-2.422755	20.193971	-0.000175	0.270238
3.902368	-2.473845	20.198976	-0.000158	0.269968
3.997411	-2.537014	20.203981	-0.000181	0.269782
3.628787	-2.531188	20.208986	-0.000091	0.269504
3.374383	-2.534446	20.213991	-0.000029	0.269282
3.073594	-2.529097	20.218995	0.000045	0.269057
2.875991	-2.530992	20.224000	0.000094	0.268886
2.314190	-2.460877	20.229005	0.000231	0.268717
