Sun Feb 26 13:15:21 2017

Number of Points = 3582
Depth (nm)	Load (µN)	Time (s)	Depth (V)	Load (V)
1.867215	0.073479	0.000000	0.000030	0.289658

2.079604	0.002168	0.005005	-0.000022	0.289544
2.032858	-0.009939	0.010010	-0.000011	0.289461
2.022476	-0.007712	0.015014	-0.000008	0.289463
1.957245	0.006855	0.020019	0.000007	0.289470
1.773186	0.040031	0.025024	0.000052	0.289459
1.764495	0.044201	0.030029	0.000054	0.289469
1.681660	0.040469	0.035034	0.000074	0.289392
1.501957	0.015833	0.040038	0.000118	0.289160
1.494091	0.017751	0.045043	0.000120	0.289162
1.430522	0.026951	0.050048	0.000135	0.289150
1.428013	0.030010	0.055053	0.000136	0.289160
1.444802	-0.002568	0.060058	0.000131	0.289047
1.524452	-0.045617	0.065062	0.000112	0.288941
1.595669	-0.058494	0.070067	0.000094	0.288946
1.494963	-0.127008	0.075072	0.000119	0.288603
1.694508	-0.166730	0.080077	0.000070	0.288601
1.591888	-0.228407	0.085082	0.000095	0.288284
1.760229	-0.299034	0.090086	0.000054	0.288138
1.833346	-0.361081	0.095091	0.000036	0.287953
1.853053	-0.439735	0.100096	0.000031	0.287661
1.864221	-0.511759	0.105101	0.000028	0.287389
1.754535	-0.561783	0.110106	0.000055	0.287110
1.661965	-0.612729	0.115110	0.000077	0.286841
1.753584	-0.698852	0.120115	0.000055	0.286574
1.721783	-0.772386	0.125120	0.000062	0.286262
1.774030	-0.863407	0.130125	0.000049	0.285946
1.635579	-0.921123	0.135130	0.000083	0.285613
1.734980	-1.025345	0.140134	0.000059	0.285281
1.764878	-1.119105	0.145139	0.000051	0.284935
1.710541	-1.204457	0.150144	0.000065	0.284558
1.845381	-1.332175	0.155149	0.000032	0.284159
1.747780	-1.398053	0.160154	0.000055	0.283823
1.847430	-1.524643	0.165158	0.000031	0.283400
1.788930	-1.632912	0.170163	0.000045	0.282926
1.756199	-1.733490	0.175168	0.000053	0.282502
1.698220	-1.838254	0.180173	0.000067	0.282041
1.621296	-1.937079	0.185178	0.000086	0.281588
1.657592	-2.063860	0.190182	0.000077	0.281111
1.603845	-2.173616	0.195187	0.000090	0.280631
1.279384	-2.229580	0.200192	0.000169	0.280152
1.196190	-2.325436	0.205197	0.000189	0.279703
0.883478	-2.368020	0.210202	0.000266	0.279286
0.225734	-2.328011	0.215206	0.000426	0.278928
-0.796244	-2.191866	0.220211	0.000676	0.278669
-2.037076	-2.024992	0.225216	0.000979	0.278359
-2.231511	-1.989396	0.230221	0.001026	0.278349
-2.155785	-2.007207	0.235226	0.001007	0.278338
-1.935073	-2.066511	0.240230	0.000953	0.278274
-2.229222	-2.069636	0.245235	0.001025	0.278029
-2.167314	-2.084343	0.250240	0.001010	0.278019
-2.435585	-2.056774	0.255245	0.001075	0.277918
-3.222645	-1.950903	0.260250	0.001267	0.277722
-3.004926	-1.994683	0.265254	0.001214	0.277718
-2.732809	-2.045870	0.270259	0.001147	0.277728
-2.216545	-2.176449	0.275264	0.001021	0.277611
-2.393724	-2.193953	0.280269	0.001064	0.277400
-2.655967	-2.183027	0.285274	0.001128	0.277236
-3.030584	-2.148369	0.290278	0.001220	0.277079
-3.049114	-2.145479	0.295283	0.001224	0.277076
-3.207956	-2.191730	0.300288	0.001263	0.276763
-3.282852	-2.173835	0.305293	0.001281	0.276776
-3.587602	-2.139640	0.310298	0.001355	0.276672
-4.459143	-2.020018	0.315302	0.001568	0.276464
-4.886821	-1.898188	0.320307	0.001672	0.276618
-5.114590	-1.818202	0.325312	0.001727	0.276761
-5.011272	-1.835864	0.330317	0.001702	0.276772
-4.958168	-1.848287	0.335322	0.001689	0.276765
-4.721019	-1.895555	0.340326	0.001631	0.276762
-4.729559	-1.891855	0.345331	0.001633	0.276771
-4.434914	-1.952602	0.350336	0.001561	0.276760
-4.098928	-2.071870	0.355341	0.001479	0.276544
-4.320387	-2.047938	0.360346	0.001533	0.276465
-4.038354	-2.156124	0.365350	0.001464	0.276251
-3.936530	-2.203530	0.370355	0.001439	0.276141
-4.028408	-2.266043	0.375360	0.001461	0.275814
-4.263821	-2.260948	0.380365	0.001518	0.275647
-5.336641	-2.085320	0.385370	0.001780	0.275504
-5.333695	-2.087124	0.390374	0.001779	0.275499
-5.164048	-2.140572	0.395379	0.001738	0.275418
-5.351833	-2.158292	0.400384	0.001783	0.275196
-5.063885	-2.212380	0.405389	0.001713	0.275206
-5.265161	-2.242099	0.410394	0.001762	0.274924
-5.768126	-2.155439	0.415398	0.001885	0.274875
-6.239223	-2.060767	0.420403	0.002000	0.274884
-6.854979	-1.943469	0.425408	0.002150	0.274870
-7.744692	-1.765689	0.430413	0.002367	0.274883
-8.108725	-1.654421	0.435418	0.002456	0.275045
-7.594747	-1.717000	0.440422	0.002330	0.275202
-7.797557	-1.675607	0.445427	0.002379	0.275209
-7.917432	-1.593511	0.450432	0.002408	0.275448
-7.313675	-1.696619	0.455437	0.002261	0.275512
-6.528547	-1.853448	0.460442	0.002069	0.275502
-5.742944	-2.071069	0.465446	0.001877	0.275245
-4.982675	-2.272610	0.470451	0.001691	0.275032
-4.980242	-2.366942	0.475456	0.001691	0.274649
-4.834197	-2.479032	0.480461	0.001655	0.274309
-5.106413	-2.507603	0.485466	0.001721	0.273974
-5.728663	-2.469341	0.490470	0.001873	0.273630
-6.413453	-2.395543	0.495475	0.002040	0.273381
-7.313677	-2.279243	0.500480	0.002260	0.273133
-8.470308	-2.070070	0.505485	0.002542	0.273059
-9.251936	-1.874520	0.510490	0.002733	0.273232
-8.785803	-1.931954	0.515494	0.002619	0.273373
-9.373159	-1.814425	0.520499	0.002762	0.273382
-10.177272	-1.614578	0.525504	0.002958	0.273554
-9.980975	-1.617897	0.530509	0.002910	0.273699
-9.919030	-1.552540	0.535514	0.002895	0.274018
-9.610359	-1.612148	0.540518	0.002819	0.274022
-9.772609	-1.553669	0.545523	0.002859	0.274132
-9.007953	-1.675305	0.550528	0.002672	0.274249
-8.345195	-1.830381	0.555533	0.002510	0.274148
-8.167680	-1.894167	0.560538	0.002467	0.274030
-7.379345	-2.104371	0.565542	0.002274	0.273804
-7.009193	-2.241925	0.570547	0.002183	0.273539
-6.834014	-2.372492	0.575552	0.002141	0.273144
-6.618392	-2.505623	0.580557	0.002088	0.272772
-7.034187	-2.529592	0.585562	0.002189	0.272337
-7.714120	-2.479771	0.590566	0.002355	0.271992
-8.899117	-2.292233	0.595571	0.002644	0.271806
-9.790888	-2.154390	0.600576	0.002862	0.271652
-11.039671	-1.881745	0.605581	0.003167	0.271765
-11.870746	-1.709959	0.610586	0.003370	0.271801
-12.369302	-1.542462	0.615590	0.003491	0.272088
-12.551487	-1.440802	0.620595	0.003536	0.272360
-12.285522	-1.437072	0.625600	0.003470	0.272591
-11.691844	-1.514017	0.630605	0.003325	0.272755
-11.505790	-1.504840	0.635610	0.003280	0.272944
-10.220297	-1.767278	0.640614	0.002966	0.272904
-9.896502	-1.866005	0.645619	0.002886	0.272760
-9.227122	-2.034170	0.650624	0.002723	0.272609
-9.016363	-2.141592	0.655629	0.002671	0.272338
-9.285963	-2.156733	0.660634	0.002737	0.272058
-9.258118	-2.235848	0.665638	0.002730	0.271754
-9.492562	-2.248384	0.670643	0.002787	0.271513
-10.149435	-2.203694	0.675648	0.002948	0.271164
-10.643958	-2.126191	0.680653	0.003068	0.271083
-11.322815	-2.048317	0.685658	0.003234	0.270854
-11.100904	-2.093441	0.690662	0.003179	0.270848
-11.681174	-1.977047	0.695667	0.003321	0.270858
-12.615896	-1.796908	0.700672	0.003549	0.270844
-13.126897	-1.693225	0.705677	0.003674	0.270858
-13.632786	-1.563874	0.710682	0.003797	0.270983
-13.413316	-1.562965	0.715686	0.003743	0.271166
-13.812048	-1.444311	0.720691	0.003841	0.271333
-13.225472	-1.520392	0.725696	0.003697	0.271495
-12.512000	-1.658319	0.730701	0.003523	0.271505
-11.977338	-1.764865	0.735706	0.003392	0.271500
-11.409549	-1.944698	0.740710	0.003253	0.271218
-11.017915	-2.056064	0.745715	0.003158	0.271076
-10.828936	-2.179561	0.750720	0.003111	0.270718
-10.546082	-2.311754	0.755725	0.003042	0.270401
-11.049445	-2.294724	0.760730	0.003165	0.270061
-11.459185	-2.288749	0.765734	0.003265	0.269752
-12.201101	-2.178616	0.770739	0.003446	0.269604
-12.966061	-2.100611	0.775744	0.003633	0.269303
-13.756320	-1.947480	0.780749	0.003826	0.269295
-14.469915	-1.808436	0.785754	0.004000	0.269291
-14.671085	-1.706849	0.790758	0.004049	0.269550
-14.866858	-1.654606	0.795763	0.004096	0.269608
-15.200695	-1.582628	0.800768	0.004178	0.269635
-14.873670	-1.579695	0.805773	0.004098	0.269915
-14.801331	-1.594089	0.810778	0.004080	0.269914
-14.297140	-1.694107	0.815782	0.003956	0.269911
-14.015398	-1.747986	0.820787	0.003888	0.269918
-13.824530	-1.791182	0.825792	0.003841	0.269894
-13.739613	-1.877890	0.830797	0.003820	0.269604
-13.818309	-1.862892	0.835802	0.003839	0.269602
-14.000119	-1.885647	0.840806	0.003883	0.269359
-14.450265	-1.812101	0.845811	0.003993	0.269297
-14.472352	-1.811082	0.850816	0.003998	0.269284
-13.990168	-1.936209	0.855821	0.003880	0.269158
-14.189021	-1.919068	0.860826	0.003929	0.269067
-13.850856	-2.048702	0.865830	0.003846	0.268804
-13.820392	-2.092230	0.870835	0.003839	0.268647
-14.128923	-2.090642	0.875840	0.003914	0.268401
-14.245489	-2.131489	0.880845	0.003942	0.268135
-14.854793	-2.022845	0.885850	0.004091	0.268089
-14.808917	-2.102911	0.890854	0.004080	0.267792
-15.205846	-2.024049	0.895859	0.004176	0.267796
-15.895200	-1.891845	0.900864	0.004345	0.267783
-16.550778	-1.775018	0.905869	0.004504	0.267733
-16.807495	-1.710379	0.910874	0.004567	0.267793
-17.371417	-1.600430	0.915878	0.004705	0.267790
-17.446422	-1.562965	0.920883	0.004723	0.267886
-17.249544	-1.554100	0.925888	0.004674	0.268085
-17.332188	-1.535677	0.930893	0.004694	0.268095
-17.501777	-1.502523	0.935898	0.004736	0.268095
-17.157659	-1.572969	0.940902	0.004652	0.268083
-16.665514	-1.643163	0.945907	0.004531	0.268195
-16.569047	-1.688456	0.950912	0.004508	0.268085
-15.796657	-1.838539	0.955917	0.004319	0.268093
-15.676880	-1.933023	0.960922	0.004289	0.267796
-15.343089	-2.053254	0.965926	0.004208	0.267567
-15.643537	-2.053086	0.970931	0.004281	0.267321
-15.850607	-2.078103	0.975936	0.004332	0.267045
-15.929568	-2.112930	0.980941	0.004351	0.266834
-16.354514	-2.100362	0.985946	0.004454	0.266536
-16.690407	-2.065257	0.990950	0.004536	0.266406
-17.617749	-1.929120	0.995955	0.004763	0.266212
-18.299404	-1.797719	1.000960	0.004929	0.266202

-19.053656	-1.584939	1.010957	0.005113	0.266475
-18.994104	-1.521938	1.020954	0.005098	0.266791
-18.350599	-1.597151	1.030950	0.004940	0.267007
-17.778748	-1.675533	1.040947	0.004800	0.267151
-17.418426	-1.751780	1.050944	0.004712	0.267129
-17.265171	-1.852187	1.060941	0.004674	0.266835
-17.027715	-1.898335	1.070938	0.004616	0.266838
-17.023732	-1.958875	1.080934	0.004615	0.266587
-17.276600	-1.922916	1.090931	0.004676	0.266531
-17.624822	-1.854859	1.100928	0.004761	0.266530
-18.379145	-1.688787	1.110925	0.004945	0.266606
-18.541531	-1.580663	1.120922	0.004984	0.266928
-18.284296	-1.566160	1.130918	0.004921	0.267202
-17.575230	-1.643328	1.140915	0.004748	0.267464
-16.962301	-1.765277	1.150912	0.004598	0.267459
-16.460099	-1.900290	1.160909	0.004475	0.267307
-16.437601	-1.942818	1.170906	0.004469	0.267148
-16.689748	-1.964903	1.180902	0.004530	0.266848
-17.122467	-1.882810	1.190899	0.004636	0.266837
-17.676187	-1.738606	1.200896	0.004771	0.266987
-18.137237	-1.587864	1.210893	0.004883	0.267240
-17.704674	-1.608844	1.220890	0.004777	0.267510
-16.706152	-1.739583	1.230886	0.004533	0.267786
-16.596983	-1.837700	1.240883	0.004506	0.267465
-16.360566	-1.885117	1.250880	0.004448	0.267462
-16.139748	-1.928933	1.260877	0.004394	0.267462
-16.675220	-1.863359	1.270874	0.004524	0.267296
-16.610828	-1.836294	1.280870	0.004508	0.267464
-16.826855	-1.794989	1.290867	0.004561	0.267460
-17.233949	-1.714588	1.300864	0.004660	0.267463
-16.976779	-1.688026	1.310861	0.004597	0.267787
-16.534776	-1.773936	1.320858	0.004488	0.267792
-16.022587	-1.874872	1.330854	0.004363	0.267792
-16.381782	-1.805072	1.340851	0.004450	0.267790
-16.323191	-1.818315	1.350848	0.004436	0.267783
-16.256594	-1.831383	1.360845	0.004419	0.267784
-16.612561	-1.759336	1.370842	0.004506	0.267794
-16.787703	-1.654703	1.380838	0.004548	0.268089
-16.459402	-1.693224	1.390835	0.004468	0.268199
-15.777646	-1.846382	1.400832	0.004301	0.268120
-15.757172	-1.858030	1.410829	0.004296	0.268089
-15.281439	-1.951676	1.420826	0.004179	0.268089
-15.420425	-1.962881	1.430822	0.004213	0.267929
-16.093288	-1.847998	1.440819	0.004377	0.267857
-16.392505	-1.734767	1.450816	0.004450	0.268086
-16.698149	-1.624729	1.460813	0.004524	0.268296
-16.591811	-1.575354	1.470810	0.004498	0.268591
-15.985316	-1.661310	1.480806	0.004349	0.268731
-15.235736	-1.808591	1.490803	0.004166	0.268732
-14.643846	-1.940179	1.500800	0.004021	0.268669
-14.989532	-1.935062	1.510797	0.004105	0.268408
-15.008227	-1.930631	1.520794	0.004110	0.268412
-15.417153	-1.849908	1.530790	0.004209	0.268414
-15.926482	-1.749960	1.540787	0.004333	0.268415
-15.929605	-1.705416	1.550784	0.004334	0.268599
-15.599033	-1.739776	1.560781	0.004253	0.268728
-15.629304	-1.713436	1.570778	0.004260	0.268814
-15.038436	-1.769715	1.580774	0.004115	0.269065
-14.928874	-1.791111	1.590771	0.004088	0.269067
-14.767805	-1.886790	1.600768	0.004048	0.268800
-14.897897	-1.878091	1.610765	0.004080	0.268731
-15.093590	-1.839899	1.620762	0.004127	0.268731
-15.000257	-1.778392	1.630758	0.004104	0.269065
-15.012875	-1.776291	1.640755	0.004107	0.269065
-15.151366	-1.749723	1.650752	0.004141	0.269063
-15.081177	-1.739466	1.660749	0.004123	0.269164
-14.578408	-1.807806	1.670746	0.004000	0.269292
-14.597154	-1.803980	1.680742	0.004004	0.269294
-14.294721	-1.900972	1.690739	0.003930	0.269138
-14.401032	-1.899173	1.700736	0.003956	0.269059
-14.408232	-1.896769	1.710733	0.003957	0.269065
-14.767558	-1.806789	1.720730	0.004045	0.269146
-14.408082	-1.842260	1.730726	0.003957	0.269294
-14.762559	-1.772718	1.740723	0.004043	0.269294
-14.815172	-1.739347	1.750720	0.004055	0.269391
-14.173290	-1.815945	1.760717	0.003898	0.269599
-14.114049	-1.826927	1.770714	0.003884	0.269602
-14.425521	-1.765977	1.780710	0.003959	0.269602
-14.298241	-1.791900	1.790707	0.003928	0.269600
-14.122283	-1.827256	1.800704	0.003885	0.269597
-13.850777	-1.880317	1.810701	0.003818	0.269600
-13.592025	-1.930820	1.820698	0.003755	0.269602
-13.482611	-1.952172	1.830694	0.003728	0.269604
-14.060205	-1.839255	1.840691	0.003868	0.269602
-14.393432	-1.774557	1.850688	0.003949	0.269600
-14.341752	-1.710073	1.860685	0.003936	0.269911
-14.178363	-1.731641	1.870682	0.003896	0.269956
-13.666375	-1.764511	1.880678	0.003771	0.270239
-13.213562	-1.868861	1.890675	0.003660	0.270176
-13.373604	-1.900931	1.900672	0.003699	0.269913
-13.414252	-1.893496	1.910669	0.003708	0.269911
-13.189874	-1.937808	1.920666	0.003653	0.269912
-13.229499	-1.929292	1.930662	0.003663	0.269916
-13.624924	-1.852303	1.940659	0.003759	0.269914
-13.473323	-1.837375	1.950656	0.003722	0.270100
-13.050071	-1.915144	1.960653	0.003618	0.270124
-13.598983	-1.787724	1.970650	0.003752	0.270206
-13.629230	-1.773858	1.980646	0.003759	0.270240
-13.619997	-1.724684	1.990643	0.003756	0.270453
-13.087730	-1.810069	2.000640	0.003626	0.270533
-12.923002	-1.842871	2.010637	0.003585	0.270533
-12.544719	-1.916899	2.020634	0.003493	0.270535
-12.512558	-1.950692	2.030630	0.003485	0.270422
-13.036315	-1.868652	2.040627	0.003612	0.270336
-13.097136	-1.808614	2.050624	0.003627	0.270537
-12.980597	-1.831910	2.060621	0.003598	0.270536
-12.997387	-1.820056	2.070618	0.003602	0.270573
-12.808618	-1.789797	2.080614	0.003555	0.270853
-12.958120	-1.761009	2.090611	0.003592	0.270851
-12.571391	-1.837454	2.100608	0.003497	0.270850
-12.654827	-1.821619	2.110605	0.003517	0.270849
-12.369611	-1.853909	2.120602	0.003447	0.270948
-12.343816	-1.882599	2.130598	0.003440	0.270852
-11.930214	-1.963820	2.140595	0.003339	0.270853
-12.244484	-1.903011	2.150592	0.003416	0.270850
-12.330272	-1.886157	2.160589	0.003436	0.270851
-12.681774	-1.778009	2.170586	0.003522	0.271014
-12.855769	-1.706059	2.180582	0.003564	0.271171
-12.723447	-1.658114	2.190579	0.003531	0.271478
-12.051446	-1.784832	2.200576	0.003367	0.271501
-11.565977	-1.880899	2.210573	0.003248	0.271499
-11.186285	-1.981018	2.220570	0.003155	0.271394
-10.881448	-2.097845	2.230566	0.003080	0.271160
-11.115598	-2.126364	2.240563	0.003137	0.270852
-12.068801	-1.940077	2.250560	0.003370	0.270849
-12.692445	-1.773410	2.260557	0.003522	0.271033
-12.887466	-1.659924	2.270554	0.003569	0.271345
-12.868727	-1.579803	2.280550	0.003564	0.271692
-12.435924	-1.580490	2.290547	0.003458	0.272042
-11.391265	-1.769155	2.300544	0.003203	0.272111
-10.638234	-1.927413	2.310541	0.003018	0.272069
-10.288151	-2.068213	2.320538	0.002933	0.271773
-10.226434	-2.148933	2.330534	0.002917	0.271491
-10.957033	-2.083018	2.340531	0.003096	0.271171
-11.794963	-1.892765	2.350528	0.003300	0.271278
-11.864368	-1.826674	2.360525	0.003316	0.271496
-12.018654	-1.743977	2.370522	0.003354	0.271713
-12.037104	-1.693489	2.380518	0.003358	0.271908
-11.622482	-1.725151	2.390515	0.003256	0.272114
-11.248237	-1.746674	2.400512	0.003165	0.272329
-10.846688	-1.803118	2.410509	0.003066	0.272423
-10.694416	-1.888577	2.420506	0.003029	0.272195
-10.377706	-1.970180	2.430502	0.002951	0.272116
-10.032568	-2.046073	2.440499	0.002867	0.272084
-10.313948	-2.060118	2.450496	0.002935	0.271798
-10.847739	-1.956463	2.460493	0.003065	0.271794
-11.275827	-1.840596	2.470490	0.003169	0.271927
-11.354097	-1.780372	2.480486	0.003188	0.272113
-11.319019	-1.719503	2.490483	0.003179	0.272393
-10.677573	-1.837882	2.500480	0.003022	0.272425
-10.232050	-1.925510	2.510477	0.002913	0.272426
-10.410017	-1.890540	2.520474	0.002956	0.272427
-10.431122	-1.885830	2.530470	0.002961	0.272430
-10.733480	-1.807444	2.540467	0.003035	0.272509
-10.756037	-1.743751	2.550464	0.003040	0.272754
-10.573865	-1.780121	2.560461	0.002995	0.272753
-9.856138	-1.906783	2.570458	0.002820	0.272813
-9.615696	-1.967685	2.580454	0.002761	0.272758
-9.368303	-2.040972	2.590451	0.002700	0.272657
-9.671481	-2.037994	2.600448	0.002774	0.272425
-10.321836	-1.910982	2.610445	0.002932	0.272423
-10.709900	-1.766780	2.620442	0.003027	0.272704
-10.769347	-1.706895	2.630438	0.003041	0.272903
-10.099473	-1.801691	2.640435	0.002877	0.273055
-9.860295	-1.849038	2.650432	0.002818	0.273055
-9.765435	-1.868036	2.660429	0.002795	0.273054
-9.542724	-1.911231	2.670426	0.002740	0.273058
-9.399899	-1.939187	2.680422	0.002705	0.273059
-9.371172	-1.944888	2.690419	0.002698	0.273060
-9.275790	-1.965177	2.700416	0.002674	0.273054
-9.528041	-1.915861	2.710413	0.002735	0.273054
-9.708655	-1.880343	2.720410	0.002779	0.273055
-9.644883	-1.855751	2.730406	0.002763	0.273209
-9.241097	-1.893933	2.740403	0.002664	0.273379
-9.037129	-1.955751	2.750400	0.002614	0.273291
-9.154026	-1.990217	2.760397	0.002643	0.273056
-9.133751	-1.993797	2.770394	0.002637	0.273058
-9.394581	-1.893559	2.780390	0.002701	0.273261
-9.690215	-1.807433	2.790387	0.002773	0.273377
-9.662715	-1.760789	2.800384	0.002765	0.273591
-9.231473	-1.820818	2.810381	0.002660	0.273694
-8.793441	-1.906860	2.820378	0.002553	0.273695
-8.592886	-1.945756	2.830374	0.002503	0.273698
-8.063904	-2.074234	2.840371	0.002374	0.273598
-8.532059	-2.037258	2.850368	0.002488	0.273373
-8.873950	-1.970669	2.860365	0.002571	0.273372
-9.088927	-1.894850	2.870362	0.002623	0.273511
-9.299344	-1.808481	2.880358	0.002674	0.273696
-9.215641	-1.762307	2.890355	0.002654	0.273954
-8.855691	-1.815512	2.900352	0.002565	0.274027
-7.968025	-1.990776	2.910349	0.002348	0.274024
-7.782951	-2.052948	2.920346	0.002303	0.273919
-8.435498	-1.979669	2.930342	0.002462	0.273695
-8.225364	-2.021686	2.940339	0.002410	0.273693
-8.508126	-1.903023	2.950336	0.002479	0.273953
-8.735649	-1.840718	2.960333	0.002534	0.274026
-8.780167	-1.801004	2.970330	0.002545	0.274154
-8.242353	-1.881199	2.980326	0.002413	0.274259
-8.548263	-1.821720	2.990323	0.002488	0.274257
-8.082835	-1.867902	3.000320	0.002374	0.274443
-7.799066	-1.969673	3.010317	0.002304	0.274256
-7.565454	-2.015544	3.020314	0.002247	0.274257
-7.190583	-2.088922	3.030310	0.002155	0.274259
-7.426726	-2.088522	3.040307	0.002212	0.274072
-7.752766	-2.035407	3.050304	0.002292	0.274028
-8.287540	-1.896546	3.060301	0.002422	0.274167
-8.508688	-1.828594	3.070298	0.002476	0.274269
-8.796683	-1.689944	3.080294	0.002546	0.274605
-8.332303	-1.714135	3.090291	0.002432	0.274880
-7.721496	-1.777753	3.100288	0.002282	0.275111
-7.160749	-1.901517	3.110285	0.002145	0.275057
-6.871806	-2.002210	3.120282	0.002074	0.274878
-6.688795	-2.048269	3.130278	0.002029	0.274838
-6.731934	-2.105762	3.140275	0.002040	0.274569
-7.341416	-1.986469	3.150272	0.002188	0.274569
-7.438300	-1.968127	3.160269	0.002211	0.274567
-7.863066	-1.835033	3.170266	0.002315	0.274771
-7.819799	-1.812154	3.180262	0.002304	0.274900
-7.440541	-1.812117	3.190259	0.002211	0.275205
-7.324475	-1.835750	3.200256	0.002182	0.275202
-7.135092	-1.873672	3.210253	0.002136	0.275200
-6.843655	-1.895138	3.220250	0.002064	0.275347
-6.617057	-1.975035	3.230246	0.002009	0.275204
-6.765933	-1.946179	3.240243	0.002045	0.275203
-6.677502	-1.963861	3.250240	0.002023	0.275203
-6.928111	-1.915585	3.260237	0.002084	0.275200
-6.864489	-1.864550	3.270234	0.002068	0.275460
-6.486955	-1.927655	3.280230	0.001975	0.275506
-6.366984	-1.964760	3.290227	0.001946	0.275452
-6.538454	-1.932761	3.300224	0.001987	0.275446
-6.596132	-1.907846	3.310221	0.002001	0.275502
-6.536193	-1.918842	3.320218	0.001986	0.275506
-6.523745	-1.921654	3.330214	0.001983	0.275506
-6.580295	-1.910701	3.340211	0.001996	0.275506
-6.489675	-1.906098	3.350208	0.001974	0.275599
-6.394233	-1.871190	3.360205	0.001950	0.275818
-6.116937	-1.925350	3.370202	0.001882	0.275820
-6.093348	-1.929655	3.380198	0.001876	0.275822
-5.899731	-1.968360	3.390195	0.001829	0.275821
-5.803860	-1.987485	3.400192	0.001805	0.275820
-5.946705	-1.994064	3.410189	0.001840	0.275680
-6.162213	-1.917721	3.420186	0.001892	0.275820
-6.077245	-1.934232	3.430182	0.001871	0.275822
-6.140877	-1.921019	3.440179	0.001886	0.275825
-6.135260	-1.869492	3.450176	0.001884	0.276040
-6.214268	-1.830440	3.460173	0.001903	0.276137
-5.924130	-1.885948	3.470170	0.001832	0.276144
-5.619983	-1.886735	3.480166	0.001758	0.276384
-5.498426	-1.923121	3.490163	0.001728	0.276335
-5.365540	-1.995404	3.500160	0.001695	0.276148
-5.352288	-2.000499	3.510157	0.001691	0.276139
-5.507546	-1.968877	3.520154	0.001729	0.276144
-5.432139	-1.910132	3.530150	0.001710	0.276444
-5.596459	-1.870769	3.540147	0.001750	0.276474
-5.768493	-1.837024	3.550144	0.001792	0.276475
-5.579798	-1.825214	3.560141	0.001745	0.276674
-5.260856	-1.864546	3.570138	0.001667	0.276769
-5.191731	-1.877490	3.580134	0.001650	0.276773
-5.181492	-1.879186	3.590131	0.001647	0.276775
-5.049295	-1.905860	3.600128	0.001615	0.276773
-5.047165	-1.907600	3.610125	0.001614	0.276769
-4.874324	-1.940957	3.620122	0.001571	0.276772
-4.694557	-1.976504	3.630118	0.001527	0.276772
-4.492856	-2.016446	3.640115	0.001478	0.276772
-4.646350	-1.986993	3.650112	0.001515	0.276770
-4.909540	-1.935968	3.660109	0.001579	0.276768
-5.328518	-1.831052	3.670106	0.001681	0.276861
-5.285684	-1.784099	3.680102	0.001670	0.277086
-5.072619	-1.772278	3.690099	0.001618	0.277305
-4.832591	-1.796889	3.700096	0.001559	0.277397
-4.480244	-1.866674	3.710093	0.001472	0.277395
-4.372060	-1.887342	3.720090	0.001446	0.277399
-4.335587	-1.894198	3.730086	0.001436	0.277401
-4.351127	-1.891465	3.740083	0.001440	0.277401
-4.374922	-1.887604	3.750080	0.001446	0.277398
-4.290408	-1.833689	3.760077	0.001425	0.277684
-4.146384	-1.851702	3.770074	0.001389	0.277727
-4.038018	-1.873062	3.780070	0.001362	0.277727
-4.114615	-1.858872	3.790067	0.001381	0.277725
-4.227478	-1.837230	3.800064	0.001408	0.277724
-4.366260	-1.810694	3.810061	0.001442	0.277722
-4.373251	-1.772810	3.820058	0.001443	0.277870
-4.167711	-1.774567	3.830054	0.001392	0.278027
-3.820689	-1.842138	3.840051	0.001307	0.278030
-3.550603	-1.896301	3.850048	0.001241	0.278027
-3.548751	-1.897174	3.860045	0.001240	0.278026
-3.524628	-1.901830	3.870042	0.001234	0.278027
-3.527761	-1.900814	3.880038	0.001235	0.278030
-3.770357	-1.854075	3.890035	0.001294	0.278027
-3.960174	-1.817056	3.900032	0.001340	0.278027
-3.818293	-1.786250	3.910029	0.001305	0.278265
-3.803529	-1.770296	3.920026	0.001301	0.278342
-3.741233	-1.781942	3.930022	0.001285	0.278345
-3.510083	-1.751009	3.940019	0.001228	0.278653
-3.455476	-1.759542	3.950016	0.001215	0.278663
-3.325673	-1.785854	3.960013	0.001183	0.278661
-3.316676	-1.787083	3.970010	0.001180	0.278664
-3.259235	-1.798822	3.980006	0.001166	0.278663
-3.270640	-1.750715	3.990003	0.001169	0.278849
-3.282467	-1.712405	4.000000	0.001171	0.278994
-3.395413	-1.690429	4.009997	0.001198	0.278995
-3.191515	-1.707289	4.019994	0.001148	0.279089
-3.020876	-1.708168	4.029990	0.001106	0.279221
-2.947118	-1.722543	4.039987	0.001088	0.279222
-2.878962	-1.736839	4.049984	0.001071	0.279220
-2.818034	-1.748792	4.059981	0.001056	0.279221
-2.805068	-1.751139	4.069978	0.001052	0.279222
-2.755159	-1.723374	4.079974	0.001040	0.279374
-2.566590	-1.721097	4.089971	0.000994	0.279533
-2.533658	-1.728392	4.099968	0.000985	0.279531
-2.513224	-1.732663	4.109965	0.000980	0.279531
-2.676561	-1.700560	4.119962	0.001019	0.279532
-2.737776	-1.688238	4.129958	0.001034	0.279534
-2.751025	-1.629776	4.139955	0.001037	0.279759
-2.744001	-1.610825	4.149952	0.001035	0.279841
-2.769402	-1.554366	4.159949	0.001041	0.280049
-2.759092	-1.527732	4.169946	0.001038	0.280164
-2.457382	-1.534844	4.179942	0.000964	0.280374
-2.390777	-1.524258	4.189939	0.000947	0.280470
-2.318168	-1.538899	4.199936	0.000929	0.280469
-2.284853	-1.502242	4.209933	0.000921	0.280643
-2.188749	-1.486633	4.219930	0.000897	0.280782
-2.049605	-1.513868	4.229926	0.000863	0.280783
-1.928525	-1.537765	4.239923	0.000833	0.280784
-2.010534	-1.497236	4.249920	0.000853	0.280882
-1.952041	-1.454521	4.259917	0.000838	0.281099
-1.983123	-1.448801	4.269914	0.000845	0.281099
-1.922924	-1.459771	4.279910	0.000830	0.281103
-1.928414	-1.383773	4.289907	0.000831	0.281403
-1.821447	-1.397709	4.299904	0.000805	0.281432
-1.828647	-1.397051	4.309901	0.000806	0.281430
-1.617635	-1.363434	4.319898	0.000755	0.281730
-1.483964	-1.389768	4.329894	0.000722	0.281731
-1.418027	-1.402436	4.339891	0.000705	0.281733
-1.513672	-1.384252	4.349888	0.000728	0.281731
-1.715696	-1.300529	4.359885	0.000777	0.281908
-1.719920	-1.265278	4.369882	0.000778	0.282046
-1.607589	-1.243257	4.379878	0.000750	0.282222
-1.543644	-1.221134	4.389875	0.000734	0.282361
-1.413710	-1.216820	4.399872	0.000702	0.282480
-1.336699	-1.180207	4.409869	0.000683	0.282687
-1.254099	-1.197002	4.419866	0.000663	0.282685
-1.167856	-1.180521	4.429862	0.000641	0.282819
-1.117425	-1.147205	4.439859	0.000629	0.282991
-1.053740	-1.160168	4.449856	0.000613	0.282990
-0.979253	-1.171304	4.459853	0.000594	0.283005
-1.042785	-1.082720	4.469850	0.000610	0.283308
-0.907640	-1.108301	4.479846	0.000576	0.283312
-0.744410	-1.140349	4.489843	0.000536	0.283313
-0.623608	-1.120994	4.499840	0.000506	0.283485
-0.758681	-1.058819	4.509837	0.000539	0.283627
-0.648078	-1.080408	4.519834	0.000512	0.283628
-0.607074	-1.088555	4.529830	0.000501	0.283629
-0.606342	-1.041266	4.539827	0.000501	0.283817
-0.825355	-0.961105	4.549824	0.000554	0.283965
-0.957024	-0.902595	4.559821	0.000586	0.284095
-0.993264	-0.856363	4.569818	0.000594	0.284251
-0.851260	-0.817568	4.579814	0.000559	0.284515
-0.645052	-0.805219	4.589811	0.000509	0.284724
-0.530424	-0.803283	4.599808	0.000480	0.284821
-0.393564	-0.774655	4.609805	0.000447	0.285041
-0.359552	-0.755554	4.619802	0.000438	0.285143
-0.322922	-0.733377	4.629798	0.000429	0.285259
-0.347510	-0.680180	4.639795	0.000434	0.285451
-0.296213	-0.664814	4.649792	0.000421	0.285551
-0.183700	-0.632878	4.659789	0.000394	0.285765
-0.093860	-0.638387	4.669786	0.000371	0.285813
-0.046815	-0.578347	4.679782	0.000360	0.286086
-0.087700	-0.570616	4.689779	0.000369	0.286086
-0.046708	-0.499328	4.699776	0.000359	0.286398
-0.131969	-0.466279	4.709773	0.000379	0.286462
-0.109707	-0.407690	4.719770	0.000374	0.286710
-0.098831	-0.360266	4.729766	0.000371	0.286905
-0.064397	-0.318054	4.739763	0.000362	0.287097
0.035989	-0.275597	4.749760	0.000337	0.287341
0.162453	-0.245778	4.759757	0.000306	0.287555
0.070726	-0.192965	4.769754	0.000328	0.287692
0.067761	-0.121219	4.779750	0.000328	0.287970
-0.095548	-0.024333	4.789747	0.000368	0.288223
-0.044313	0.042755	4.799744	0.000355	0.288525
0.027267	0.107353	4.809741	0.000337	0.288831
0.000000	0.155250	4.819738	0.000344	0.288997

0.004819	0.193417	4.824742	0.000342	0.289150
0.173348	0.202465	4.829747	0.000301	0.289314
0.122478	0.252098	4.834752	0.000313	0.289468
0.228853	0.311637	4.839757	0.000287	0.289780
0.591110	0.288559	4.844762	0.000198	0.289966
0.399377	0.375754	4.849766	0.000245	0.290158
0.559669	0.408539	4.854771	0.000206	0.290407
0.550492	0.485442	4.859776	0.000208	0.290698
0.636467	0.541890	4.864781	0.000186	0.290981
0.645661	0.618942	4.869786	0.000184	0.291285
0.441228	0.738875	4.874790	0.000234	0.291593
0.639510	0.798890	4.879795	0.000185	0.291974
0.497636	0.929194	4.884800	0.000219	0.292368
0.552366	1.021323	4.889805	0.000206	0.292763
0.540761	1.133476	4.894810	0.000208	0.293184
0.459666	1.277963	4.899814	0.000228	0.293676
0.581575	1.366340	4.904819	0.000198	0.294105
0.462085	1.516210	4.909824	0.000227	0.294588
0.759713	1.596747	4.914829	0.000154	0.295117
0.779748	1.724290	4.919834	0.000149	0.295617
0.794365	1.866464	4.924838	0.000145	0.296167
0.859110	2.007841	4.929843	0.000129	0.296751
0.905934	2.146742	4.934848	0.000117	0.297310
0.857145	2.313274	4.939853	0.000129	0.297903
0.932540	2.469834	4.944858	0.000110	0.298548
0.887465	2.633070	4.949862	0.000121	0.299128
1.050828	2.774686	4.954867	0.000081	0.299779
0.789632	3.001110	4.959872	0.000144	0.300434
0.915969	3.180798	4.964877	0.000113	0.301197
0.873481	3.384761	4.969882	0.000123	0.301926
0.804192	3.603968	4.974886	0.000140	0.302689
0.943471	3.795134	4.979891	0.000106	0.303498
0.675276	4.056370	4.984896	0.000171	0.304269
0.724936	4.277023	4.989901	0.000158	0.305118
0.777518	4.509406	4.994906	0.000145	0.306010
0.930121	4.719664	4.999910	0.000108	0.306889
1.000775	4.956806	5.004915	0.000090	0.307806
0.993445	5.203974	5.009920	0.000092	0.308701
1.124334	5.416333	5.014925	0.000059	0.309565
1.248217	5.651258	5.019930	0.000029	0.310504
1.262459	5.911501	5.024934	0.000025	0.311453
1.288636	6.179537	5.029939	0.000018	0.312436
1.319937	6.450732	5.034944	0.000010	0.313431
1.350596	6.712705	5.039949	0.000002	0.314389
1.427978	6.985249	5.044954	-0.000017	0.315415
1.474365	7.266061	5.049958	-0.000029	0.316445
1.502452	7.569692	5.054963	-0.000036	0.317539
1.425430	7.883242	5.059968	-0.000017	0.318592
1.633376	8.144333	5.064973	-0.000068	0.319654
1.516256	8.485821	5.069978	-0.000040	0.320771
1.615749	8.796438	5.074982	-0.000065	0.321924
1.718929	9.113515	5.079987	-0.000091	0.323097
1.905017	9.395840	5.084992	-0.000136	0.324203
1.943505	9.724901	5.089997	-0.000146	0.325366
2.084932	10.048594	5.095002	-0.000181	0.326576
1.960299	10.418498	5.100006	-0.000151	0.327761
2.151436	10.730758	5.105011	-0.000198	0.328957
2.049872	11.101983	5.110016	-0.000174	0.330153
2.201059	11.446540	5.115021	-0.000211	0.331422
2.169462	11.831396	5.120026	-0.000204	0.332702
2.117302	12.216165	5.125030	-0.000191	0.333963
2.271774	12.577171	5.130035	-0.000230	0.335276
2.308150	12.971681	5.135040	-0.000239	0.336617
2.362857	13.367808	5.140045	-0.000253	0.337971
2.501703	13.734931	5.145050	-0.000287	0.339278
2.617727	14.126434	5.150054	-0.000316	0.340645
2.678202	14.536474	5.155059	-0.000331	0.342032
2.656488	14.967557	5.160064	-0.000326	0.343430
2.818888	15.356949	5.165069	-0.000366	0.344803
2.751475	15.816540	5.170074	-0.000350	0.346253
2.622190	16.292729	5.175078	-0.000319	0.347711
2.754571	16.725395	5.180083	-0.000352	0.349188
2.676695	17.203682	5.185088	-0.000333	0.350673
2.653556	17.693163	5.190093	-0.000328	0.352222
2.627775	18.187624	5.195098	-0.000322	0.353778
2.816132	18.634952	5.200102	-0.000369	0.355310
2.851151	19.138770	5.205107	-0.000378	0.356919
2.940614	19.627205	5.210112	-0.000400	0.358506
3.009372	20.118202	5.215117	-0.000418	0.360082
3.017530	20.645829	5.220122	-0.000420	0.361728
2.925536	21.194942	5.225126	-0.000398	0.363371
3.141875	21.693390	5.230131	-0.000452	0.365038
3.178133	22.235455	5.235136	-0.000461	0.366722
3.131087	22.795223	5.240141	-0.000450	0.368403
3.124866	23.357090	5.245146	-0.000449	0.370106
3.184127	23.924809	5.250150	-0.000464	0.371859
3.250952	24.496166	5.255155	-0.000481	0.373618
3.347105	25.064143	5.260160	-0.000505	0.375376
3.407127	25.656941	5.265165	-0.000520	0.377179
3.366069	26.270655	5.270170	-0.000511	0.378977
3.518361	26.853832	5.275174	-0.000549	0.380787
3.728911	27.447671	5.280179	-0.000601	0.382654
3.813460	28.041321	5.285184	-0.000622	0.384439
3.875809	28.670641	5.290189	-0.000638	0.386307
4.092110	29.266050	5.295194	-0.000691	0.388155
4.043797	29.901069	5.300198	-0.000680	0.389959
4.100760	30.558183	5.305203	-0.000694	0.391877
4.266020	31.180483	5.310208	-0.000735	0.393747
4.290412	31.839421	5.315213	-0.000742	0.395634
4.359455	32.517701	5.320218	-0.000759	0.397591
4.489407	33.155562	5.325222	-0.000792	0.399458
4.642066	33.826392	5.330227	-0.000830	0.401421
4.675387	34.516244	5.335232	-0.000838	0.403363
4.782671	35.200596	5.340237	-0.000865	0.405320
5.001136	35.878440	5.345242	-0.000919	0.407310
4.706471	36.632023	5.350246	-0.000848	0.409223
4.944975	37.335101	5.355251	-0.000907	0.411273
4.893945	38.087265	5.360256	-0.000895	0.413293
4.977780	38.822123	5.365261	-0.000916	0.415327
4.870620	39.624543	5.370266	-0.000891	0.417433
4.711954	40.422444	5.375270	-0.000853	0.419490
4.906140	41.201155	5.380275	-0.000901	0.421668
4.871973	42.011530	5.385280	-0.000893	0.423801
4.704671	42.876000	5.390285	-0.000853	0.425998
4.997609	43.660402	5.395290	-0.000925	0.428208
4.922085	44.509307	5.400294	-0.000908	0.430389
5.086367	45.343275	5.405299	-0.000949	0.432640
5.212830	46.167120	5.410304	-0.000980	0.434835
5.208301	47.052478	5.415309	-0.000980	0.437111
5.386203	47.886316	5.420314	-0.001024	0.439335
5.460994	48.764163	5.425318	-0.001043	0.441608
5.463583	49.663396	5.430323	-0.001045	0.443888
5.601051	50.550152	5.435328	-0.001079	0.446191
5.678456	51.443002	5.440333	-0.001099	0.448468
5.751093	52.364821	5.445338	-0.001117	0.450804
5.674561	53.315692	5.450342	-0.001099	0.453127
5.805672	54.254697	5.455347	-0.001132	0.455509
5.948918	55.191035	5.460352	-0.001168	0.457878
6.164844	56.109186	5.465357	-0.001221	0.460225
6.148603	57.103207	5.470362	-0.001218	0.462634
6.317424	58.049359	5.475366	-0.001260	0.465002
6.506568	59.016125	5.480371	-0.001307	0.467417
6.455863	60.014821	5.485376	-0.001296	0.469784
6.660021	60.995958	5.490381	-0.001347	0.472216
6.894797	61.962256	5.495386	-0.001405	0.474614
6.990425	62.970485	5.500390	-0.001429	0.477035
7.088967	63.973338	5.505395	-0.001454	0.479433
7.041901	65.041469	5.510400	-0.001443	0.481904
7.145691	66.074222	5.515405	-0.001470	0.484350
7.232422	67.142048	5.520410	-0.001492	0.486855
7.193857	68.211826	5.525414	-0.001483	0.489297
7.422033	69.280027	5.530419	-0.001540	0.491841
7.420768	70.369407	5.535424	-0.001541	0.494319
7.410333	71.504399	5.540429	-0.001539	0.496884
7.544104	72.603986	5.545434	-0.001573	0.499419
7.507846	73.763794	5.550438	-0.001565	0.502002
7.849250	74.854513	5.555443	-0.001649	0.504581
7.958295	75.998676	5.560448	-0.001677	0.507165
8.090147	77.125150	5.565453	-0.001710	0.509707
8.253827	78.276934	5.570458	-0.001751	0.512305
8.211768	79.459604	5.575462	-0.001741	0.514871
8.398734	80.629722	5.580467	-0.001788	0.517493
8.407964	81.829418	5.585472	-0.001791	0.520091
8.569190	83.026406	5.590477	-0.001832	0.522733
8.732052	84.225329	5.595482	-0.001873	0.525367
8.738512	85.453091	5.600486	-0.001875	0.527985
8.622274	86.738307	5.605491	-0.001848	0.530661
8.672716	88.002702	5.610496	-0.001861	0.533348
8.668733	89.310061	5.615501	-0.001861	0.536089
8.708449	90.609880	5.620506	-0.001872	0.538818
8.695864	91.946292	5.625510	-0.001870	0.541588
8.896924	93.254237	5.630515	-0.001920	0.544371
9.022210	94.581886	5.635520	-0.001952	0.547150
9.031256	95.931829	5.640525	-0.001955	0.549914
9.288506	97.266014	5.645530	-0.002019	0.552730
9.456256	98.608466	5.650534	-0.002061	0.555513
9.609124	99.962097	5.655539	-0.002100	0.558299
9.761348	101.337154	5.660544	-0.002138	0.561114
9.860156	102.710800	5.665549	-0.002163	0.563892
9.948838	104.128268	5.670554	-0.002186	0.566738
9.985095	105.533555	5.675558	-0.002196	0.569527
10.199423	106.947969	5.680563	-0.002250	0.572387
10.323577	108.374246	5.685568	-0.002281	0.575222
10.432832	109.812409	5.690573	-0.002309	0.578061
10.721155	111.242569	5.695578	-0.002381	0.580937
10.962960	112.655840	5.700582	-0.002441	0.583749
11.078625	114.128164	5.705587	-0.002470	0.586614
11.245058	115.569984	5.710592	-0.002512	0.589426
11.349156	117.042475	5.715597	-0.002539	0.592259
11.602259	118.503724	5.720602	-0.002602	0.595113
11.687215	119.983064	5.725606	-0.002624	0.597925
11.813273	121.500796	5.730611	-0.002656	0.600811
11.808215	123.025509	5.735616	-0.002656	0.603649
11.874871	124.574141	5.740621	-0.002673	0.606543
11.928933	126.127586	5.745626	-0.002688	0.609429
12.039962	127.689799	5.750630	-0.002716	0.612336
12.144631	129.276606	5.755635	-0.002743	0.615273
12.235306	130.863138	5.760640	-0.002766	0.618190
12.397333	132.458378	5.765645	-0.002807	0.621134
12.580696	134.068244	5.770650	-0.002853	0.624098
12.703858	135.674110	5.775654	-0.002885	0.627020
12.789410	137.313662	5.780659	-0.002907	0.629975
12.877436	138.955272	5.785664	-0.002930	0.632921
12.938530	140.637066	5.790669	-0.002946	0.635915
13.216647	142.263650	5.795674	-0.003015	0.638872
13.367247	143.941675	5.800678	-0.003053	0.641861
13.423012	145.652726	5.805683	-0.003068	0.644863
13.492896	147.348117	5.810688	-0.003087	0.647828
13.516801	149.093339	5.815693	-0.003094	0.650851
13.683873	150.820887	5.820698	-0.003136	0.653876
13.669463	152.598939	5.825702	-0.003134	0.656914
13.812935	154.372245	5.830707	-0.003171	0.659982
13.823897	156.179465	5.835712	-0.003175	0.663049
13.976076	157.988466	5.840717	-0.003213	0.666152
14.138364	159.795766	5.845722	-0.003254	0.669240
14.394426	161.573449	5.850726	-0.003318	0.672294
14.605494	163.393904	5.855731	-0.003371	0.675392
14.836439	165.177602	5.860736	-0.003429	0.678420
15.032218	167.003485	5.865741	-0.003478	0.681494
15.287084	168.821904	5.870746	-0.003542	0.684560
15.362517	170.651297	5.875750	-0.003562	0.687574
15.476821	172.527531	5.880755	-0.003591	0.690663
15.603162	174.383815	5.885760	-0.003624	0.693710
15.677627	176.282850	5.890765	-0.003643	0.696796
15.940725	178.163290	5.895770	-0.003709	0.699897
15.980029	180.073378	5.900774	-0.003720	0.702963
16.152142	181.996063	5.905779	-0.003764	0.706076
16.363669	183.896684	5.910784	-0.003817	0.709152
16.510373	185.815667	5.915789	-0.003854	0.712225
16.654003	187.777277	5.920794	-0.003891	0.715350
16.837073	189.697334	5.925798	-0.003937	0.718408
17.174023	191.630444	5.930803	-0.004021	0.721520
17.440434	193.566716	5.935808	-0.004088	0.724602
17.514040	195.515379	5.940813	-0.004107	0.727633
17.854764	197.467460	5.945818	-0.004192	0.730735
17.971099	199.428170	5.950822	-0.004222	0.733772
18.231228	201.388342	5.955827	-0.004287	0.736837
18.366368	203.386957	5.960832	-0.004322	0.739911
18.545937	205.365547	5.965837	-0.004367	0.742956
18.632442	207.399939	5.970842	-0.004390	0.746045
18.550646	209.456206	5.975846	-0.004371	0.749106
18.567015	211.538276	5.980851	-0.004377	0.752221
18.570860	213.647997	5.985856	-0.004380	0.755361
18.604464	215.756577	5.990861	-0.004390	0.758494
18.785934	217.880758	5.995866	-0.004436	0.761679
18.839020	220.031421	6.000870	-0.004450	0.764854
19.017839	222.155763	6.005875	-0.004496	0.768012
19.106724	224.335080	6.010880	-0.004519	0.771212
19.262724	226.507032	6.015885	-0.004559	0.774406
19.462109	228.669429	6.020890	-0.004609	0.777586
19.581434	230.877246	6.025894	-0.004640	0.780796
19.846622	233.073384	6.030899	-0.004706	0.784015
20.040444	235.248709	6.035904	-0.004756	0.787173
20.262948	237.449358	6.040909	-0.004812	0.790361
20.569135	239.639168	6.045914	-0.004888	0.793544
20.695979	241.843722	6.050918	-0.004921	0.796687
20.889996	244.075680	6.055923	-0.004970	0.799874
21.170449	246.276444	6.060928	-0.005040	0.803027
21.385613	248.489875	6.065933	-0.005094	0.806169
21.614912	250.726140	6.070938	-0.005152	0.809333
21.816341	252.931446	6.075942	-0.005203	0.812435
22.017274	255.192576	6.080947	-0.005254	0.815602
22.244247	257.433197	6.085952	-0.005311	0.818736
22.415594	259.684639	6.090957	-0.005355	0.821857
22.631417	261.962763	6.095962	-0.005409	0.825015
22.714336	264.224498	6.100966	-0.005431	0.828104
22.962596	266.502112	6.105971	-0.005494	0.831246
23.143506	268.791094	6.110976	-0.005540	0.834373
23.336412	271.055141	6.115981	-0.005589	0.837459
23.389982	273.412181	6.120986	-0.005603	0.840622
23.462918	275.753361	6.125990	-0.005623	0.843758
23.834897	278.039062	6.130995	-0.005716	0.846882
24.081249	280.360420	6.136000	-0.005778	0.850011
24.238230	282.686333	6.141005	-0.005818	0.853113
24.555811	285.003401	6.146010	-0.005897	0.856231
24.695250	287.352622	6.151014	-0.005933	0.859335
24.874893	289.701407	6.156019	-0.005979	0.862438
25.099530	292.052703	6.161024	-0.006036	0.865544
25.177341	294.422548	6.166029	-0.006056	0.868628
25.495246	296.765284	6.171034	-0.006136	0.871723
25.654349	299.142815	6.176038	-0.006177	0.874814
25.931831	301.503874	6.181043	-0.006246	0.877901
26.006772	303.913475	6.186048	-0.006266	0.880991
26.062462	306.353677	6.191053	-0.006282	0.884104
26.308147	308.737904	6.196058	-0.006344	0.887180
26.508995	311.159212	6.201062	-0.006395	0.890282
26.705959	313.595396	6.206067	-0.006445	0.893391
26.626522	316.077416	6.211072	-0.006427	0.896482
26.697357	318.583550	6.216077	-0.006446	0.899627
26.787558	321.109606	6.221082	-0.006470	0.902791
26.976927	323.608656	6.226086	-0.006519	0.905933
27.214567	326.131129	6.231091	-0.006579	0.909104
27.264671	328.660355	6.236096	-0.006593	0.912229
27.421329	331.201094	6.241101	-0.006633	0.915382
27.847775	333.717703	6.246106	-0.006739	0.918556
27.948795	336.246259	6.251110	-0.006766	0.921660
28.302239	338.774918	6.256115	-0.006854	0.924810
28.585993	341.281995	6.261120	-0.006925	0.927908
28.925118	343.770635	6.266125	-0.007010	0.930986
29.335313	346.265855	6.271130	-0.007112	0.934078
29.501823	348.748221	6.276134	-0.007155	0.937089
29.889063	351.234668	6.281139	-0.007251	0.940145
30.082135	353.758142	6.286144	-0.007300	0.943192
30.109235	356.260051	6.291149	-0.007309	0.946167
30.335318	358.805699	6.296154	-0.007366	0.949228
30.222617	361.386494	6.301158	-0.007341	0.952246
30.308389	363.993142	6.306163	-0.007364	0.955328
30.266380	366.655965	6.311168	-0.007355	0.958439
30.451825	369.261227	6.316173	-0.007403	0.961521
30.581759	371.932714	6.321178	-0.007436	0.964659
30.694602	374.582212	6.326182	-0.007466	0.967757
30.929617	377.240560	6.331187	-0.007525	0.970881
31.286322	379.881920	6.336192	-0.007615	0.974002
31.555123	382.495036	6.341197	-0.007682	0.977062
31.821824	385.159729	6.346202	-0.007749	0.980171
32.062025	387.811220	6.351206	-0.007810	0.983249
32.417473	390.419597	6.356211	-0.007899	0.986293
32.742400	393.037599	6.361216	-0.007980	0.989332
32.927039	395.641796	6.366221	-0.008028	0.992317
33.144760	398.280226	6.371226	-0.008083	0.995338
33.150551	400.965904	6.376230	-0.008086	0.998359
33.434163	403.591844	6.381235	-0.008158	1.001362
33.847294	406.220087	6.386240	-0.008260	1.004384
33.846504	408.877125	6.391245	-0.008262	1.007345
33.926022	411.576780	6.396250	-0.008284	1.010361
34.009554	414.304287	6.401254	-0.008306	1.013399
34.104557	417.013443	6.406259	-0.008332	1.016410
34.070159	419.814733	6.411264	-0.008325	1.019488
34.205697	422.589133	6.416269	-0.008361	1.022561
34.446002	425.334709	6.421274	-0.008421	1.025614
34.562753	428.122039	6.426278	-0.008452	1.028679
34.634412	430.930728	6.431283	-0.008472	1.031750
34.927052	433.725256	6.436288	-0.008545	1.034839
35.285547	436.500787	6.441293	-0.008635	1.037912
35.722257	439.235431	6.446298	-0.008744	1.040947
36.047816	441.962265	6.451302	-0.008825	1.043943
36.387378	444.676075	6.456307	-0.008910	1.046920
36.782884	447.372452	6.461312	-0.009009	1.049880
37.073439	450.078346	6.466317	-0.009082	1.052821
37.396421	452.752467	6.471322	-0.009163	1.055727
37.425034	455.514022	6.476326	-0.009172	1.058660
37.553768	458.257839	6.481331	-0.009206	1.061585
37.635035	461.045356	6.486336	-0.009228	1.064540
37.828961	463.801861	6.491341	-0.009277	1.067475
37.941883	466.591777	6.496346	-0.009307	1.070422
37.972854	469.418112	6.501350	-0.009317	1.073383
38.003516	472.254732	6.506355	-0.009326	1.076346
38.120213	475.122580	6.511360	-0.009357	1.079350
38.220181	477.998463	6.516365	-0.009384	1.082351
38.678521	480.796032	6.521370	-0.009498	1.085330
38.710010	483.678799	6.526374	-0.009508	1.088309
39.120285	486.497282	6.531379	-0.009610	1.091284
39.524653	489.294326	6.536384	-0.009711	1.094228
39.719234	492.128878	6.541389	-0.009761	1.097164
40.200148	494.906335	6.546394	-0.009880	1.100086
40.182008	497.759131	6.551398	-0.009878	1.102985
40.529723	500.516409	6.556403	-0.009965	1.105847
40.809374	503.331570	6.561408	-0.010035	1.108747
40.896689	506.135253	6.566413	-0.010059	1.111593
41.104373	508.978743	6.571418	-0.010112	1.114494
41.051226	511.875629	6.576422	-0.010101	1.117394
41.413644	514.693400	6.581427	-0.010192	1.120282
41.607518	517.565817	6.586432	-0.010241	1.123186
41.640841	520.428849	6.591437	-0.010252	1.126045
41.935296	523.315028	6.596442	-0.010326	1.128967
42.107764	526.188623	6.601446	-0.010370	1.131846
42.363493	529.055292	6.606451	-0.010435	1.134726
42.676859	531.933407	6.611456	-0.010514	1.137621
42.857570	534.789809	6.616461	-0.010560	1.140463
43.127269	537.668749	6.621466	-0.010628	1.143336
43.274818	540.527745	6.626470	-0.010666	1.146161
43.495750	543.404489	6.631475	-0.010722	1.149009
43.766883	546.273434	6.636480	-0.010791	1.151851
43.975929	549.116675	6.641485	-0.010844	1.154650
44.128986	552.039124	6.646490	-0.010884	1.157509
44.348834	554.890743	6.651494	-0.010939	1.160305
44.625631	557.785057	6.656499	-0.011009	1.163144
44.846246	560.633542	6.661504	-0.011065	1.165923
44.922389	563.536448	6.666509	-0.011086	1.168723
45.127648	566.449500	6.671514	-0.011139	1.171548
45.192945	569.372867	6.676518	-0.011157	1.174351
45.348863	572.327980	6.681523	-0.011197	1.177194
45.303926	575.316792	6.686528	-0.011188	1.180028
45.559309	578.293211	6.691533	-0.011253	1.182894
45.530924	581.292409	6.696538	-0.011248	1.185727
45.736611	584.304062	6.701542	-0.011301	1.188604
46.079802	587.278737	6.706547	-0.011387	1.191463
46.390329	590.246485	6.711552	-0.011465	1.194302
46.940340	593.154245	6.716557	-0.011602	1.197119
47.189838	596.070650	6.721562	-0.011665	1.199888
47.631856	598.961167	6.726566	-0.011775	1.202657
48.090615	601.762402	6.731571	-0.011889	1.205340
48.422992	604.617391	6.736576	-0.011973	1.208046
48.746695	607.420465	6.741581	-0.012054	1.210697
48.902453	610.286148	6.746586	-0.012094	1.213371
49.003346	613.141605	6.751590	-0.012121	1.216021
49.150212	616.027072	6.756595	-0.012159	1.218701
49.268112	618.942094	6.761600	-0.012190	1.221397
49.295645	621.856709	6.766605	-0.012199	1.224072
49.509853	624.792233	6.771610	-0.012254	1.226791
49.676801	627.675311	6.776614	-0.012297	1.229448
49.811347	630.650753	6.781619	-0.012332	1.232178
50.037869	633.544842	6.786624	-0.012389	1.234843
50.240854	636.493641	6.791629	-0.012441	1.237548
50.486223	639.427477	6.796634	-0.012503	1.240241
50.726570	642.351313	6.801638	-0.012564	1.242917
51.097982	645.213880	6.806643	-0.012657	1.245554
51.347699	648.127103	6.811648	-0.012720	1.248211
51.610910	650.996258	6.816653	-0.012787	1.250826
51.575863	653.958595	6.821658	-0.012780	1.253470
51.853521	656.876913	6.826662	-0.012851	1.256120
51.978895	659.824225	6.831667	-0.012883	1.258765
52.148253	662.798496	6.836672	-0.012927	1.261436
52.192385	665.722589	6.841677	-0.012940	1.264037
52.379416	668.737334	6.846682	-0.012988	1.266735
52.431224	671.702741	6.851686	-0.013003	1.269363
52.380218	674.788036	6.856691	-0.012993	1.272075
52.590673	677.809459	6.861696	-0.013047	1.274765
52.664956	680.901122	6.866701	-0.013067	1.277491
52.996289	683.952735	6.871706	-0.013150	1.280215
53.481082	686.914155	6.876710	-0.013271	1.282878
53.964356	689.841863	6.881715	-0.013391	1.285507
54.309298	692.782424	6.886720	-0.013478	1.288119
54.574103	695.704130	6.891725	-0.013545	1.290698
55.048412	698.589264	6.896730	-0.013663	1.293272
55.275883	701.486440	6.901734	-0.013721	1.295813
55.472875	704.391435	6.906739	-0.013771	1.298352
55.680892	707.308984	6.911744	-0.013824	1.300898
55.807352	710.167120	6.916749	-0.013857	1.303375
55.809255	713.126433	6.921754	-0.013860	1.305916
55.702174	716.117845	6.926758	-0.013836	1.308464
55.779042	719.154569	6.931763	-0.013857	1.311072
55.897783	722.171916	6.936768	-0.013888	1.313665
56.083242	725.219185	6.941773	-0.013936	1.316289
56.430147	728.212644	6.946778	-0.014023	1.318885
56.634723	731.242261	6.951782	-0.014075	1.321486
56.981782	734.165551	6.956787	-0.014162	1.324013
57.189701	737.202602	6.961792	-0.014215	1.326610
57.450153	740.131586	6.966797	-0.014281	1.329119
58.119814	743.060809	6.971802	-0.014447	1.331684
58.630265	745.849401	6.976806	-0.014574	1.334102
59.125775	748.665935	6.981811	-0.014697	1.336537
59.447357	751.446809	6.986816	-0.014778	1.338912
59.746764	754.254122	6.991821	-0.014853	1.341302
59.982475	756.971217	6.996826	-0.014913	1.343603
60.061955	759.804348	7.001830	-0.014934	1.345974
60.161272	762.597336	7.006835	-0.014961	1.348310
60.207559	765.482201	7.011840	-0.014974	1.350711
60.106611	768.362194	7.016845	-0.014952	1.353082
59.993638	771.361135	7.021850	-0.014926	1.355546
59.861537	774.372779	7.026854	-0.014896	1.358013
60.001715	777.404351	7.031859	-0.014933	1.360531
60.135285	780.416540	7.036864	-0.014968	1.363027
60.297347	783.449169	7.041869	-0.015010	1.365540
60.697098	786.439748	7.046874	-0.015110	1.368047
60.958980	789.428397	7.051878	-0.015176	1.370529
61.293310	792.380945	7.056883	-0.015260	1.372986
61.493652	795.376919	7.061888	-0.015311	1.375456
62.055212	798.253801	7.066893	-0.015450	1.377876
62.521931	801.131447	7.071898	-0.015567	1.380278
62.921666	803.950167	7.076902	-0.015666	1.382619
63.341247	806.722539	7.081907	-0.015771	1.384921
63.551533	809.545935	7.086912	-0.015825	1.387232
63.517620	812.370209	7.091917	-0.015818	1.389505
63.512277	815.287874	7.096922	-0.015819	1.391854
63.378659	818.211220	7.101926	-0.015789	1.394185
63.534004	821.188268	7.106931	-0.015829	1.396596
63.476085	824.180577	7.111936	-0.015817	1.398985
63.316362	827.266235	7.116941	-0.015781	1.401431
63.431526	830.305567	7.121946	-0.015811	1.403873
63.610319	833.408501	7.126950	-0.015857	1.406371
63.859257	836.435449	7.131955	-0.015920	1.408813
64.460129	839.448379	7.136960	-0.016069	1.411288
65.150508	842.279653	7.141965	-0.016240	1.413626
65.742116	845.142962	7.146970	-0.016387	1.415973
66.172357	847.891493	7.151974	-0.016494	1.418203
66.458666	850.727061	7.156979	-0.016566	1.420479
66.893389	853.427601	7.161984	-0.016674	1.422665
67.285438	856.115360	7.166989	-0.016772	1.424832
67.572895	858.840618	7.171994	-0.016845	1.427010
67.669445	861.543084	7.176998	-0.016870	1.429142
67.766043	864.313274	7.182003	-0.016896	1.431324
67.814242	867.057042	7.187008	-0.016910	1.433475
67.765782	869.914959	7.192013	-0.016900	1.435699
67.628043	872.798164	7.197018	-0.016869	1.437928
67.594618	875.746868	7.202022	-0.016863	1.440217
67.564618	878.681768	7.207027	-0.016858	1.442493
67.677355	881.674677	7.212032	-0.016887	1.444830
67.814669	884.647508	7.217037	-0.016923	1.447150
68.217978	887.595576	7.222042	-0.017024	1.449482
68.373264	890.551578	7.227046	-0.017064	1.451784
68.626238	893.470560	7.232051	-0.017128	1.454067
69.059270	896.399727	7.237056	-0.017236	1.456377
69.395569	899.244648	7.242061	-0.017321	1.458607
69.929874	902.105400	7.247066	-0.017453	1.460870
70.229732	904.814236	7.252070	-0.017529	1.462984
70.441696	907.658082	7.257075	-0.017583	1.465186
70.702879	910.421008	7.262080	-0.017649	1.467330
70.712798	913.246107	7.267085	-0.017653	1.469485
70.784283	916.118468	7.272090	-0.017673	1.471681
70.825608	918.979510	7.277094	-0.017685	1.473861
70.886111	921.910501	7.282099	-0.017702	1.476094
70.985797	924.818910	7.287104	-0.017729	1.478311
71.036843	927.792401	7.292109	-0.017743	1.480568
71.224642	930.676594	7.297114	-0.017791	1.482771
71.377921	933.670801	7.302118	-0.017831	1.485050
71.773425	936.554470	7.307123	-0.017930	1.487272
72.130840	939.457158	7.312128	-0.018019	1.489501
72.481945	942.298227	7.317133	-0.018107	1.491680
72.732034	945.146695	7.322138	-0.018171	1.493848
73.201746	947.957542	7.327142	-0.018288	1.496012
73.545736	950.696091	7.332147	-0.018374	1.498103
73.852313	953.506207	7.337152	-0.018451	1.500240
73.983530	956.204619	7.342157	-0.018485	1.502269
74.474707	958.930214	7.347162	-0.018607	1.504360
74.783521	961.621387	7.352166	-0.018685	1.506400
74.945893	964.299113	7.357171	-0.018726	1.508409
75.123601	967.068884	7.362176	-0.018772	1.510485
75.048026	969.750552	7.367181	-0.018755	1.512462
75.146813	972.585073	7.372186	-0.018782	1.514571
75.192586	975.404571	7.377190	-0.018795	1.516659
75.430650	978.184465	7.382195	-0.018855	1.518739
75.399608	981.065169	7.387200	-0.018850	1.520857
75.640380	983.820186	7.392205	-0.018911	1.522913
75.867785	986.697166	7.397210	-0.018969	1.525054
76.161965	989.467422	7.402214	-0.019043	1.527122
76.372395	992.268797	7.407219	-0.019096	1.529200
76.802270	995.043737	7.412224	-0.019203	1.531283
77.243533	997.702680	7.417229	-0.019313	1.533279
77.476009	1000.460980	7.422234	-0.019372	1.535320
77.786933	1003.094151	7.427238	-0.019450	1.537276
77.973257	1005.829320	7.432243	-0.019498	1.539289
78.083497	1008.537210	7.437248	-0.019527	1.541270
77.972532	1011.282752	7.442253	-0.019502	1.543249
78.238328	1014.065897	7.447258	-0.019569	1.545299
78.175452	1016.819172	7.452262	-0.019555	1.547284
78.171527	1019.674602	7.457267	-0.019557	1.549348
78.347277	1022.531169	7.462272	-0.019602	1.551432
78.475612	1025.343424	7.467277	-0.019635	1.553475
78.719101	1028.221621	7.472282	-0.019697	1.555576
78.790361	1031.066631	7.477286	-0.019716	1.557630
79.184731	1033.902599	7.482291	-0.019815	1.559714
79.610400	1036.644302	7.487296	-0.019921	1.561731
80.046340	1039.346783	7.492301	-0.020030	1.563718
80.452009	1042.071211	7.497306	-0.020131	1.565715
80.756117	1044.693460	7.502310	-0.020207	1.567625
80.915153	1047.396055	7.507315	-0.020248	1.569572
81.022946	1050.111216	7.512320	-0.020276	1.571520
81.157361	1052.790919	7.517325	-0.020311	1.573443
81.223733	1055.579484	7.522330	-0.020330	1.575433
81.299897	1058.306615	7.527334	-0.020350	1.577378
81.291733	1061.141631	7.532339	-0.020350	1.579387
81.405071	1063.941412	7.537344	-0.020380	1.581384
81.453742	1066.759879	7.542349	-0.020394	1.583383
81.804749	1069.595216	7.547354	-0.020482	1.585427
81.941456	1072.372534	7.552358	-0.020518	1.587402
82.384149	1075.157834	7.557363	-0.020628	1.589416
82.921675	1077.828856	7.562368	-0.020761	1.591358
83.184312	1080.503551	7.567373	-0.020828	1.593268
83.553567	1083.209590	7.572378	-0.020920	1.595211
84.029383	1085.745337	7.577382	-0.021038	1.597043
84.425775	1088.324448	7.582387	-0.021137	1.598895
84.774023	1090.868612	7.587392	-0.021224	1.600715
84.773098	1093.378009	7.592397	-0.021226	1.602469
85.084600	1095.959843	7.597402	-0.021304	1.604306
85.133282	1098.533276	7.602406	-0.021318	1.606106
85.095031	1101.146325	7.607411	-0.021310	1.607921
85.095952	1103.872650	7.612416	-0.021313	1.609818
85.060335	1106.517135	7.617421	-0.021306	1.611651
85.139183	1109.284037	7.622426	-0.021327	1.613580
85.151694	1112.065608	7.627430	-0.021332	1.615510
85.137488	1114.841577	7.632435	-0.021331	1.617430
85.432543	1117.690125	7.637440	-0.021405	1.619433
85.631468	1120.431164	7.642445	-0.021456	1.621348
85.894977	1123.201176	7.647450	-0.021523	1.623289
86.299058	1125.937998	7.652454	-0.021623	1.625220
86.774705	1128.526470	7.657459	-0.021742	1.627055
87.284469	1131.171531	7.662464	-0.021868	1.628930
87.472051	1133.748231	7.667469	-0.021916	1.630720
87.941820	1136.257380	7.672474	-0.022033	1.632494
88.083316	1138.846242	7.677478	-0.022069	1.634283
88.264433	1141.394321	7.682483	-0.022115	1.636047
88.379402	1143.974045	7.687488	-0.022146	1.637823
88.379739	1146.605940	7.692493	-0.022148	1.639620
88.443245	1149.200207	7.697498	-0.022165	1.641397
88.525460	1151.873347	7.702502	-0.022187	1.643227
88.480593	1154.616078	7.707507	-0.022178	1.645089
88.532310	1157.306900	7.712512	-0.022193	1.646924
88.595798	1160.093366	7.717517	-0.022211	1.648823
88.750557	1162.879979	7.722522	-0.022251	1.650730
88.821983	1165.652280	7.727526	-0.022270	1.652616
89.188660	1168.426465	7.732531	-0.022362	1.654534
89.711747	1171.090109	7.737536	-0.022492	1.656392
90.149705	1173.718212	7.742541	-0.022601	1.658214
90.551052	1176.347876	7.747546	-0.022701	1.660031
90.982723	1178.799434	7.752550	-0.022808	1.661730
91.347738	1181.324310	7.757555	-0.022899	1.663469
91.714308	1183.829156	7.762560	-0.022991	1.665193
91.820713	1186.253690	7.767565	-0.023019	1.666832
92.034952	1188.787982	7.772570	-0.023073	1.668556
92.115189	1191.309805	7.777574	-0.023094	1.670255
92.133436	1193.789884	7.782579	-0.023101	1.671917
92.372536	1196.384578	7.787584	-0.023161	1.673679
92.238540	1198.987618	7.792589	-0.023131	1.675403
92.293358	1201.596992	7.797594	-0.023146	1.677151
92.327735	1204.301418	7.802598	-0.023156	1.678958
92.601138	1206.915828	7.807603	-0.023225	1.680728
92.818347	1209.531105	7.812608	-0.023280	1.682492
92.900349	1212.201758	7.817613	-0.023302	1.684275
93.236280	1214.817686	7.822618	-0.023386	1.686048
93.536697	1217.421701	7.827622	-0.023462	1.687807
93.717943	1220.048876	7.832627	-0.023508	1.689567
94.144843	1222.576110	7.837632	-0.023614	1.691285
94.305602	1225.128734	7.842637	-0.023656	1.692990
94.709193	1227.717812	7.847642	-0.023756	1.694743
94.859382	1230.186809	7.852646	-0.023795	1.696388
95.066656	1232.737467	7.857651	-0.023847	1.698091
95.346676	1235.287147	7.862656	-0.023918	1.699799
95.322457	1237.728945	7.867661	-0.023914	1.701403
95.296583	1240.394079	7.872666	-0.023909	1.703152
95.433948	1243.010342	7.877670	-0.023945	1.704884
95.352399	1245.610299	7.882675	-0.023927	1.706581
95.479778	1248.337669	7.887680	-0.023960	1.708381
95.613375	1251.010407	7.892685	-0.023995	1.710144
95.850753	1253.648095	7.897690	-0.024055	1.711894
96.123249	1256.334597	7.902694	-0.024124	1.713677
96.371154	1258.942934	7.907699	-0.024186	1.715405
96.809382	1261.550434	7.912704	-0.024295	1.717150
97.117846	1264.115948	7.917709	-0.024373	1.718852
97.449793	1266.628735	7.922714	-0.024456	1.720521
97.810362	1269.096240	7.927718	-0.024546	1.722162
98.071476	1271.586865	7.932723	-0.024611	1.723806
98.407065	1274.045449	7.937728	-0.024695	1.725436
98.433751	1276.506946	7.942733	-0.024704	1.727034
98.535079	1279.053660	7.947738	-0.024730	1.728693
98.776473	1281.525519	7.952742	-0.024791	1.730316
98.791188	1284.039190	7.957747	-0.024797	1.731942
98.888060	1286.635558	7.962752	-0.024822	1.733628
98.891681	1289.209093	7.967757	-0.024825	1.735288
99.078052	1291.814501	7.972762	-0.024873	1.736986
99.151929	1294.440122	7.977766	-0.024893	1.738684
99.385451	1297.009982	7.982771	-0.024952	1.740360
99.699016	1299.561922	7.987776	-0.025030	1.742031
99.840785	1302.163826	7.992781	-0.025067	1.743716
100.151977	1304.701023	7.997786	-0.025145	1.745374
100.341290	1307.245146	8.002790	-0.025193	1.747023
100.538950	1309.823355	8.007795	-0.025243	1.748693
100.801574	1312.364989	8.012800	-0.025310	1.750344
101.002355	1314.851637	8.017805	-0.025361	1.751953
101.233146	1317.409797	8.022810	-0.025419	1.753609
101.371442	1319.962759	8.027814	-0.025455	1.755250
101.466729	1322.493066	8.032819	-0.025480	1.756872
101.796307	1325.058473	8.037824	-0.025562	1.758537
101.723500	1327.601430	8.042829	-0.025546	1.760147
101.993506	1330.154865	8.047834	-0.025614	1.761795
102.202899	1332.742227	8.052838	-0.025668	1.763458
102.346334	1335.272024	8.057843	-0.025705	1.765076
102.460961	1337.900940	8.062848	-0.025735	1.766753
102.655351	1340.477632	8.067853	-0.025784	1.768403
102.831887	1343.052927	8.072858	-0.025829	1.770048
102.992809	1345.638564	8.077862	-0.025870	1.771697
103.199084	1348.234136	8.082867	-0.025923	1.773356
103.323042	1350.850328	8.087872	-0.025955	1.775017
103.468837	1353.447231	8.092877	-0.025993	1.776667
103.710696	1356.092333	8.097882	-0.026054	1.778355
103.933331	1358.657570	8.102886	-0.026110	1.779990
104.022021	1361.225085	8.107891	-0.026134	1.781611
104.200765	1363.895852	8.112896	-0.026180	1.783305
104.467833	1366.443768	8.117901	-0.026247	1.784928
104.770926	1368.988942	8.122906	-0.026323	1.786552
105.039911	1371.577797	8.127910	-0.026390	1.788198
105.010378	1374.151834	8.132915	-0.026385	1.789804
105.330092	1376.700602	8.137920	-0.026465	1.791427
105.547054	1379.266574	8.142925	-0.026520	1.793050
105.942474	1381.809075	8.147930	-0.026619	1.794673
106.252110	1384.260067	8.152934	-0.026696	1.796230
106.416742	1386.778048	8.157939	-0.026739	1.797813
106.940186	1389.215229	8.162944	-0.026868	1.799379
106.984340	1391.563958	8.167949	-0.026881	1.800843
107.354788	1394.015240	8.172954	-0.026973	1.802400
107.459930	1396.486382	8.177958	-0.027001	1.803943
107.634414	1398.843025	8.182963	-0.027045	1.805420
107.680734	1401.339627	8.187968	-0.027059	1.806970
107.731631	1403.848530	8.192973	-0.027073	1.808527
107.698241	1406.358052	8.197978	-0.027067	1.810075
107.715359	1408.945069	8.202982	-0.027073	1.811674
107.752030	1411.585003	8.207987	-0.027084	1.813307
107.845613	1414.231416	8.212992	-0.027109	1.814947
108.105514	1416.813374	8.217997	-0.027174	1.816562
108.284994	1419.457634	8.223002	-0.027220	1.818206
108.539172	1422.030019	8.228006	-0.027284	1.819812
108.791684	1424.571444	8.233011	-0.027348	1.821397
109.461181	1427.071981	8.238016	-0.027513	1.822995
109.694633	1429.524696	8.243021	-0.027572	1.824521
109.872231	1431.950438	8.248026	-0.027617	1.826024
110.172512	1434.425596	8.253030	-0.027693	1.827568
110.191232	1436.921665	8.258035	-0.027699	1.829096
110.340979	1439.350524	8.263040	-0.027738	1.830594
110.311553	1441.915217	8.268045	-0.027732	1.832157
110.430805	1444.501647	8.273050	-0.027764	1.833747
110.405902	1447.052119	8.278054	-0.027759	1.835299
110.369496	1449.727811	8.283059	-0.027753	1.836925
110.547184	1452.432170	8.288064	-0.027798	1.838587
110.449815	1455.038547	8.293069	-0.027776	1.840162
110.568577	1457.800793	8.298074	-0.027807	1.841851
110.870978	1460.546626	8.303078	-0.027883	1.843546
111.100337	1463.144276	8.308083	-0.027941	1.845142
111.468733	1465.838636	8.313088	-0.028033	1.846808
111.946254	1468.445489	8.318093	-0.028152	1.848430
112.319338	1470.938045	8.323098	-0.028245	1.849972
112.820043	1473.409322	8.328102	-0.028369	1.851512
113.027643	1475.885321	8.333107	-0.028422	1.853026
113.286491	1478.369267	8.338112	-0.028487	1.854548
113.385912	1480.806159	8.343117	-0.028513	1.856025
113.525259	1483.320337	8.348122	-0.028549	1.857552
113.714952	1485.826579	8.353126	-0.028598	1.859078
113.662753	1488.264920	8.358131	-0.028587	1.860539
113.742467	1490.881270	8.363136	-0.028608	1.862118
113.852897	1493.476954	8.368141	-0.028637	1.863686
113.851566	1496.016409	8.373146	-0.028639	1.865209
113.961863	1498.689193	8.378150	-0.028668	1.866820
113.960287	1501.385048	8.383155	-0.028670	1.868434
114.198191	1503.996567	8.388160	-0.028730	1.870018
114.379364	1506.662657	8.393165	-0.028776	1.871628
114.752272	1509.332997	8.398170	-0.028869	1.873256
115.214708	1511.857579	8.403174	-0.028984	1.874804
115.610671	1514.347339	8.408179	-0.029083	1.876324
116.059194	1516.846959	8.413184	-0.029194	1.877854
116.372666	1519.214196	8.418189	-0.029273	1.879291
116.713230	1521.533513	8.423194	-0.029358	1.880701
116.953483	1523.981857	8.428198	-0.029418	1.882178
117.009108	1526.371596	8.433203	-0.029434	1.883602
117.101837	1528.747785	8.438208	-0.029458	1.885020
117.151280	1531.227712	8.443213	-0.029472	1.886494
117.358347	1533.694645	8.448218	-0.029525	1.887974
117.336717	1536.162890	8.453222	-0.029521	1.889433
117.451207	1538.653334	8.458227	-0.029551	1.890917
117.561521	1541.227256	8.463232	-0.029580	1.892448
117.725665	1543.765522	8.468237	-0.029622	1.893961
117.831986	1546.281264	8.473242	-0.029650	1.895455
117.905562	1548.897213	8.478246	-0.029670	1.897004
118.216213	1551.455619	8.483251	-0.029748	1.898539
118.295516	1553.928030	8.488256	-0.029769	1.900001
118.367320	1556.545554	8.493261	-0.029789	1.901547
118.750751	1559.119249	8.498266	-0.029884	1.903093
118.972398	1561.629126	8.503270	-0.029940	1.904587
119.163113	1564.161666	8.508275	-0.029989	1.906090
119.624270	1566.693584	8.513280	-0.030104	1.907615
119.757006	1569.129439	8.518285	-0.030138	1.909053
119.972600	1571.561625	8.523290	-0.030192	1.910496
120.140881	1574.122708	8.528294	-0.030235	1.912009
120.226002	1576.629968	8.533299	-0.030258	1.913482
120.437366	1579.078215	8.538304	-0.030312	1.914930
120.377980	1581.653899	8.543309	-0.030299	1.916428
120.576033	1584.251565	8.548314	-0.030350	1.917960
120.622303	1586.792933	8.553318	-0.030363	1.919444
120.696761	1589.362899	8.558323	-0.030383	1.920947
120.847379	1592.038648	8.563328	-0.030422	1.922517
120.908591	1594.663394	8.568333	-0.030439	1.924047
121.304725	1597.245707	8.573338	-0.030538	1.925582
121.729946	1599.825024	8.578343	-0.030643	1.927115
122.050026	1602.330136	8.583347	-0.030724	1.928596
122.570388	1604.708098	8.588352	-0.030852	1.930018
122.828336	1607.151198	8.593357	-0.030917	1.931455
123.022408	1609.589804	8.598362	-0.030967	1.932883
123.335252	1611.977397	8.603367	-0.031045	1.934290
123.487616	1614.329948	8.608371	-0.031084	1.935662
123.707156	1616.771298	8.613376	-0.031140	1.937090
123.704901	1619.208882	8.618381	-0.031141	1.938496
123.651029	1621.621524	8.623386	-0.031130	1.939882
123.802425	1624.153317	8.628391	-0.031168	1.941353
123.838054	1626.680439	8.633395	-0.031179	1.942811
123.937686	1629.189348	8.638400	-0.031205	1.944262
124.077324	1631.720562	8.643405	-0.031241	1.945729
124.342758	1634.280968	8.648410	-0.031308	1.947222
124.651493	1636.801318	8.653415	-0.031386	1.948694
124.785359	1639.229800	8.658419	-0.031420	1.950098
125.259756	1641.705425	8.663424	-0.031538	1.951557
125.362408	1644.222942	8.668429	-0.031565	1.953007
125.521002	1646.609852	8.673434	-0.031606	1.954386
125.832267	1649.094395	8.678439	-0.031684	1.955832
125.925055	1651.536157	8.683443	-0.031708	1.957235
126.166382	1654.006925	8.688448	-0.031769	1.958666
126.151933	1656.408484	8.693453	-0.031767	1.960035
126.393921	1658.919776	8.698458	-0.031828	1.961487
126.633819	1661.449202	8.703463	-0.031889	1.962948
126.694996	1663.838268	8.708467	-0.031906	1.964312
126.909497	1666.378496	8.713472	-0.031960	1.965775
126.905023	1668.923899	8.718477	-0.031961	1.967222
127.254893	1671.394098	8.723482	-0.032048	1.968654
127.266796	1673.920472	8.728487	-0.032053	1.970088
127.595410	1676.415735	8.733491	-0.032135	1.971531
127.800907	1678.962757	8.738496	-0.032188	1.972991
128.035791	1681.397072	8.743501	-0.032247	1.974390
128.116922	1683.899978	8.748506	-0.032269	1.975813
128.379726	1686.441206	8.753511	-0.032335	1.977271
128.610019	1688.861194	8.758515	-0.032393	1.978658
128.725303	1691.305109	8.763520	-0.032423	1.980047
128.919843	1693.813016	8.768525	-0.032472	1.981478
129.152467	1696.313865	8.773530	-0.032531	1.982908
129.263167	1698.751330	8.778535	-0.032560	1.984290
129.377964	1701.249279	8.783539	-0.032590	1.985706
129.543440	1703.827375	8.788544	-0.032632	1.987170
129.837100	1706.272502	8.793549	-0.032706	1.988569
129.953453	1708.729848	8.798554	-0.032736	1.989959
130.146277	1711.282052	8.803559	-0.032785	1.991407
130.292239	1713.807671	8.808563	-0.032823	1.992836
130.503357	1716.285766	8.813568	-0.032876	1.994243
130.573250	1718.801657	8.818573	-0.032895	1.995658
130.783011	1721.372270	8.823578	-0.032949	1.997114
131.025169	1723.859394	8.828583	-0.033010	1.998525
131.199075	1726.301593	8.833587	-0.033054	1.999904
131.482243	1728.843354	8.838592	-0.033125	2.001347
131.751116	1731.336509	8.843597	-0.033193	2.002760
131.923809	1733.725692	8.848602	-0.033237	2.004107
132.138309	1736.221652	8.853607	-0.033291	2.005516
132.313144	1738.674175	8.858611	-0.033336	2.006896
132.674546	1741.139973	8.863616	-0.033426	2.008298
132.816409	1743.478671	8.868621	-0.033463	2.009610
133.007752	1745.959784	8.873626	-0.033511	2.011005
133.104238	1748.437907	8.878631	-0.033537	2.012389
133.245309	1750.860358	8.883635	-0.033573	2.013745
133.479136	1753.325333	8.888640	-0.033632	2.015131
133.698668	1755.776108	8.893645	-0.033688	2.016507
133.877811	1758.247441	8.898650	-0.033733	2.017891
133.908294	1760.635163	8.903655	-0.033742	2.019215
133.911691	1763.179412	8.908659	-0.033745	2.020623
134.057693	1765.736125	8.913664	-0.033783	2.022048
134.111954	1768.286199	8.918669	-0.033798	2.023461
134.238050	1770.798250	8.923674	-0.033831	2.024857
134.251377	1773.487763	8.928679	-0.033836	2.026342
134.663985	1776.045014	8.933683	-0.033939	2.027785
134.788302	1778.513188	8.938688	-0.033971	2.029154
134.835685	1781.170063	8.943693	-0.033985	2.030620
135.231195	1783.733176	8.948698	-0.034083	2.032062
135.507482	1786.272232	8.953703	-0.034153	2.033479
135.766878	1788.739373	8.958707	-0.034218	2.034855
136.127248	1791.261682	8.963712	-0.034308	2.036268
136.281330	1793.744957	8.968717	-0.034348	2.037642
136.505496	1796.102194	8.973722	-0.034404	2.038952
136.692229	1798.592958	8.978727	-0.034452	2.040331
136.803680	1801.091436	8.983731	-0.034481	2.041708
137.026208	1803.593635	8.988736	-0.034537	2.043094
137.142008	1805.979818	8.993741	-0.034567	2.044408
137.394468	1808.497704	8.998746	-0.034631	2.045803
137.484849	1811.022626	9.003751	-0.034655	2.047189
137.517537	1813.490299	9.008755	-0.034665	2.048537
137.726351	1816.026279	9.013760	-0.034718	2.049936
138.004334	1818.544952	9.018765	-0.034788	2.051330
138.229405	1821.072130	9.023770	-0.034845	2.052724
138.449839	1823.484071	9.028775	-0.034900	2.054053
138.717392	1825.974454	9.033779	-0.034968	2.055428
138.951391	1828.465910	9.038784	-0.035027	2.056800
139.100140	1830.857110	9.043789	-0.035065	2.058110
139.268035	1833.265547	9.048794	-0.035108	2.059430
139.573593	1835.731630	9.053799	-0.035184	2.060791
139.540682	1838.190124	9.058803	-0.035178	2.062121
139.680095	1840.674616	9.063808	-0.035214	2.063477
139.889398	1843.124261	9.068813	-0.035267	2.064819
140.045470	1845.644347	9.073818	-0.035307	2.066195
140.242392	1848.194708	9.078823	-0.035357	2.067588
140.383491	1850.552420	9.083827	-0.035394	2.068873
140.589611	1853.090981	9.088832	-0.035446	2.070259
140.792505	1855.623649	9.093837	-0.035497	2.071641
141.174746	1858.039562	9.098842	-0.035593	2.072972
141.403470	1860.422130	9.103847	-0.035650	2.074273
141.406751	1862.916881	9.108851	-0.035653	2.075617
141.483316	1865.445216	9.113856	-0.035674	2.076983
141.728407	1867.836305	9.118861	-0.035736	2.078287
141.744052	1870.339388	9.123866	-0.035741	2.079633
141.814381	1872.925036	9.128871	-0.035760	2.081027
141.932891	1875.509389	9.133875	-0.035791	2.082423
142.164146	1877.997128	9.138880	-0.035850	2.083775
142.093759	1880.644922	9.143885	-0.035835	2.085188
142.289642	1883.260900	9.148890	-0.035884	2.086604
142.657189	1885.848883	9.153895	-0.035976	2.088017
142.822495	1888.344664	9.158899	-0.036019	2.089364
143.222093	1890.926740	9.163904	-0.036118	2.090775
143.372452	1893.478606	9.168909	-0.036157	2.092149
143.729782	1895.885658	9.173914	-0.036246	2.093461
143.821569	1898.438906	9.178919	-0.036270	2.094830
143.915743	1900.960406	9.183923	-0.036295	2.096181
144.031751	1903.522691	9.188928	-0.036326	2.097554
144.263009	1905.964562	9.193933	-0.036384	2.098872
144.357674	1908.530270	9.198938	-0.036409	2.100244
144.413035	1911.155488	9.203943	-0.036425	2.101644
144.646038	1913.691070	9.208947	-0.036484	2.103008
144.717642	1916.233097	9.213952	-0.036503	2.104363
144.892269	1918.887970	9.218957	-0.036548	2.105785
145.276950	1921.447165	9.223962	-0.036644	2.107171
145.372317	1923.949719	9.228967	-0.036669	2.108504
145.691862	1926.463723	9.233971	-0.036749	2.109859
146.098942	1928.985738	9.238976	-0.036850	2.111224
146.405592	1931.457712	9.243981	-0.036927	2.112554
146.784602	1933.779374	9.248986	-0.037021	2.113810
146.999059	1936.214509	9.253991	-0.037076	2.115112
147.143963	1938.613003	9.258995	-0.037113	2.116389
147.408756	1940.991482	9.264000	-0.037180	2.117663
147.535178	1943.274402	9.269005	-0.037212	2.118876
147.640309	1945.697642	9.274010	-0.037240	2.120161
147.760022	1948.159478	9.279015	-0.037271	2.121466
147.676460	1950.610576	9.284019	-0.037252	2.122750
147.956829	1953.057212	9.289024	-0.037323	2.124058
147.914789	1955.610068	9.294029	-0.037314	2.125396
147.885695	1958.184123	9.299034	-0.037309	2.126747
148.187991	1960.728833	9.304039	-0.037385	2.128105
148.265563	1963.236870	9.309043	-0.037406	2.129426
148.389927	1965.885011	9.314048	-0.037438	2.130824
148.495710	1968.530948	9.319053	-0.037466	2.132218
148.991088	1970.969742	9.324058	-0.037589	2.133531
149.331166	1973.497963	9.329063	-0.037674	2.134879
149.358064	1976.051921	9.334067	-0.037683	2.136216
149.678223	1978.529458	9.339072	-0.037763	2.137534
149.855809	1980.907888	9.344077	-0.037808	2.138790
149.990443	1983.439682	9.349082	-0.037843	2.140121
150.145531	1986.009763	9.354087	-0.037883	2.141473
150.405141	1988.437346	9.359091	-0.037948	2.142757
150.542126	1990.901992	9.364096	-0.037983	2.144051
150.683309	1993.444346	9.369101	-0.038020	2.145386
150.643786	1996.051700	9.374106	-0.038012	2.146740
150.931029	1998.530580	9.379111	-0.038084	2.148049
150.816755	2001.093513	9.384115	-0.038058	2.149373
151.039528	2003.776238	9.389120	-0.038115	2.150783
151.255908	2006.384645	9.394125	-0.038170	2.152152
151.394517	2008.933241	9.399130	-0.038205	2.153484
151.596817	2011.591241	9.404135	-0.038257	2.154877
151.728312	2014.190229	9.409139	-0.038291	2.156232
152.030603	2016.795129	9.414144	-0.038367	2.157603
152.380465	2019.243717	9.419149	-0.038454	2.158895
152.671441	2021.774418	9.424154	-0.038527	2.160224
153.097574	2024.287574	9.429159	-0.038633	2.161553
153.201828	2026.710216	9.434163	-0.038661	2.162812
153.555683	2029.134826	9.439168	-0.038749	2.164088
153.645123	2031.605692	9.444173	-0.038773	2.165369
153.833258	2034.067237	9.449178	-0.038821	2.166652
154.048166	2036.446606	9.454183	-0.038875	2.167893
154.013228	2038.915579	9.459187	-0.038868	2.169162
154.137694	2041.473400	9.464192	-0.038901	2.170487
154.106427	2044.073854	9.469197	-0.038895	2.171822
154.277567	2046.581998	9.474202	-0.038939	2.173123
154.405067	2049.198569	9.479207	-0.038972	2.174476
154.680357	2051.761330	9.484211	-0.039041	2.175811
155.025773	2054.318288	9.489216	-0.039128	2.177147
155.358287	2056.700805	9.494221	-0.039211	2.178392
155.535903	2059.199428	9.499226	-0.039256	2.179685
155.810902	2061.700938	9.504231	-0.039325	2.180985
156.156664	2064.076297	9.509235	-0.039411	2.182225
156.387364	2066.411055	9.514240	-0.039470	2.183436
156.506716	2068.846302	9.519245	-0.039501	2.184689
156.634698	2071.269270	9.524250	-0.039534	2.185936
156.789145	2073.726134	9.529255	-0.039573	2.187201
156.960389	2076.050306	9.534259	-0.039617	2.188399
157.071091	2078.549011	9.539264	-0.039646	2.189682
157.093394	2081.055691	9.544269	-0.039653	2.190961
157.036289	2083.598519	9.549274	-0.039641	2.192253
157.171597	2086.135760	9.554279	-0.039676	2.193554
157.253434	2088.753283	9.559283	-0.039698	2.194891
157.515102	2091.376317	9.564288	-0.039764	2.196243
157.773469	2093.857380	9.569293	-0.039829	2.197522
157.792324	2096.389564	9.574298	-0.039836	2.198810
158.068411	2099.042257	9.579303	-0.039905	2.200175
158.140565	2101.625419	9.584307	-0.039925	2.201491
158.353208	2104.159139	9.589312	-0.039979	2.202790
158.530391	2106.765754	9.594317	-0.040024	2.204123
158.730457	2109.382001	9.599322	-0.040075	2.205461
158.936126	2112.004067	9.604327	-0.040127	2.206803
159.269945	2114.421875	9.609331	-0.040211	2.208048
159.534313	2116.985157	9.614336	-0.040277	2.209362
159.838638	2119.511575	9.619341	-0.040354	2.210659
160.103215	2121.975306	9.624346	-0.040420	2.211921
160.370703	2124.368011	9.629351	-0.040487	2.213146
160.575461	2126.811710	9.634355	-0.040539	2.214393
160.854188	2129.259906	9.639360	-0.040609	2.215646
160.916359	2131.698634	9.644365	-0.040626	2.216878
160.800147	2134.079551	9.649370	-0.040600	2.218069
160.910947	2136.668357	9.654375	-0.040629	2.219379
160.871193	2139.262752	9.659379	-0.040621	2.220681
161.139830	2141.844068	9.664384	-0.040689	2.221997
161.165538	2144.378052	9.669389	-0.040697	2.223271
161.399811	2147.009075	9.674394	-0.040756	2.224608
161.691409	2149.645275	9.679399	-0.040829	2.225950
161.935035	2152.128536	9.684403	-0.040891	2.227212
162.295987	2154.601637	9.689408	-0.040981	2.228475
162.536942	2157.128410	9.694413	-0.041042	2.229757
162.850038	2159.594342	9.699418	-0.041120	2.231012
163.336378	2161.979321	9.704423	-0.041241	2.232237
163.364016	2164.325980	9.709427	-0.041249	2.233412
163.556525	2166.780344	9.714432	-0.041298	2.234652
163.618830	2169.255324	9.719437	-0.041315	2.235892
163.613383	2171.681898	9.724442	-0.041316	2.237103
163.824845	2174.106600	9.729447	-0.041369	2.238326
163.736136	2176.680310	9.734451	-0.041350	2.239604
163.989502	2179.253891	9.739456	-0.041414	2.240903
163.966702	2181.795461	9.744461	-0.041410	2.242167
164.197151	2184.316459	9.749466	-0.041468	2.243437
164.461980	2186.937650	9.754471	-0.041535	2.244759
164.561172	2189.515504	9.759475	-0.041561	2.246047
164.723593	2192.069826	9.764480	-0.041603	2.247327
164.964647	2194.620575	9.769485	-0.041664	2.248609
165.297909	2197.168812	9.774490	-0.041747	2.249896
165.684317	2199.686684	9.779495	-0.041843	2.251170
165.822189	2202.096863	9.784499	-0.041879	2.252374
166.112511	2204.563857	9.789504	-0.041952	2.253615
166.236428	2207.070014	9.794509	-0.041984	2.254864
166.487005	2209.535316	9.799514	-0.042047	2.256101
166.825892	2211.909561	9.804519	-0.042132	2.257297
166.827871	2214.309024	9.809523	-0.042134	2.258484
167.053647	2216.809827	9.814528	-0.042191	2.259734
167.203691	2219.277771	9.819533	-0.042230	2.260963
167.281579	2221.621815	9.824538	-0.042250	2.262125

167.473569	2223.986572	9.829543	-0.042299	2.263304
167.450663	2226.368188	9.834547	-0.042295	2.264476
167.714405	2228.727307	9.839552	-0.042362	2.265656
167.740909	2231.034860	9.844557	-0.042370	2.266794
167.745718	2233.215750	9.849562	-0.042373	2.267868
168.110959	2235.521419	9.854567	-0.042464	2.269026
168.117816	2237.677546	9.859571	-0.042467	2.270087
168.444097	2239.896358	9.864576	-0.042549	2.271199
168.662810	2241.858705	9.869581	-0.042604	2.272177
168.779547	2243.853096	9.874586	-0.042634	2.273164
169.104063	2245.867927	9.879591	-0.042715	2.274174
169.285257	2247.749093	9.884595	-0.042760	2.275109
169.584477	2249.612441	9.889600	-0.042835	2.276042
169.627470	2251.342278	9.894605	-0.042847	2.276893
169.809083	2252.996353	9.899610	-0.042892	2.277715
169.969462	2254.709277	9.904615	-0.042933	2.278565
170.001966	2256.462201	9.909619	-0.042942	2.279425
170.142112	2258.122645	9.914624	-0.042978	2.280247
170.242639	2259.744533	9.919629	-0.043004	2.281047
170.183527	2261.385597	9.924634	-0.042991	2.281847
170.380770	2262.903127	9.929639	-0.043040	2.282601
170.380664	2264.520687	9.934643	-0.043041	2.283392
170.633066	2266.060215	9.939648	-0.043104	2.284161
170.786447	2267.583794	9.944653	-0.043143	2.284915
171.009376	2269.001016	9.949658	-0.043199	2.285621
171.257738	2270.412194	9.954663	-0.043260	2.286326
171.353545	2271.623939	9.959667	-0.043285	2.286923
171.645895	2272.861629	9.964672	-0.043357	2.287546
171.722396	2274.093842	9.969677	-0.043377	2.288152
171.772729	2275.289137	9.974682	-0.043390	2.288738
171.857464	2276.525421	9.979687	-0.043412	2.289346
171.994464	2277.618162	9.984691	-0.043446	2.289888
172.029714	2278.816985	9.989696	-0.043456	2.290474
172.123550	2279.971335	9.994701	-0.043480	2.291042
172.077685	2281.072327	9.999706	-0.043470	2.291576
172.123810	2282.087247	10.004711	-0.043482	2.292073
172.022838	2283.243984	10.009715	-0.043458	2.292630
172.187422	2284.387697	10.014720	-0.043499	2.293197
172.264376	2285.442979	10.019725	-0.043519	2.293715
172.412402	2286.472280	10.024730	-0.043556	2.294225
172.637780	2287.527099	10.029735	-0.043612	2.294753
172.575590	2288.439683	10.034739	-0.043598	2.295193
172.870863	2289.454125	10.039744	-0.043671	2.295704
172.864275	2290.326158	10.044749	-0.043670	2.296128
172.934795	2291.231404	10.049754	-0.043688	2.296572
173.115468	2291.935889	10.054759	-0.043732	2.296926
173.207627	2292.677346	10.059763	-0.043756	2.297292
173.175081	2293.516070	10.064768	-0.043748	2.297698
173.287724	2294.381463	10.069773	-0.043777	2.298125
173.318221	2295.126164	10.074778	-0.043785	2.298489
173.368484	2295.932737	10.079783	-0.043798	2.298883
173.404135	2296.641965	10.084787	-0.043807	2.299230
173.637891	2297.368447	10.089792	-0.043865	2.299597
173.630793	2298.106277	10.094797	-0.043864	2.299955
173.561008	2298.822085	10.099802	-0.043848	2.300298
173.646236	2299.523416	10.104807	-0.043869	2.300643
173.670201	2300.186433	10.109811	-0.043875	2.300966
173.736726	2300.879451	10.114816	-0.043892	2.301307
173.866146	2301.494903	10.119821	-0.043925	2.301613
173.798943	2302.008998	10.124826	-0.043909	2.301858
173.880308	2302.672037	10.129831	-0.043929	2.302185
173.833842	2303.312403	10.134835	-0.043918	2.302493
173.946011	2303.907550	10.139840	-0.043946	2.302788
173.953917	2304.511096	10.144845	-0.043949	2.303081
174.021663	2305.092813	10.149850	-0.043966	2.303367
174.246781	2305.658790	10.154855	-0.044022	2.303655
174.303481	2306.249178	10.159859	-0.044036	2.303945
174.542766	2306.666512	10.164864	-0.044095	2.304162
174.608144	2306.983860	10.169869	-0.044111	2.304320
174.510858	2307.537250	10.174874	-0.044088	2.304582
174.620586	2307.989821	10.179879	-0.044115	2.304808
174.465048	2308.348355	10.184883	-0.044078	2.304972
174.576791	2308.863304	10.189888	-0.044106	2.305228
174.400659	2309.376445	10.194893	-0.044063	2.305466
174.427300	2309.770902	10.199898	-0.044070	2.305658
174.575958	2310.169324	10.204903	-0.044107	2.305860
174.504109	2310.763656	10.209907	-0.044090	2.306144
174.538132	2311.159861	10.214912	-0.044098	2.306337
174.715272	2311.478596	10.219917	-0.044142	2.306503
174.814711	2311.912571	10.224922	-0.044167	2.306719
174.874664	2312.069648	10.229927	-0.044182	2.306799
174.951884	2312.537531	10.234931	-0.044201	2.307030
175.166260	2312.573705	10.239936	-0.044254	2.307061
175.214879	2313.168952	10.244941	-0.044266	2.307352
175.216952	2313.147305	10.249946	-0.044267	2.307341
175.381008	2313.433677	10.254951	-0.044307	2.307490
175.183974	2313.829250	10.259955	-0.044259	2.307669
175.089840	2313.853575	10.264960	-0.044237	2.307675
175.288448	2314.459674	10.269965	-0.044286	2.307981
175.201533	2314.445617	10.274970	-0.044265	2.307969
175.326988	2314.686364	10.279975	-0.044296	2.308093
175.322336	2315.090489	10.284979	-0.044295	2.308288
175.353500	2315.095436	10.289984	-0.044303	2.308292
175.390741	2315.332091	10.294989	-0.044312	2.308409
175.403073	2315.717614	10.299994	-0.044316	2.308596
175.423498	2315.749458	10.304999	-0.044321	2.308613
175.251401	2315.938521	10.310003	-0.044279	2.308694
175.448994	2316.419401	10.315008	-0.044328	2.308938
175.586148	2316.412956	10.320013	-0.044361	2.308944
175.627688	2316.378779	10.325018	-0.044372	2.308930
175.649072	2316.637575	10.330023	-0.044377	2.309056
175.573398	2317.015811	10.335027	-0.044359	2.309234
175.531261	2317.030529	10.340032	-0.044349	2.309239
175.692843	2317.013835	10.345037	-0.044389	2.309241
175.717003	2316.989970	10.350042	-0.044395	2.309231
175.681759	2317.457683	10.355047	-0.044386	2.309455
175.864042	2317.627321	10.360051	-0.044431	2.309548
175.879155	2317.625296	10.365056	-0.044435	2.309548
175.883107	2317.644094	10.370061	-0.044436	2.309558
175.831676	2317.621240	10.375066	-0.044424	2.309543
175.810513	2317.653288	10.380071	-0.044419	2.309558
175.822735	2317.635805	10.385075	-0.044422	2.309550
175.953520	2317.615650	10.390080	-0.044454	2.309548
175.948449	2317.633995	10.395085	-0.044453	2.309557
175.929761	2317.969108	10.400090	-0.044449	2.309718
176.048840	2318.281331	10.405095	-0.044478	2.309876
176.028794	2318.251845	10.410099	-0.044473	2.309861
175.941472	2318.260751	10.415104	-0.044452	2.309860
175.963520	2318.276898	10.420109	-0.044458	2.309869
175.946328	2318.254800	10.425114	-0.044454	2.309857
176.132504	2318.252394	10.430119	-0.044499	2.309867
175.996072	2318.246299	10.435123	-0.044466	2.309856
176.230035	2318.227075	10.440128	-0.044523	2.309861
176.249818	2318.239313	10.445133	-0.044528	2.309869
176.223388	2318.214850	10.450138	-0.044522	2.309855
176.375494	2318.222971	10.455143	-0.044559	2.309869
176.315356	2318.214482	10.460147	-0.044545	2.309861
176.343958	2317.836232	10.465152	-0.044552	2.309680
176.360911	2317.578404	10.470157	-0.044556	2.309556
176.370024	2317.566167	10.475162	-0.044558	2.309551
176.320909	2317.591478	10.480167	-0.044546	2.309560
176.366384	2317.563572	10.485171	-0.044558	2.309550
176.465941	2317.564563	10.490176	-0.044582	2.309556
176.419556	2317.571106	10.495181	-0.044571	2.309557
176.347249	2317.559341	10.500186	-0.044553	2.309547
176.525567	2317.485571	10.505191	-0.044597	2.309522
176.376979	2316.913757	10.510195	-0.044561	2.309237
176.409224	2316.904033	10.515200	-0.044569	2.309234
176.424398	2316.922352	10.520205	-0.044572	2.309244
176.500392	2316.890517	10.525210	-0.044591	2.309233
176.517979	2316.909494	10.530215	-0.044596	2.309243
176.402287	2316.904614	10.535219	-0.044567	2.309234
176.444035	2316.895282	10.540224	-0.044578	2.309232
176.493677	2316.387477	10.545229	-0.044590	2.308990
176.580682	2316.255709	10.550234	-0.044611	2.308931
176.567474	2316.277682	10.555239	-0.044608	2.308941
176.373359	2316.286464	10.560243	-0.044561	2.308934
176.500826	2316.274162	10.565248	-0.044592	2.308936
176.458829	2316.289185	10.570253	-0.044582	2.308940
176.434076	2315.803624	10.575258	-0.044576	2.308704
176.581067	2315.606008	10.580263	-0.044612	2.308618
176.473149	2315.592063	10.585267	-0.044585	2.308604
176.585530	2315.583962	10.590272	-0.044613	2.308607
176.641306	2315.577343	10.595277	-0.044627	2.308608
176.602449	2315.225098	10.600282	-0.044617	2.308435
176.616357	2314.936475	10.605287	-0.044620	2.308296
176.768286	2314.895182	10.610291	-0.044658	2.308286
176.737976	2314.893843	10.615296	-0.044650	2.308284
176.748434	2314.583080	10.620301	-0.044653	2.308134
176.549174	2314.265791	10.625306	-0.044604	2.307968
176.655840	2314.280376	10.630311	-0.044630	2.307982
176.548266	2314.271564	10.635315	-0.044604	2.307971
176.588446	2314.265661	10.640320	-0.044614	2.307971
176.432668	2313.880810	10.645325	-0.044576	2.307775
176.529429	2313.648089	10.650330	-0.044600	2.307668
176.425756	2313.684619	10.655335	-0.044574	2.307680
176.507231	2313.655959	10.660339	-0.044594	2.307671
176.609130	2313.641131	10.665344	-0.044620	2.307670
176.462767	2313.679291	10.670349	-0.044584	2.307680
176.544332	2313.199336	10.675354	-0.044604	2.307453
176.527465	2312.996142	10.680359	-0.044600	2.307353
176.691335	2312.954277	10.685363	-0.044640	2.307343
176.726965	2312.947991	10.690368	-0.044649	2.307343
176.783411	2312.758269	10.695373	-0.044662	2.307254
176.685959	2312.301802	10.700378	-0.044638	2.307028
176.783172	2312.312747	10.705383	-0.044662	2.307039
176.711743	2312.308003	10.710387	-0.044645	2.307032
176.919300	2311.893569	10.715392	-0.044696	2.306845
177.014183	2311.647617	10.720397	-0.044719	2.306732
176.928836	2311.629504	10.725402	-0.044698	2.306718
176.871160	2311.226742	10.730407	-0.044684	2.306519
176.862142	2311.167166	10.735411	-0.044682	2.306490
176.923930	2311.166217	10.740416	-0.044697	2.306493
176.898246	2310.547403	10.745421	-0.044690	2.306192
176.800097	2310.489656	10.750426	-0.044666	2.306158
176.910583	2310.508554	10.755431	-0.044694	2.306174
176.893268	2309.916166	10.760435	-0.044689	2.305887
176.793039	2309.845796	10.765440	-0.044665	2.305846
176.790235	2309.867047	10.770445	-0.044664	2.305857
176.775325	2309.381514	10.775450	-0.044660	2.305621
176.863179	2309.191094	10.780455	-0.044682	2.305534
176.766706	2309.188951	10.785459	-0.044658	2.305527
176.797154	2308.931447	10.790464	-0.044666	2.305404
176.740852	2308.584858	10.795469	-0.044652	2.305233
176.606312	2308.573443	10.800474	-0.044619	2.305219
176.761342	2308.584959	10.805479	-0.044657	2.305235
176.745645	2308.267337	10.810483	-0.044653	2.305080
176.756891	2307.891445	10.815488	-0.044656	2.304899
176.793302	2307.904723	10.820493	-0.044665	2.304907
176.703355	2307.889816	10.825498	-0.044643	2.304895
176.717488	2307.337549	10.830503	-0.044646	2.304628
176.721645	2307.244084	10.835507	-0.044648	2.304583
176.667267	2307.245868	10.840512	-0.044634	2.304581
176.870725	2307.108944	10.845517	-0.044684	2.304527
176.706629	2306.597503	10.850522	-0.044644	2.304269
176.748059	2306.614962	10.855527	-0.044654	2.304280
176.635455	2306.612661	10.860531	-0.044627	2.304272
176.698011	2306.360817	10.865536	-0.044642	2.304154
176.636651	2306.002509	10.870541	-0.044627	2.303977
176.658127	2305.975162	10.875546	-0.044632	2.303965
176.719118	2306.008141	10.880551	-0.044647	2.303985
176.827398	2305.706911	10.885555	-0.044674	2.303846
176.733691	2305.288055	10.890560	-0.044651	2.303637
176.712269	2305.306212	10.895565	-0.044646	2.303645
176.725295	2305.287049	10.900570	-0.044649	2.303636
176.831075	2304.835700	10.905575	-0.044675	2.303424
176.867451	2304.620511	10.910579	-0.044684	2.303322
176.946279	2304.609284	10.915584	-0.044703	2.303322
177.030287	2304.168535	10.920589	-0.044723	2.303113
176.869742	2303.947240	10.925594	-0.044684	2.302996
177.054145	2303.916251	10.930599	-0.044729	2.302993
176.971103	2303.323835	10.935603	-0.044709	2.302701
176.987720	2303.319354	10.940608	-0.044713	2.302700
176.981197	2303.108806	10.945613	-0.044711	2.302597
176.947112	2302.660259	10.950618	-0.044703	2.302378
176.805202	2302.704931	10.955623	-0.044668	2.302390
176.959806	2302.367628	10.960627	-0.044706	2.302237
177.014364	2302.016868	10.965632	-0.044719	2.302070
177.005231	2302.037936	10.970637	-0.044717	2.302080
176.887355	2301.464436	10.975642	-0.044688	2.301794
177.063369	2301.393305	10.980647	-0.044731	2.301771
176.923816	2301.348154	10.985651	-0.044697	2.301740
177.010259	2300.893856	10.990656	-0.044718	2.301526
176.847709	2300.930246	10.995661	-0.044679	2.301533
176.959379	2300.719979	11.000666	-0.044706	2.301438
176.819555	2300.251533	11.005671	-0.044672	2.301202
176.895134	2300.238785	11.010675	-0.044690	2.301201
176.851975	2300.124213	11.015680	-0.044680	2.301143
176.914739	2299.580388	11.020685	-0.044695	2.300883
176.866685	2299.549831	11.025690	-0.044683	2.300865
176.859732	2299.500762	11.030695	-0.044682	2.300841
176.921350	2298.904696	11.035699	-0.044696	2.300556
176.918488	2298.897907	11.040704	-0.044696	2.300552
176.877237	2298.786342	11.045709	-0.044686	2.300496
176.803031	2298.279690	11.050714	-0.044667	2.300245
176.942893	2298.303030	11.055719	-0.044702	2.300265
176.900630	2298.168764	11.060723	-0.044691	2.300198
176.848531	2297.612024	11.065728	-0.044679	2.299924
176.742062	2297.648564	11.070733	-0.044653	2.299935
176.789698	2297.619157	11.075738	-0.044664	2.299924
176.679547	2297.128870	11.080743	-0.044637	2.299679
176.800066	2296.979048	11.085747	-0.044667	2.299614
176.807098	2296.982242	11.090752	-0.044669	2.299616
176.951911	2296.689025	11.095757	-0.044704	2.299483
176.811875	2296.314636	11.100762	-0.044670	2.299293
176.907663	2296.328215	11.105767	-0.044693	2.299305
177.019768	2296.016107	11.110771	-0.044721	2.299161
176.966059	2295.683988	11.115776	-0.044707	2.298996
176.990962	2295.713813	11.120781	-0.044714	2.299013
176.792748	2295.139620	11.125786	-0.044665	2.298721
176.757256	2295.052167	11.130791	-0.044656	2.298677
176.684989	2295.054369	11.135795	-0.044639	2.298673
176.814255	2294.848481	11.140800	-0.044670	2.298582
176.674499	2294.425990	11.145805	-0.044636	2.298368
176.758576	2294.381267	11.150810	-0.044657	2.298351
176.773734	2294.397874	11.155815	-0.044661	2.298360
176.823880	2293.957269	11.160819	-0.044673	2.298150
176.746229	2293.736741	11.165824	-0.044654	2.298038
176.889123	2293.740342	11.170829	-0.044689	2.298048
176.897217	2293.418712	11.175834	-0.044691	2.297893
176.943510	2293.101800	11.180839	-0.044702	2.297742
177.006240	2293.086205	11.185843	-0.044717	2.297738
176.996859	2292.607783	11.190848	-0.044715	2.297505
177.032075	2292.441159	11.195853	-0.044724	2.297427
176.848807	2292.427215	11.200858	-0.044679	2.297408
176.763941	2291.837493	11.205863	-0.044658	2.297117
176.763087	2291.819530	11.210867	-0.044658	2.297108
176.803437	2291.803620	11.215872	-0.044668	2.297103
176.964204	2291.427319	11.220877	-0.044707	2.296930
176.783559	2291.169818	11.225882	-0.044663	2.296794
176.779876	2291.184354	11.230887	-0.044662	2.296801
176.765896	2291.066242	11.235891	-0.044659	2.296742
176.822783	2290.745219	11.240896	-0.044673	2.296590
176.877884	2290.757920	11.245901	-0.044686	2.296600
176.864654	2290.691125	11.250906	-0.044683	2.296566
176.903804	2290.056003	11.255911	-0.044692	2.296260
177.005275	2290.037635	11.260915	-0.044717	2.296258
176.971742	2289.791029	11.265920	-0.044709	2.296136
176.978570	2289.396598	11.270925	-0.044711	2.295945
176.992416	2289.363249	11.275930	-0.044714	2.295929
176.942594	2288.936693	11.280935	-0.044702	2.295719
176.902387	2288.726659	11.285939	-0.044692	2.295614
177.035722	2288.708333	11.290944	-0.044725	2.295614
177.055451	2288.112911	11.295949	-0.044729	2.295326
176.951567	2288.091301	11.300954	-0.044704	2.295309
176.804330	2287.962611	11.305959	-0.044668	2.295237
176.910486	2287.443729	11.310963	-0.044694	2.294991
176.822894	2287.442808	11.315968	-0.044672	2.294986
176.893864	2287.394680	11.320973	-0.044690	2.294967
176.675164	2286.813977	11.325978	-0.044636	2.294670
176.795744	2286.822015	11.330983	-0.044666	2.294682
176.659145	2286.818465	11.335987	-0.044633	2.294672
176.716311	2286.600720	11.340992	-0.044647	2.294569
176.808580	2286.181997	11.345997	-0.044669	2.294372
176.674240	2286.156655	11.351002	-0.044636	2.294351
176.876831	2286.173950	11.356007	-0.044686	2.294372
176.902892	2285.646386	11.361011	-0.044692	2.294117
176.893215	2285.517910	11.366016	-0.044690	2.294054
176.839857	2285.553636	11.371021	-0.044677	2.294068
176.756515	2285.037126	11.376026	-0.044656	2.293812
176.743401	2284.882481	11.381031	-0.044653	2.293736
176.737881	2284.869642	11.386035	-0.044652	2.293729
176.628864	2284.876327	11.391040	-0.044625	2.293726
176.776540	2284.291424	11.396045	-0.044661	2.293450
176.562412	2284.233790	11.401050	-0.044609	2.293409
176.703948	2284.230745	11.406055	-0.044644	2.293416
176.599713	2284.240663	11.411059	-0.044618	2.293415
176.553731	2283.825966	11.416064	-0.044607	2.293210
176.697183	2283.589133	11.421069	-0.044642	2.293104
176.632906	2283.575903	11.426074	-0.044627	2.293093
176.686511	2283.588115	11.431079	-0.044640	2.293103
176.679092	2283.424440	11.436083	-0.044638	2.293023
176.696253	2282.943564	11.441088	-0.044642	2.292790
176.748968	2282.966472	11.446093	-0.044655	2.292804
176.830922	2282.930738	11.451098	-0.044675	2.292792
176.620989	2282.556038	11.456103	-0.044624	2.292597
176.915579	2282.270774	11.461107	-0.044696	2.292476
176.892875	2282.269474	11.466112	-0.044690	2.292474
176.910757	2282.035535	11.471117	-0.044695	2.292362
176.811056	2281.631853	11.476122	-0.044670	2.292159
176.934759	2281.643931	11.481127	-0.044701	2.292173
176.845506	2281.437720	11.486131	-0.044679	2.292067
176.678506	2281.012054	11.491136	-0.044638	2.291849
176.842376	2281.025322	11.496141	-0.044678	2.291866
176.793607	2281.000156	11.501146	-0.044666	2.291850
176.826768	2280.544053	11.506151	-0.044674	2.291630
176.816417	2280.489538	11.511155	-0.044672	2.291603
176.893882	2280.473629	11.516160	-0.044691	2.291600
176.926696	2279.992295	11.521165	-0.044699	2.291368
176.685396	2279.817453	11.526170	-0.044640	2.291268
176.686631	2279.843818	11.531175	-0.044640	2.291281
176.768580	2279.747835	11.536179	-0.044660	2.291239
176.694687	2279.154167	11.541184	-0.044642	2.290945
176.815689	2279.174905	11.546189	-0.044672	2.290963
176.741310	2279.154683	11.551194	-0.044654	2.290949
176.850803	2278.765749	11.556199	-0.044680	2.290766
176.756761	2278.524412	11.561203	-0.044657	2.290643
176.718986	2278.515463	11.566208	-0.044648	2.290636
176.857217	2278.385271	11.571213	-0.044682	2.290581
176.750830	2277.870652	11.576218	-0.044656	2.290324
176.833815	2277.878694	11.581223	-0.044676	2.290333
176.791999	2277.886291	11.586227	-0.044666	2.290334
176.812350	2277.324186	11.591232	-0.044671	2.290062
176.738229	2277.235711	11.596237	-0.044653	2.290014
176.638099	2277.220775	11.601242	-0.044628	2.290000
176.676352	2277.239110	11.606247	-0.044638	2.290012
176.590243	2276.630705	11.611251	-0.044617	2.289710
176.607029	2276.574953	11.616256	-0.044621	2.289684
176.638401	2276.597702	11.621261	-0.044629	2.289697
176.529110	2276.588767	11.626266	-0.044602	2.289686
176.581060	2276.538054	11.631271	-0.044615	2.289664
176.645966	2275.951107	11.636275	-0.044631	2.289382
176.546222	2275.954707	11.641280	-0.044606	2.289378
176.699688	2275.954855	11.646285	-0.044644	2.289388
176.807259	2275.911968	11.651290	-0.044670	2.289374
176.913207	2275.382198	11.656295	-0.044696	2.289122
177.003012	2275.276297	11.661299	-0.044718	2.289076
176.870943	2275.273215	11.666304	-0.044686	2.289066
176.822678	2274.633570	11.671309	-0.044674	2.288752
176.824744	2274.607289	11.676314	-0.044674	2.288739
176.727342	2274.636525	11.681319	-0.044651	2.288747
176.663485	2274.265038	11.686323	-0.044635	2.288562
176.738697	2273.972494	11.691328	-0.044653	2.288424
176.568116	2274.024373	11.696333	-0.044612	2.288439
176.630237	2273.984522	11.701338	-0.044627	2.288423
176.662518	2273.769604	11.706343	-0.044635	2.288320
176.618971	2273.368981	11.711347	-0.044624	2.288122
176.655722	2273.334034	11.716352	-0.044633	2.288108
176.818077	2273.339405	11.721357	-0.044673	2.288121
176.633008	2273.223843	11.726362	-0.044628	2.288053
176.819093	2272.715944	11.731367	-0.044673	2.287817
176.752792	2272.719049	11.736371	-0.044657	2.287814
176.797170	2272.697835	11.741376	-0.044668	2.287807
176.811365	2272.282431	11.746381	-0.044672	2.287605
176.756724	2272.037615	11.751386	-0.044658	2.287482
176.791067	2272.048428	11.756391	-0.044667	2.287490
176.720602	2271.965678	11.761395	-0.044650	2.287445
176.689377	2271.412588	11.766400	-0.044642	2.287173
176.721129	2271.435254	11.771405	-0.044650	2.287186
176.619102	2271.427334	11.776410	-0.044625	2.287176
176.711113	2271.352571	11.781415	-0.044647	2.287145
176.662024	2270.790363	11.786419	-0.044635	2.286868
176.746075	2270.775186	11.791424	-0.044656	2.286866
176.727027	2270.793902	11.796429	-0.044651	2.286874
176.755707	2270.623099	11.801434	-0.044658	2.286792
176.824872	2270.295406	11.806439	-0.044675	2.286637
176.916433	2270.279251	11.811443	-0.044698	2.286635
176.771942	2270.208733	11.816448	-0.044663	2.286591
176.814980	2269.616759	11.821453	-0.044673	2.286305
176.832302	2269.596515	11.826458	-0.044677	2.286296
176.766675	2269.614894	11.831463	-0.044661	2.286301
176.870801	2269.100746	11.836467	-0.044687	2.286057
176.804851	2268.941681	11.841472	-0.044670	2.285975
176.918341	2268.957526	11.846477	-0.044698	2.285990
176.840091	2268.509717	11.851482	-0.044679	2.285767
176.921086	2268.295409	11.856487	-0.044699	2.285667
176.822900	2268.312592	11.861491	-0.044675	2.285669
176.788333	2267.975220	11.866496	-0.044666	2.285502
176.793244	2267.697630	11.871501	-0.044668	2.285367
176.682369	2267.690891	11.876506	-0.044641	2.285357
176.638778	2267.711515	11.881511	-0.044630	2.285364
176.761438	2267.202187	11.886515	-0.044660	2.285123
176.520836	2267.041331	11.891520	-0.044601	2.285030
176.666025	2267.059420	11.896525	-0.044637	2.285048
176.504566	2267.050005	11.901530	-0.044598	2.285033
176.660177	2266.868234	11.906535	-0.044636	2.284954
176.682396	2266.405315	11.911539	-0.044641	2.284729
176.638230	2266.396927	11.916544	-0.044630	2.284723
176.570827	2266.428961	11.921549	-0.044614	2.284734
176.563599	2266.413204	11.926554	-0.044612	2.284726
176.614796	2266.043710	11.931559	-0.044625	2.284549
176.542054	2265.782746	11.936563	-0.044607	2.284417
176.592029	2265.765930	11.941568	-0.044619	2.284412
176.817637	2265.756909	11.946573	-0.044674	2.284422
176.569555	2265.758793	11.951578	-0.044614	2.284407
176.689763	2265.144860	11.956583	-0.044643	2.284115
176.811093	2265.128651	11.961587	-0.044673	2.284114
176.648096	2265.133197	11.966592	-0.044633	2.284106
176.810399	2264.922493	11.971597	-0.044673	2.284014
176.544167	2264.470517	11.976602	-0.044608	2.283776
176.511264	2264.489103	11.981607	-0.044600	2.283783
176.553990	2264.479622	11.986611	-0.044610	2.283781
176.448047	2264.479613	11.991616	-0.044585	2.283774
176.536006	2264.500977	11.996621	-0.044606	2.283790
176.510664	2263.936200	12.001626	-0.044600	2.283513
176.398880	2263.850389	12.006631	-0.044573	2.283464
176.537917	2263.834742	12.011635	-0.044607	2.283465
176.607869	2263.807018	12.016640	-0.044624	2.283456
176.633499	2263.827236	12.021645	-0.044630	2.283468
176.605561	2263.606880	12.026650	-0.044623	2.283358
176.687876	2263.171580	12.031655	-0.044643	2.283151
176.712065	2263.172180	12.036659	-0.044649	2.283153
176.699601	2263.151049	12.041664	-0.044647	2.283142
176.836061	2262.867454	12.046669	-0.044680	2.283012
176.755839	2262.535159	12.051674	-0.044660	2.282844
176.769642	2262.537432	12.056679	-0.044664	2.282846
176.692591	2262.557299	12.061683	-0.044645	2.282851
176.592266	2261.948889	12.066688	-0.044620	2.282547
176.688595	2261.899528	12.071693	-0.044644	2.282529
176.549058	2261.903915	12.076698	-0.044610	2.282523
176.527327	2261.911459	12.081703	-0.044605	2.282525
176.696674	2261.798616	12.086707	-0.044646	2.282481
176.521783	2261.250476	12.091712	-0.044603	2.282202
176.436550	2261.289608	12.096717	-0.044583	2.282215
176.485418	2261.262404	12.101722	-0.044595	2.282205
176.501270	2261.266961	12.106727	-0.044599	2.282208
176.510072	2261.279143	12.111731	-0.044601	2.282215
176.598979	2260.945985	12.116736	-0.044623	2.282058
176.472950	2260.657164	12.121741	-0.044592	2.281909
176.422160	2260.654133	12.126746	-0.044580	2.281904
176.530880	2260.635084	12.131751	-0.044606	2.281902
176.672185	2260.629023	12.136755	-0.044641	2.281908
176.638293	2260.561542	12.141760	-0.044633	2.281872
176.614734	2260.166814	12.146765	-0.044627	2.281678
176.575910	2260.147861	12.151770	-0.044617	2.281666
176.481676	2260.158479	12.156775	-0.044595	2.281665
176.446719	2260.169025	12.161779	-0.044586	2.281668
176.514509	2260.143186	12.166784	-0.044603	2.281660
176.552934	2259.806476	12.171789	-0.044612	2.281498
176.492186	2259.478260	12.176794	-0.044597	2.281334
176.568297	2259.474633	12.181799	-0.044616	2.281337
176.589187	2259.483956	12.186803	-0.044621	2.281343
176.507799	2259.464177	12.191808	-0.044602	2.281328
176.601913	2259.373312	12.196813	-0.044625	2.281289
176.454176	2258.817793	12.201818	-0.044588	2.281008
176.424828	2258.842603	12.206823	-0.044581	2.281019
176.467157	2258.839553	12.211827	-0.044592	2.281020
176.530074	2258.807332	12.216832	-0.044607	2.281008
176.584995	2258.826890	12.221837	-0.044621	2.281021
176.597729	2258.578178	12.226842	-0.044624	2.280900
176.659430	2258.139314	12.231847	-0.044639	2.280690
176.609200	2258.163338	12.236851	-0.044627	2.280698
176.693990	2258.134645	12.241856	-0.044648	2.280690
176.737693	2258.077496	12.246861	-0.044658	2.280665
176.720717	2257.519424	12.251866	-0.044654	2.280390
176.690008	2257.531648	12.256871	-0.044647	2.280395
176.617694	2257.542921	12.261875	-0.044629	2.280395
176.650595	2257.520365	12.266880	-0.044637	2.280387
176.642556	2256.889110	12.271885	-0.044635	2.280077
176.587865	2256.868102	12.276890	-0.044622	2.280063
176.481175	2256.877805	12.281895	-0.044596	2.280061
176.630076	2256.868813	12.286899	-0.044632	2.280067
176.444713	2256.875071	12.291904	-0.044587	2.280058
176.474173	2256.462579	12.296909	-0.044594	2.279858
176.563802	2256.224683	12.301914	-0.044616	2.279747
176.416767	2256.253369	12.306919	-0.044580	2.279752
176.452371	2256.262673	12.311923	-0.044589	2.279759
176.563907	2256.215821	12.316928	-0.044617	2.279743
176.731943	2256.114393	12.321933	-0.044658	2.279704
176.654660	2255.580696	12.326938	-0.044639	2.279438
176.640477	2255.594905	12.331943	-0.044635	2.279444
176.719672	2255.602022	12.336947	-0.044655	2.279453
176.699626	2255.524205	12.341952	-0.044650	2.279413
176.721982	2254.979798	12.346957	-0.044655	2.279148
176.644858	2254.969705	12.351962	-0.044637	2.279138
176.641166	2254.973615	12.356967	-0.044636	2.279140
176.662194	2254.969833	12.361971	-0.044641	2.279140
176.564500	2254.342347	12.366976	-0.044617	2.278826
176.646258	2254.312462	12.371981	-0.044637	2.278817
176.487655	2254.309510	12.376986	-0.044598	2.278805
176.525366	2254.308330	12.381991	-0.044608	2.278807
176.500251	2254.332890	12.386995	-0.044602	2.278818
176.473367	2254.079390	12.392000	-0.044595	2.278692
176.456377	2253.698389	12.397005	-0.044591	2.278504
176.452841	2253.669129	12.402010	-0.044590	2.278490
176.539946	2253.647471	12.407015	-0.044612	2.278485
176.491981	2253.682345	12.412019	-0.044600	2.278499
176.502265	2253.644905	12.417024	-0.044603	2.278481
176.580367	2253.450714	12.422029	-0.044622	2.278391
176.554152	2253.007867	12.427034	-0.044615	2.278172
176.547123	2253.012849	12.432039	-0.044614	2.278174
176.524364	2253.030403	12.437043	-0.044608	2.278182
176.434241	2253.014373	12.442048	-0.044586	2.278168
176.511663	2253.026806	12.447053	-0.044605	2.278179
176.476747	2252.624015	12.452058	-0.044597	2.277980
176.463791	2252.407666	12.457063	-0.044594	2.277873
176.469135	2252.428238	12.462067	-0.044595	2.277883
176.427112	2252.397005	12.467072	-0.044585	2.277865
176.428815	2252.420284	12.472077	-0.044586	2.277877
176.495132	2252.406759	12.477082	-0.044602	2.277875
176.471395	2252.403727	12.482087	-0.044596	2.277872
176.606305	2251.773290	12.487091	-0.044629	2.277571
176.578237	2251.715069	12.492096	-0.044622	2.277541
176.625066	2251.736589	12.497101	-0.044634	2.277555
176.485470	2251.740417	12.502106	-0.044600	2.277548
176.491922	2251.736945	12.507111	-0.044601	2.277546
176.593208	2251.265813	12.512115	-0.044626	2.277322
176.535035	2251.082515	12.517120	-0.044612	2.277229
176.536892	2251.114368	12.522125	-0.044612	2.277244
176.380909	2251.116838	12.527130	-0.044575	2.277236
176.386920	2251.120752	12.532135	-0.044576	2.277238
176.446455	2251.118943	12.537139	-0.044591	2.277241
176.299644	2251.111932	12.542144	-0.044555	2.277228
176.400827	2250.641833	12.547149	-0.044580	2.277004
176.409853	2250.480675	12.552154	-0.044582	2.276926
176.480282	2250.474256	12.557159	-0.044599	2.276927
176.631629	2250.468406	12.562163	-0.044636	2.276934
176.561261	2250.448859	12.567168	-0.044619	2.276920
176.694749	2250.398521	12.572173	-0.044652	2.276904
176.831835	2249.988440	12.577178	-0.044685	2.276712
176.830271	2249.995253	12.582183	-0.044685	2.276715
176.916357	2249.994748	12.587187	-0.044706	2.276721
176.772576	2249.321115	12.592192	-0.044671	2.276381
176.816717	2249.333415	12.597197	-0.044682	2.276390
176.741559	2249.320235	12.602202	-0.044664	2.276379
176.631576	2249.054316	12.607207	-0.044637	2.276241
176.703226	2248.688881	12.612211	-0.044654	2.276067
176.460523	2248.688066	12.617216	-0.044595	2.276051
176.434420	2248.722922	12.622221	-0.044589	2.276066
176.465114	2248.697496	12.627226	-0.044596	2.276056
176.388782	2248.710265	12.632231	-0.044578	2.276057
176.511842	2248.421233	12.637235	-0.044608	2.275924
176.353723	2248.058523	12.642240	-0.044569	2.275736
176.377932	2248.093480	12.647245	-0.044575	2.275754
176.351761	2248.076130	12.652250	-0.044569	2.275744
176.425081	2248.057547	12.657255	-0.044587	2.275740
176.446864	2248.082634	12.662259	-0.044592	2.275754
176.397518	2248.063541	12.667264	-0.044581	2.275741
176.376006	2248.098747	12.672269	-0.044575	2.275757
176.312005	2248.086983	12.677274	-0.044560	2.275747
176.360711	2247.502440	12.682279	-0.044572	2.275464
176.355889	2247.483256	12.687283	-0.044571	2.275454
176.248303	2247.457462	12.692288	-0.044544	2.275435
176.502318	2247.456621	12.697293	-0.044607	2.275451
176.378303	2247.457804	12.702298	-0.044576	2.275443
176.428590	2247.436823	12.707303	-0.044589	2.275436
176.627285	2247.434306	12.712307	-0.044638	2.275448
176.605424	2247.114964	12.717312	-0.044632	2.275290
176.605982	2246.768842	12.722317	-0.044632	2.275120
176.633198	2246.751517	12.727322	-0.044639	2.275113
176.590420	2246.746531	12.732327	-0.044629	2.275108
176.632926	2246.764761	12.737331	-0.044639	2.275120
176.496290	2246.230081	12.742336	-0.044606	2.274849
176.543848	2246.137857	12.747341	-0.044617	2.274807
176.443739	2246.136558	12.752346	-0.044593	2.274800
176.457892	2246.141946	12.757351	-0.044597	2.274803
176.598546	2246.126325	12.762355	-0.044631	2.274805
176.330450	2246.138416	12.767360	-0.044566	2.274793
176.372702	2245.927560	12.772365	-0.044576	2.274693
176.390660	2245.501936	12.777370	-0.044580	2.274485
176.476200	2245.496708	12.782375	-0.044601	2.274488
176.644917	2245.497775	12.787379	-0.044643	2.274500
176.510785	2245.483432	12.792384	-0.044610	2.274484
176.609893	2245.501564	12.797389	-0.044634	2.274499
176.544067	2245.203384	12.802394	-0.044618	2.274349
176.528294	2244.877677	12.807399	-0.044614	2.274188
176.517193	2244.882232	12.812403	-0.044612	2.274190
176.408840	2244.887109	12.817408	-0.044586	2.274185
176.619019	2244.876380	12.822413	-0.044637	2.274193
176.583208	2244.858082	12.827418	-0.044628	2.274182
176.690651	2244.219161	12.832423	-0.044654	2.273875
176.686767	2244.199550	12.837427	-0.044654	2.273866
176.444664	2244.198401	12.842432	-0.044595	2.273850
176.465685	2244.224516	12.847437	-0.044600	2.273864
176.543795	2244.199579	12.852442	-0.044619	2.273857
176.441853	2243.763088	12.857447	-0.044594	2.273636
176.372501	2243.586029	12.862451	-0.044577	2.273545
176.383801	2243.563161	12.867456	-0.044580	2.273534
176.402916	2243.585387	12.872461	-0.044585	2.273546
176.427288	2243.564624	12.877466	-0.044591	2.273538
176.389124	2243.565725	12.882471	-0.044582	2.273536
176.405387	2243.580054	12.887475	-0.044586	2.273544
176.297191	2243.572196	12.892480	-0.044560	2.273533
176.269925	2243.601766	12.897485	-0.044553	2.273546
176.319312	2243.285456	12.902490	-0.044565	2.273394
176.355755	2242.929837	12.907495	-0.044574	2.273222
176.467059	2242.935217	12.912499	-0.044601	2.273232
176.498827	2242.904266	12.917504	-0.044609	2.273218
176.534552	2242.926856	12.922509	-0.044618	2.273232
176.544615	2242.910513	12.927514	-0.044621	2.273225
176.480336	2242.911855	12.932519	-0.044605	2.273221
176.463476	2242.341300	12.937523	-0.044601	2.272940
176.367366	2242.310247	12.942528	-0.044577	2.272919
176.449271	2242.319472	12.947533	-0.044597	2.272928
176.533239	2242.298539	12.952538	-0.044618	2.272924
176.493830	2242.295354	12.957543	-0.044609	2.272919
176.492309	2242.321547	12.962547	-0.044608	2.272932
176.399172	2242.057048	12.967552	-0.044586	2.272796
176.422856	2241.674261	12.972557	-0.044591	2.272610
176.322643	2241.667598	12.977562	-0.044567	2.272600
176.338430	2241.653370	12.982567	-0.044571	2.272594
176.632339	2241.644359	12.987571	-0.044643	2.272609
176.474149	2241.636706	12.992576	-0.044604	2.272595
176.468111	2241.651087	12.997581	-0.044603	2.272602
176.372986	2241.652341	13.002586	-0.044580	2.272596
176.407354	2241.013885	13.007591	-0.044588	2.272285
176.437129	2241.029931	13.012595	-0.044595	2.272295
176.265080	2241.023147	13.017600	-0.044554	2.272281
176.466376	2241.025941	13.022605	-0.044603	2.272295
176.426927	2241.015772	13.027610	-0.044593	2.272287
176.352145	2241.017542	13.032615	-0.044575	2.272284
176.465407	2241.022333	13.037619	-0.044603	2.272293
176.321376	2241.020461	13.042624	-0.044568	2.272283
176.457528	2240.671019	13.047629	-0.044601	2.272120
176.441865	2240.382807	13.052634	-0.044597	2.271978
176.386455	2240.389670	13.057639	-0.044584	2.271978
176.489150	2240.396476	13.062643	-0.044609	2.271988
176.395774	2240.372717	13.067648	-0.044587	2.271970
176.527812	2240.381717	13.072653	-0.044619	2.271983
176.401368	2240.387398	13.077658	-0.044588	2.271978
176.307291	2240.123463	13.082663	-0.044565	2.271842
176.440173	2239.896542	13.087667	-0.044598	2.271739
176.583787	2239.858577	13.092672	-0.044633	2.271730
176.426473	2239.900085	13.097677	-0.044595	2.271740
176.523062	2239.871142	13.102682	-0.044618	2.271732
176.435502	2239.873002	13.107687	-0.044597	2.271727
176.509878	2239.896545	13.112691	-0.044615	2.271744
176.369807	2239.272287	13.117696	-0.044581	2.271428
176.434136	2239.214844	13.122701	-0.044597	2.271404
176.363886	2239.216345	13.127706	-0.044580	2.271400
176.295308	2239.219851	13.132711	-0.044563	2.271398
176.391752	2239.234459	13.137715	-0.044587	2.271411
176.215907	2239.242490	13.142720	-0.044544	2.271404
176.381024	2239.224902	13.147725	-0.044584	2.271406
176.353028	2239.224361	13.152730	-0.044578	2.271404
176.223146	2239.231454	13.157735	-0.044546	2.271399
176.420135	2239.232248	13.162739	-0.044594	2.271412
176.292087	2238.655121	13.167744	-0.044563	2.271120
176.425741	2238.574936	13.172749	-0.044596	2.271090
176.236188	2238.580004	13.177754	-0.044550	2.271080
176.379316	2238.558305	13.182759	-0.044585	2.271078
176.404128	2238.571494	13.187763	-0.044591	2.271087
176.510566	2238.526646	13.192768	-0.044617	2.271071
176.551654	2238.551998	13.197773	-0.044627	2.271087
176.412026	2238.560372	13.202778	-0.044593	2.271082
176.370881	2238.109172	13.207783	-0.044583	2.270857
176.452791	2237.923640	13.212787	-0.044603	2.270772
176.497970	2237.894449	13.217792	-0.044614	2.270760
176.552193	2237.906956	13.222797	-0.044628	2.270770
176.607022	2237.889207	13.227802	-0.044641	2.270765
176.535047	2237.886809	13.232807	-0.044624	2.270759
176.611079	2237.373938	13.237811	-0.044642	2.270512
176.422056	2237.278899	13.242816	-0.044596	2.270453
176.469150	2237.305359	13.247821	-0.044608	2.270469
176.422046	2237.298434	13.252826	-0.044596	2.270463
176.465896	2237.286888	13.257831	-0.044607	2.270460
176.408091	2237.314079	13.262835	-0.044593	2.270470
176.375739	2237.300773	13.267840	-0.044585	2.270461
176.383566	2236.685443	13.272845	-0.044587	2.270159
176.394870	2236.640374	13.277850	-0.044590	2.270138
176.424226	2236.628823	13.282855	-0.044597	2.270134
176.550490	2236.639181	13.287859	-0.044628	2.270147
176.435644	2236.624627	13.292864	-0.044600	2.270133
176.523144	2236.638797	13.297869	-0.044622	2.270145
176.564672	2236.409389	13.302874	-0.044632	2.270035
176.474111	2235.986473	13.307879	-0.044610	2.269822
176.534636	2236.001318	13.312883	-0.044625	2.269833
176.485155	2235.980738	13.317888	-0.044613	2.269820
176.679066	2235.982535	13.322893	-0.044660	2.269833
176.593771	2235.953633	13.327898	-0.044639	2.269813
176.653930	2235.323673	13.332903	-0.044654	2.269507
176.698567	2235.343773	13.337907	-0.044665	2.269520
176.454961	2235.337548	13.342912	-0.044606	2.269502
176.435896	2235.362193	13.347917	-0.044601	2.269512
176.527273	2235.354573	13.352922	-0.044624	2.269515
176.494284	2234.906747	13.357927	-0.044615	2.269292
176.533544	2234.743112	13.362931	-0.044625	2.269214
176.439045	2234.735113	13.367936	-0.044602	2.269204
176.532110	2234.737110	13.372941	-0.044625	2.269211
176.559029	2234.725880	13.377946	-0.044632	2.269208
176.424543	2234.737412	13.382951	-0.044599	2.269205
176.589210	2234.255466	13.387955	-0.044639	2.268978
176.390808	2234.062410	13.392960	-0.044590	2.268871
176.666044	2234.048437	13.397965	-0.044658	2.268882
176.483840	2234.066867	13.402970	-0.044613	2.268879
176.466155	2234.056095	13.407975	-0.044609	2.268873
176.486398	2234.075260	13.412979	-0.044614	2.268883
176.600971	2233.448885	13.417984	-0.044642	2.268583
176.500315	2233.429644	13.422989	-0.044618	2.268567
176.529295	2233.409894	13.427994	-0.044625	2.268559
176.506539	2233.406137	13.432999	-0.044619	2.268556
176.547925	2233.432044	13.438003	-0.044630	2.268571
176.537287	2233.173775	13.443008	-0.044627	2.268443
176.424776	2232.788004	13.448013	-0.044599	2.268246
176.355996	2232.806153	13.453018	-0.044583	2.268251
176.359487	2232.784039	13.458023	-0.044584	2.268240
176.463767	2232.795341	13.463027	-0.044609	2.268253
176.462069	2232.765657	13.468032	-0.044609	2.268238
176.463966	2232.783733	13.473037	-0.044610	2.268247
176.478541	2232.726212	13.478042	-0.044613	2.268220
176.428844	2232.153617	13.483047	-0.044601	2.267935
176.556936	2232.166865	13.488051	-0.044633	2.267950
176.566925	2232.141680	13.493056	-0.044635	2.267938
176.416667	2232.173378	13.498061	-0.044599	2.267944
176.404071	2232.177173	13.503066	-0.044596	2.267945
176.341597	2232.168796	13.508071	-0.044581	2.267937
176.432790	2231.949263	13.513075	-0.044603	2.267835
176.330298	2231.516293	13.518080	-0.044578	2.267615
176.486443	2231.522362	13.523085	-0.044616	2.267628
176.441571	2231.530076	13.528090	-0.044605	2.267629
176.510762	2231.503466	13.533095	-0.044622	2.267621
176.547266	2231.526193	13.538099	-0.044631	2.267634
176.512140	2231.498368	13.543104	-0.044623	2.267618
176.605751	2230.974989	13.548109	-0.044645	2.267367
176.766010	2230.836196	13.553114	-0.044685	2.267309
176.687373	2230.838194	13.558119	-0.044666	2.267305
176.686866	2230.866093	13.563123	-0.044666	2.267319
176.505595	2230.349377	13.568128	-0.044621	2.267053
176.610510	2230.244821	13.573133	-0.044647	2.267008
176.653591	2230.237181	13.578138	-0.044657	2.267007
176.446690	2230.248414	13.583143	-0.044607	2.266999
176.385874	2230.281056	13.588147	-0.044592	2.267011
176.337208	2230.261679	13.593152	-0.044581	2.266999
176.258925	2230.148835	13.598157	-0.044562	2.266938
176.189853	2229.840717	13.603162	-0.044545	2.266782
176.151927	2229.821836	13.608167	-0.044535	2.266770
176.298664	2229.836099	13.613171	-0.044571	2.266787
176.289342	2229.812510	13.618176	-0.044569	2.266775
176.399339	2229.807181	13.623181	-0.044596	2.266779
176.388570	2229.814540	13.628186	-0.044594	2.266782
176.370423	2229.797818	13.633191	-0.044590	2.266773
176.449686	2229.809209	13.638195	-0.044609	2.266784
176.430178	2229.793617	13.643200	-0.044604	2.266775
176.411176	2229.809985	13.648205	-0.044600	2.266782
176.435681	2229.309502	13.653210	-0.044606	2.266537
176.490743	2229.101492	13.658215	-0.044619	2.266438
176.340620	2229.148397	13.663219	-0.044583	2.266451
176.465814	2229.100803	13.668224	-0.044613	2.266436
176.460113	2229.116056	13.673229	-0.044612	2.266443
176.462910	2229.127023	13.678234	-0.044613	2.266449
176.423948	2229.107014	13.683239	-0.044604	2.266437
176.378961	2228.720985	13.688243	-0.044593	2.266244
176.361162	2228.474069	13.693248	-0.044588	2.266121
176.459151	2228.472213	13.698253	-0.044612	2.266126
176.284743	2228.494093	13.703258	-0.044570	2.266126
176.338036	2228.469260	13.708263	-0.044583	2.266117
176.365243	2228.482725	13.713267	-0.044590	2.266126
176.299210	2228.483078	13.718272	-0.044574	2.266122
176.277366	2228.488087	13.723277	-0.044569	2.266123
176.210998	2228.500529	13.728282	-0.044553	2.266125
176.285656	2228.468135	13.733287	-0.044571	2.266114
176.285941	2228.505108	13.738291	-0.044571	2.266132
176.265074	2228.476386	13.743296	-0.044566	2.266116
176.144714	2228.222355	13.748301	-0.044537	2.265984
176.266438	2227.891210	13.753306	-0.044566	2.265828
176.386554	2227.818296	13.758311	-0.044596	2.265800
176.279534	2227.852563	13.763315	-0.044570	2.265810
176.281847	2227.830309	13.768320	-0.044571	2.265799
176.381084	2227.831772	13.773325	-0.044595	2.265807
176.372335	2227.837596	13.778330	-0.044593	2.265809
176.308010	2227.827267	13.783335	-0.044577	2.265800
176.495256	2227.821287	13.788339	-0.044623	2.265809
176.446151	2227.808641	13.793344	-0.044611	2.265800
176.506352	2227.432356	13.798349	-0.044626	2.265618
176.451705	2227.210634	13.803354	-0.044613	2.265506
176.394914	2227.204389	13.808359	-0.044599	2.265499
176.417054	2227.230240	13.813363	-0.044604	2.265513
176.423389	2227.184642	13.818368	-0.044606	2.265491
176.312909	2227.220630	13.823373	-0.044579	2.265502
176.335598	2227.229295	13.828378	-0.044585	2.265507
176.195736	2227.221606	13.833383	-0.044551	2.265495
176.341635	2227.235632	13.838387	-0.044587	2.265511
176.268451	2227.216329	13.843392	-0.044569	2.265497
176.279558	2226.571490	13.848397	-0.044571	2.265180
176.244251	2226.578902	13.853402	-0.044563	2.265181
176.224112	2226.560872	13.858407	-0.044558	2.265171
176.291005	2226.569113	13.863411	-0.044575	2.265180
176.199496	2226.555710	13.868416	-0.044552	2.265167
176.259230	2226.567743	13.873421	-0.044567	2.265177
176.399898	2226.554247	13.878426	-0.044602	2.265179
176.275990	2226.546369	13.883431	-0.044572	2.265168
176.386683	2226.569767	13.888435	-0.044599	2.265186
176.433601	2226.533101	13.893440	-0.044610	2.265171
176.334185	2226.547354	13.898445	-0.044586	2.265172
176.365466	2226.553621	13.903450	-0.044594	2.265177
176.354367	2225.924146	13.908455	-0.044591	2.264866
176.470520	2225.909750	13.913459	-0.044620	2.264867
176.382974	2225.899949	13.918464	-0.044598	2.264856
176.295891	2225.923038	13.923469	-0.044577	2.264862
176.336026	2225.918951	13.928474	-0.044587	2.264863
176.233184	2225.916864	13.933479	-0.044562	2.264855
176.181022	2225.953422	13.938483	-0.044550	2.264870
176.068180	2225.936491	13.943488	-0.044522	2.264854
176.137365	2225.939357	13.948493	-0.044539	2.264860
176.050813	2225.965228	13.953498	-0.044518	2.264867
176.135310	2225.934082	13.958503	-0.044539	2.264857
176.237469	2225.946555	13.963507	-0.044564	2.264870
176.134985	2225.938084	13.968512	-0.044539	2.264859
176.269552	2225.928555	13.973517	-0.044572	2.264863
176.232704	2225.930467	13.978522	-0.044563	2.264862
176.212882	2225.920003	13.983527	-0.044559	2.264856
176.228797	2225.937158	13.988531	-0.044563	2.264865
176.047712	2225.941553	13.993536	-0.044519	2.264856
176.091864	2225.943274	13.998541	-0.044530	2.264859
176.009120	2225.964209	14.003546	-0.044510	2.264864
176.109262	2225.921819	14.008551	-0.044534	2.264850
176.094501	2225.955995	14.013555	-0.044531	2.264866
176.126407	2225.925742	14.018560	-0.044539	2.264853
176.033485	2225.952133	14.023565	-0.044516	2.264860
176.060625	2225.961160	14.028570	-0.044523	2.264866
176.104492	2225.929968	14.033575	-0.044534	2.264854
176.110072	2225.958620	14.038579	-0.044535	2.264868
176.111049	2225.936234	14.043584	-0.044536	2.264858
176.156485	2225.942539	14.048589	-0.044547	2.264864
176.311122	2225.931322	14.053594	-0.044585	2.264868
176.324524	2225.906353	14.058599	-0.044588	2.264857
176.447944	2225.851081	14.063603	-0.044618	2.264838
176.361679	2225.282266	14.068608	-0.044597	2.264552
176.392488	2225.279086	14.073613	-0.044605	2.264552
176.355195	2225.282959	14.078618	-0.044596	2.264552
176.211235	2225.284063	14.083623	-0.044561	2.264543
176.414099	2225.289629	14.088627	-0.044611	2.264559
176.194246	2225.285504	14.093632	-0.044557	2.264543
176.166903	2225.300423	14.098637	-0.044550	2.264548
176.261318	2225.291733	14.103642	-0.044574	2.264550
176.119652	2225.293487	14.108647	-0.044539	2.264542
176.073640	2225.322581	14.113651	-0.044528	2.264553
176.012837	2225.309586	14.118656	-0.044513	2.264543
176.115868	2225.310852	14.123661	-0.044539	2.264550
176.091184	2225.310532	14.128666	-0.044533	2.264549
176.024265	2225.299926	14.133671	-0.044517	2.264539
176.088703	2225.321470	14.138675	-0.044533	2.264554
175.982253	2225.310674	14.143680	-0.044507	2.264542
176.192936	2225.291452	14.148685	-0.044558	2.264546
176.225306	2225.293770	14.153690	-0.044566	2.264549
176.147008	2225.289411	14.158695	-0.044547	2.264542
176.206334	2225.304341	14.163699	-0.044562	2.264553
176.334823	2225.263612	14.168704	-0.044593	2.264542
176.269060	2225.287700	14.173709	-0.044578	2.264549
176.233256	2225.301197	14.178714	-0.044569	2.264554
176.191126	2225.279412	14.183719	-0.044559	2.264540
176.263183	2225.296787	14.188723	-0.044577	2.264553
176.158689	2225.293020	14.193728	-0.044551	2.264545
176.272394	2225.283062	14.198733	-0.044579	2.264547
176.265563	2224.923392	14.203738	-0.044577	2.264370
176.157057	2224.671506	14.208743	-0.044551	2.264239
176.209926	2224.682530	14.213747	-0.044564	2.264248
176.217696	2224.671927	14.218752	-0.044566	2.264243
176.239715	2224.677504	14.223757	-0.044571	2.264247
176.174164	2224.704414	14.228762	-0.044556	2.264256
176.070171	2224.692984	14.233767	-0.044530	2.264244
176.204580	2224.703423	14.238771	-0.044563	2.264258
176.170912	2224.689716	14.243776	-0.044555	2.264249
176.185380	2224.689634	14.248781	-0.044559	2.264250
176.239761	2224.688740	14.253786	-0.044572	2.264253
176.278903	2224.669261	14.258791	-0.044582	2.264246
176.342538	2224.685521	14.263795	-0.044598	2.264258
176.239438	2224.682842	14.268800	-0.044573	2.264250
176.203162	2224.687215	14.273805	-0.044564	2.264250
176.381700	2224.682034	14.278810	-0.044608	2.264259
176.276678	2224.667254	14.283815	-0.044582	2.264245
176.365114	2224.682471	14.288819	-0.044604	2.264258
176.402061	2224.655679	14.293824	-0.044613	2.264247
176.308386	2224.018951	14.298829	-0.044590	2.263928
176.379553	2224.006030	14.303834	-0.044608	2.263926
176.333212	2223.997476	14.308839	-0.044596	2.263919
176.389757	2224.014663	14.313843	-0.044610	2.263931
176.374238	2223.993505	14.318848	-0.044607	2.263919
176.345646	2223.991801	14.323853	-0.044600	2.263917
176.463018	2223.997824	14.328858	-0.044629	2.263927
176.423980	2223.969941	14.333863	-0.044619	2.263911
176.459931	2223.653196	14.338867	-0.044628	2.263757
176.390848	2223.341735	14.343872	-0.044611	2.263599
176.402326	2223.340146	14.348877	-0.044614	2.263599
176.434826	2223.352892	14.353882	-0.044622	2.263608
176.314681	2223.348346	14.358887	-0.044593	2.263598
176.360155	2223.362236	14.363891	-0.044604	2.263608
176.339875	2223.351207	14.368896	-0.044599	2.263601
176.248633	2223.355843	14.373901	-0.044577	2.263597
176.152279	2223.388384	14.378906	-0.044554	2.263607
176.054901	2223.367862	14.383911	-0.044530	2.263591
176.044597	2223.393520	14.388915	-0.044528	2.263603
176.117813	2223.369562	14.393920	-0.044546	2.263596
176.112007	2223.372779	14.398925	-0.044545	2.263597
176.089869	2223.396827	14.403930	-0.044539	2.263608
176.119041	2223.365995	14.408935	-0.044547	2.263594
176.282216	2223.371055	14.413939	-0.044587	2.263607
176.296449	2223.348838	14.418944	-0.044590	2.263597
176.308332	2223.338329	14.423949	-0.044593	2.263593
176.367429	2222.936578	14.428954	-0.044608	2.263399
176.381411	2222.684531	14.433959	-0.044611	2.263275
176.453356	2222.699368	14.438963	-0.044629	2.263287
176.420468	2222.691899	14.443968	-0.044621	2.263282
176.412216	2222.691638	14.448973	-0.044619	2.263281
176.362058	2222.718419	14.453978	-0.044607	2.263291
176.328411	2222.697436	14.458983	-0.044599	2.263279
176.363079	2222.719708	14.463987	-0.044607	2.263292
176.145358	2222.730851	14.468992	-0.044554	2.263283
176.103773	2222.734342	14.473997	-0.044544	2.263282
176.276726	2222.734310	14.479002	-0.044587	2.263294
176.222999	2222.236331	14.484007	-0.044573	2.263045
176.104146	2222.137287	14.489011	-0.044544	2.262988
176.122705	2222.124319	14.494016	-0.044549	2.262983
176.113625	2222.120369	14.499021	-0.044547	2.262980
176.328302	2222.107878	14.504026	-0.044600	2.262988
176.293077	2222.087106	14.509031	-0.044591	2.262976
176.337697	2222.112814	14.514035	-0.044602	2.262991
176.273448	2222.097126	14.519040	-0.044587	2.262980
176.269201	2222.092857	14.524045	-0.044586	2.262977
176.338183	2222.103647	14.529050	-0.044603	2.262987
176.334083	2222.076248	14.534055	-0.044602	2.262973
176.337681	2222.099755	14.539059	-0.044603	2.262985
176.246519	2222.104386	14.544064	-0.044581	2.262982
176.295074	2222.088422	14.549069	-0.044593	2.262977
176.218915	2222.124319	14.554074	-0.044574	2.262990
176.243068	2222.082441	14.559079	-0.044580	2.262971
176.319284	2221.918803	14.564083	-0.044599	2.262895
176.317596	2221.438440	14.569088	-0.044598	2.262658
176.141413	2221.459640	14.574093	-0.044556	2.262657
176.248748	2221.463797	14.579098	-0.044582	2.262666
176.218877	2221.448656	14.584103	-0.044575	2.262657
176.199598	2221.478017	14.589107	-0.044570	2.262670
176.189587	2221.458048	14.594112	-0.044568	2.262660
176.280422	2221.444435	14.599117	-0.044590	2.262659
176.403451	2221.448110	14.604122	-0.044620	2.262669
176.236798	2221.439570	14.609127	-0.044580	2.262654
176.381465	2221.444829	14.614131	-0.044615	2.262666
176.545669	2221.411751	14.619136	-0.044656	2.262660
176.444348	2221.428800	14.624141	-0.044631	2.262662
176.266937	2221.089024	14.629146	-0.044588	2.262483
176.269473	2220.790480	14.634151	-0.044588	2.262336
176.209226	2220.833457	14.639155	-0.044574	2.262353
176.213854	2220.825489	14.644160	-0.044575	2.262349
176.183222	2220.825009	14.649165	-0.044568	2.262347
176.235473	2220.835777	14.654170	-0.044580	2.262356
176.116997	2220.820272	14.659175	-0.044552	2.262341
176.395443	2220.807606	14.664179	-0.044620	2.262353
176.454606	2220.782651	14.669184	-0.044634	2.262344
176.352206	2220.800160	14.674189	-0.044610	2.262346
176.329874	2220.815362	14.679194	-0.044604	2.262352
176.343694	2220.797639	14.684199	-0.044608	2.262344
176.415839	2220.819398	14.689203	-0.044626	2.262360
176.410820	2220.571864	14.694208	-0.044624	2.262238
176.407332	2220.168136	14.699213	-0.044623	2.262038
176.321028	2220.198084	14.704218	-0.044602	2.262047
176.301407	2220.180334	14.709223	-0.044598	2.262037
176.333905	2220.193698	14.714227	-0.044606	2.262046
176.229600	2220.186460	14.719232	-0.044580	2.262036
176.190838	2220.194013	14.724237	-0.044571	2.262037
176.255687	2220.198057	14.729242	-0.044587	2.262043
176.233219	2220.177517	14.734247	-0.044582	2.262032
176.227813	2220.201249	14.739251	-0.044581	2.262043
176.338741	2220.178027	14.744256	-0.044608	2.262039
176.381916	2220.171949	14.749261	-0.044619	2.262039
176.377547	2220.113588	14.754266	-0.044618	2.262010
176.447392	2219.688859	14.759271	-0.044635	2.261805
176.376438	2219.720266	14.764275	-0.044617	2.261816
176.398122	2219.703410	14.769280	-0.044623	2.261809
176.385452	2219.705314	14.774285	-0.044620	2.261809
176.405012	2219.718797	14.779290	-0.044625	2.261817
176.392293	2219.689067	14.784295	-0.044622	2.261802
176.275568	2219.730612	14.789299	-0.044593	2.261815
176.280582	2219.720380	14.794304	-0.044595	2.261810
176.350038	2219.616239	14.799309	-0.044612	2.261763
176.225567	2219.079197	14.804314	-0.044581	2.261490
176.229576	2219.050750	14.809319	-0.044582	2.261476
176.272828	2219.066489	14.814323	-0.044593	2.261487
176.292558	2219.048944	14.819328	-0.044598	2.261480
176.164359	2219.067637	14.824333	-0.044567	2.261480
176.188161	2219.078028	14.829338	-0.044573	2.261487

176.237859	2219.039771	14.834343	-0.044585	2.261472
176.338602	2219.065658	14.839347	-0.044610	2.261491
176.368640	2218.818666	14.844352	-0.044617	2.261371
176.410908	2218.375541	14.849357	-0.044627	2.261155
176.457578	2218.224764	14.854362	-0.044639	2.261084
176.410257	2217.734661	14.859367	-0.044627	2.260839
176.514144	2217.330326	14.864371	-0.044652	2.260646
176.534000	2216.863095	14.869376	-0.044657	2.260417
176.456097	2216.316146	14.874381	-0.044638	2.260142
176.458195	2215.748929	14.879386	-0.044638	2.259862
176.269663	2215.161063	14.884391	-0.044592	2.259559
176.319467	2214.542199	14.889395	-0.044603	2.259257
176.127243	2213.871253	14.894400	-0.044556	2.258913
175.922367	2213.246637	14.899405	-0.044506	2.258591
176.133392	2212.517385	14.904410	-0.044557	2.258245
175.884895	2211.808703	14.909415	-0.044496	2.257878
175.915809	2211.067098	14.914419	-0.044503	2.257514
175.997124	2210.253919	14.919424	-0.044523	2.257117
175.809259	2209.477332	14.924429	-0.044476	2.256721
175.909080	2208.644001	14.929434	-0.044500	2.256315
175.937731	2207.581005	14.934439	-0.044507	2.255792
175.924384	2206.652833	14.939443	-0.044503	2.255332
176.021323	2205.511889	14.944448	-0.044526	2.254773
175.846760	2204.423785	14.949453	-0.044483	2.254223
176.056490	2203.259983	14.954458	-0.044533	2.253661
175.991246	2202.010491	14.959463	-0.044516	2.253038
176.138828	2200.735115	14.964467	-0.044552	2.252416
176.002775	2199.496626	14.969472	-0.044518	2.251793
175.972671	2198.116318	14.974477	-0.044510	2.251107
175.977001	2196.744786	14.979482	-0.044510	2.250428
175.622876	2195.310321	14.984487	-0.044422	2.249693
175.624721	2193.921432	14.989491	-0.044422	2.249004
175.688369	2192.473520	14.994496	-0.044437	2.248290
175.608569	2190.928732	14.999501	-0.044416	2.247518
175.445008	2189.578815	15.004506	-0.044376	2.246837
175.364103	2188.029227	15.009511	-0.044355	2.246062
175.387770	2186.461296	15.014515	-0.044360	2.245284
175.358785	2184.860071	15.019520	-0.044352	2.244486
175.369908	2183.169985	15.024525	-0.044353	2.243647
175.475518	2181.441950	15.029530	-0.044378	2.242794
175.437066	2179.711103	15.034535	-0.044367	2.241930
175.514291	2177.919168	15.039539	-0.044385	2.241043
175.460779	2176.018392	15.044544	-0.044371	2.240093
175.510844	2174.070207	15.049549	-0.044382	2.239126
175.238379	2172.146650	15.054554	-0.044314	2.238149
175.069599	2170.276217	15.059559	-0.044272	2.237205
175.129364	2168.398080	15.064563	-0.044285	2.236272
174.938561	2166.410872	15.069568	-0.044237	2.235267
174.870942	2164.383179	15.074573	-0.044219	2.234250
174.739894	2162.396738	15.079578	-0.044186	2.233249
174.715188	2160.359563	15.084583	-0.044179	2.232229
174.673648	2158.302784	15.089587	-0.044167	2.231198
174.705994	2156.186256	15.094592	-0.044174	2.230142
174.531737	2153.987618	15.099597	-0.044130	2.229030
174.637972	2151.830555	15.104602	-0.044155	2.227957
174.521075	2149.624899	15.109607	-0.044125	2.226844
174.688450	2147.369285	15.114611	-0.044164	2.225724
174.682145	2145.004199	15.119616	-0.044161	2.224538
174.628971	2142.567033	15.124621	-0.044146	2.223311
174.659183	2140.208333	15.129626	-0.044152	2.222129
174.638811	2137.716618	15.134631	-0.044146	2.220876
174.651630	2135.173119	15.139635	-0.044147	2.219599
174.440892	2132.617934	15.144640	-0.044094	2.218299
174.318785	2130.157530	15.149645	-0.044063	2.217053
174.442950	2127.607819	15.154650	-0.044091	2.215778
174.127114	2124.983916	15.159655	-0.044012	2.214435
173.978083	2122.375475	15.164659	-0.043974	2.213110
173.942881	2119.813032	15.169664	-0.043964	2.211815
173.688852	2117.198062	15.174669	-0.043900	2.210478
173.729502	2114.551854	15.179674	-0.043908	2.209144
173.480878	2111.876722	15.184679	-0.043846	2.207775
173.539811	2109.308139	15.189683	-0.043859	2.206481
173.476777	2106.573666	15.194688	-0.043841	2.205093
173.516062	2103.730334	15.199693	-0.043849	2.203656
173.496360	2101.000313	15.204698	-0.043843	2.202272
173.346525	2098.180620	15.209703	-0.043804	2.200832
173.317675	2095.300614	15.214707	-0.043795	2.199370
173.351878	2092.398937	15.219712	-0.043802	2.197899
173.177130	2089.612274	15.224717	-0.043757	2.196472
173.300764	2086.619107	15.229722	-0.043785	2.194959
173.240404	2083.527120	15.234727	-0.043769	2.193382
173.160973	2080.588040	15.239731	-0.043747	2.191881
173.074651	2077.526010	15.244736	-0.043724	2.190315
173.075237	2074.347546	15.249741	-0.043722	2.188695
172.885894	2071.361219	15.254746	-0.043674	2.187159
172.738428	2068.241117	15.259751	-0.043636	2.185556
172.768216	2065.057986	15.264755	-0.043641	2.183932
172.637585	2061.970486	15.269760	-0.043607	2.182345
172.380744	2058.817365	15.274765	-0.043542	2.180714
172.377819	2055.624129	15.279770	-0.043539	2.179079
172.190913	2052.458699	15.284775	-0.043492	2.177444
172.144240	2049.300899	15.289779	-0.043478	2.175822
172.045045	2046.051682	15.294784	-0.043452	2.174148
172.066504	2042.759634	15.299789	-0.043455	2.172459
171.990638	2039.513818	15.304794	-0.043434	2.170785
171.847184	2036.132336	15.309799	-0.043397	2.169036
171.893429	2032.851012	15.314803	-0.043406	2.167350
171.719618	2029.506983	15.319808	-0.043361	2.165615
171.580790	2026.072513	15.324813	-0.043325	2.163835
171.619587	2022.750186	15.329818	-0.043332	2.162123
171.546284	2019.274856	15.334823	-0.043312	2.160324
171.580614	2015.751116	15.339827	-0.043318	2.158505
171.419580	2012.386625	15.344832	-0.043277	2.156753
171.361509	2008.822362	15.349837	-0.043260	2.154904
171.323880	2005.292992	15.354842	-0.043248	2.153072
171.204801	2001.719497	15.359847	-0.043217	2.151211
171.051206	1998.144579	15.364851	-0.043177	2.149344
170.969800	1994.599189	15.369856	-0.043155	2.147497
170.873290	1990.988442	15.374861	-0.043129	2.145612
170.841473	1987.348263	15.379866	-0.043119	2.143716
170.611013	1983.779854	15.384871	-0.043060	2.141840
170.495613	1980.114903	15.389875	-0.043029	2.139922
170.362157	1976.507811	15.394880	-0.042994	2.138030
170.211549	1972.914999	15.399885	-0.042955	2.136143
170.399440	1969.161404	15.404890	-0.042998	2.134194
170.071243	1965.485271	15.409895	-0.042916	2.132247
170.021857	1961.755363	15.414899	-0.042901	2.130290
169.962891	1957.996893	15.419904	-0.042884	2.128316
169.799259	1954.282382	15.424909	-0.042842	2.126355
169.906897	1950.471147	15.429914	-0.042866	2.124361
169.727103	1946.650120	15.434919	-0.042819	2.122340
169.710630	1942.841132	15.439923	-0.042812	2.120334
169.523784	1938.993787	15.444928	-0.042764	2.118295
169.336770	1935.218016	15.449933	-0.042716	2.116290
169.406004	1931.314224	15.454938	-0.042730	2.114236
169.219436	1927.453571	15.459943	-0.042682	2.112183
169.101000	1923.527872	15.464947	-0.042651	2.110098
168.975833	1919.657747	15.469952	-0.042617	2.108041
168.904502	1915.736173	15.474957	-0.042597	2.105958
168.879218	1911.771136	15.479962	-0.042589	2.103854
168.734973	1907.856784	15.484967	-0.042551	2.101766
168.613546	1903.826002	15.489971	-0.042518	2.099615
168.514037	1899.913936	15.494976	-0.042491	2.097527
168.438857	1895.874018	15.499981	-0.042470	2.095370
168.398670	1891.863503	15.504986	-0.042458	2.093230
168.203350	1887.798880	15.509991	-0.042407	2.091046
167.993916	1883.747582	15.514995	-0.042353	2.088867
167.997891	1879.758539	15.520000	-0.042352	2.086735
167.935053	1875.607241	15.525005	-0.042334	2.084508
167.835454	1871.595196	15.530010	-0.042307	2.082351
167.600095	1867.457943	15.535015	-0.042246	2.080114
167.541755	1863.414602	15.540019	-0.042229	2.077939
167.417730	1859.323014	15.545024	-0.042196	2.075731
167.247502	1855.170483	15.550029	-0.042152	2.073483
167.183683	1851.088775	15.555034	-0.042133	2.071280
167.057714	1846.882844	15.560039	-0.042100	2.069003
167.069270	1842.792346	15.565043	-0.042100	2.066796
166.992076	1838.531206	15.570048	-0.042078	2.064487
166.835038	1834.374216	15.575053	-0.042037	2.062226
166.771233	1830.150049	15.580058	-0.042019	2.059933
166.760688	1825.928461	15.585063	-0.042013	2.057644
166.642368	1821.659742	15.590067	-0.041981	2.055317
166.609658	1817.363544	15.595072	-0.041971	2.052980
166.301934	1813.071528	15.600077	-0.041892	2.050621
166.320284	1808.800233	15.605082	-0.041894	2.048296
166.120736	1804.499838	15.610087	-0.041842	2.045936
165.967983	1800.200906	15.615091	-0.041802	2.043577
165.979708	1795.907600	15.620096	-0.041802	2.041231
165.733286	1791.571427	15.625101	-0.041739	2.038839
165.811531	1787.265708	15.630106	-0.041755	2.036487
165.520870	1782.887008	15.635111	-0.041681	2.034062
165.424996	1778.585251	15.640115	-0.041655	2.031692
165.212138	1774.210392	15.645120	-0.041600	2.029270
165.030279	1769.910052	15.650125	-0.041553	2.026889
164.985765	1765.546838	15.655130	-0.041539	2.024481
164.870470	1761.240084	15.660135	-0.041508	2.022096
164.754659	1756.814836	15.665139	-0.041476	2.019642
164.624025	1752.506608	15.670144	-0.041442	2.017249
164.563149	1748.030009	15.675149	-0.041424	2.014765
164.584082	1743.638794	15.680154	-0.041426	2.012332
164.537366	1739.105338	15.685159	-0.041411	2.009812
164.439475	1734.679910	15.690163	-0.041384	2.007344
164.431646	1730.127695	15.695168	-0.041380	2.004811
164.171647	1725.664219	15.700173	-0.041313	2.002303
164.209394	1721.096702	15.705178	-0.041319	1.999758
164.016389	1716.643270	15.710183	-0.041269	1.997254
163.972507	1712.044831	15.715187	-0.041255	1.994679
163.767396	1707.545871	15.720192	-0.041202	1.992142
163.548393	1702.962961	15.725197	-0.041145	1.989554
163.534237	1698.479147	15.730202	-0.041139	1.987036
163.199138	1693.926321	15.735207	-0.041054	1.984449
163.104664	1689.441496	15.740211	-0.041028	1.981916
163.012199	1684.904028	15.745216	-0.041002	1.979351
162.837448	1680.400623	15.750221	-0.040956	1.976795
162.664019	1675.875045	15.755226	-0.040911	1.974223
162.524136	1671.327337	15.760231	-0.040874	1.971638
162.486992	1666.784259	15.765235	-0.040862	1.969061
162.380674	1662.228765	15.770240	-0.040833	1.966467
162.250459	1657.644966	15.775245	-0.040798	1.963852
162.234250	1653.059784	15.780250	-0.040791	1.961243
161.946946	1648.507716	15.785255	-0.040717	1.958625
161.908515	1643.915944	15.790259	-0.040705	1.956003
161.931845	1639.314627	15.795264	-0.040707	1.953377
161.818867	1634.607990	15.800269	-0.040677	1.950676
161.685145	1630.059992	15.805274	-0.040641	1.948059
161.555691	1625.337737	15.810279	-0.040606	1.945340
161.525595	1620.721969	15.815283	-0.040596	1.942687
161.330486	1616.037567	15.820288	-0.040545	1.939976
161.148583	1611.373813	15.825293	-0.040497	1.937275
161.039131	1606.704207	15.830298	-0.040467	1.934572
160.902961	1602.012215	15.835303	-0.040431	1.931851
160.801159	1597.321218	15.840307	-0.040403	1.929129
160.649127	1592.642790	15.845312	-0.040362	1.926406
160.518503	1587.948744	15.850317	-0.040327	1.923673
160.504427	1583.227297	15.855322	-0.040321	1.920929
160.276989	1578.592636	15.860327	-0.040262	1.918214
160.223345	1573.825249	15.865331	-0.040246	1.915432
160.026576	1569.168965	15.870336	-0.040194	1.912699
159.831940	1564.410696	15.875341	-0.040144	1.909902
159.742381	1559.755910	15.880346	-0.040119	1.907171
159.608037	1555.036840	15.885351	-0.040083	1.904395
159.499222	1550.319797	15.890355	-0.040053	1.901617
159.501298	1545.604888	15.895360	-0.040050	1.898847
159.262405	1540.841045	15.900365	-0.039988	1.896023
159.160075	1536.139182	15.905370	-0.039960	1.893243
159.112535	1531.318626	15.910375	-0.039945	1.890393
159.030620	1526.588946	15.915379	-0.039922	1.887591
158.879130	1521.802844	15.920384	-0.039882	1.884744
158.580783	1517.055300	15.925389	-0.039806	1.881902
158.602773	1512.323899	15.930394	-0.039808	1.879095
158.419586	1507.545265	15.935399	-0.039760	1.876237
158.308792	1502.787856	15.940403	-0.039730	1.873393
158.225714	1497.977534	15.945408	-0.039706	1.870517
157.882206	1493.274443	15.950413	-0.039619	1.867676
157.855121	1488.501935	15.955418	-0.039609	1.864818
157.851016	1483.687687	15.960423	-0.039605	1.861933
157.640399	1478.936146	15.965427	-0.039550	1.859062
157.646867	1474.111318	15.970432	-0.039549	1.856162
157.346628	1469.306834	15.975437	-0.039472	1.853242
157.331444	1464.506177	15.980442	-0.039465	1.850346
157.092404	1459.724170	15.985447	-0.039403	1.847436
156.891814	1454.939782	15.990451	-0.039351	1.844523
156.812355	1450.148278	15.995456	-0.039328	1.841613
156.486340	1445.440647	16.000461	-0.039246	1.838726
156.387087	1440.675858	16.005466	-0.039218	1.835820
156.281060	1435.930720	16.010471	-0.039189	1.832922
156.074479	1431.153661	16.015475	-0.039135	1.829990
156.043040	1426.408890	16.020480	-0.039124	1.827089
155.876735	1421.643819	16.025485	-0.039080	1.824159
155.804577	1416.847472	16.030490	-0.039060	1.821214
155.591558	1412.163349	16.035495	-0.039004	1.818319
155.658151	1407.307664	16.040499	-0.039017	1.815341
155.598719	1402.491374	16.045504	-0.039000	1.812370
155.442813	1397.644374	16.050509	-0.038958	1.809367
155.289290	1392.826089	16.055514	-0.038917	1.806376
155.149797	1388.037374	16.060519	-0.038880	1.803399
155.087539	1383.173128	16.065523	-0.038862	1.800379
155.006534	1378.370748	16.070528	-0.038839	1.797390
154.759086	1373.538156	16.075533	-0.038775	1.794361
154.662733	1368.689001	16.080538	-0.038748	1.791331
154.495793	1363.905127	16.085543	-0.038704	1.788330
154.246409	1359.089612	16.090547	-0.038640	1.785296
154.254760	1354.265965	16.095552	-0.038639	1.782277
153.881390	1349.498874	16.100557	-0.038544	1.779251
153.568107	1344.758967	16.105562	-0.038464	1.776243
153.512806	1339.987985	16.110567	-0.038448	1.773235
153.359880	1335.208297	16.115571	-0.038407	1.770207
153.289336	1330.440703	16.120576	-0.038386	1.767190
153.189745	1325.647882	16.125581	-0.038359	1.764149
153.109804	1320.857325	16.130586	-0.038336	1.761106
152.871486	1316.125865	16.135591	-0.038275	1.758079
152.736966	1311.336495	16.140595	-0.038239	1.755020
152.651939	1306.537194	16.145600	-0.038215	1.751955
152.368217	1301.810017	16.150605	-0.038142	1.748911
152.235087	1297.068122	16.155610	-0.038106	1.745866
152.098823	1292.322393	16.160615	-0.038070	1.742814
151.943360	1287.598304	16.165619	-0.038029	1.739769
151.624711	1282.898021	16.170624	-0.037948	1.736716
151.421527	1278.195830	16.175629	-0.037895	1.733669
150.994576	1273.581602	16.180634	-0.037787	1.730650
150.547523	1269.014344	16.185639	-0.037675	1.727654
150.309808	1264.474466	16.190643	-0.037614	1.724692
150.142619	1259.934879	16.195648	-0.037570	1.721733
149.684534	1255.509145	16.200653	-0.037455	1.718812
149.442687	1251.054981	16.205658	-0.037393	1.715890
148.939309	1246.691717	16.210663	-0.037267	1.712995
148.518838	1242.390471	16.215667	-0.037161	1.710145
148.329735	1238.085604	16.220672	-0.037112	1.707311
148.076387	1233.817557	16.225677	-0.037047	1.704490
147.899794	1229.529419	16.230682	-0.037001	1.701659
147.384498	1225.393033	16.235687	-0.036873	1.698887
147.069816	1221.197563	16.240691	-0.036793	1.696094
146.988713	1217.038384	16.245696	-0.036770	1.693344
146.407269	1212.923644	16.250701	-0.036626	1.690566
145.956402	1208.931522	16.255706	-0.036513	1.687878
145.680619	1204.943701	16.260711	-0.036443	1.685207
145.329418	1200.975888	16.265715	-0.036354	1.682538
145.085931	1197.114790	16.270720	-0.036292	1.679946
144.638416	1193.216490	16.275725	-0.036180	1.677304
144.315146	1189.431329	16.280730	-0.036099	1.674747
143.976853	1185.604988	16.285735	-0.036013	1.672156
143.800433	1181.842325	16.290739	-0.035968	1.669621
143.597288	1178.049009	16.295744	-0.035916	1.667059
143.395448	1174.312110	16.300749	-0.035864	1.664532
143.172097	1170.536620	16.305754	-0.035807	1.661971
143.073691	1166.853231	16.310759	-0.035780	1.659483
142.982846	1163.020448	16.315763	-0.035755	1.656891
142.807889	1159.294036	16.320768	-0.035710	1.654358
142.539917	1155.500808	16.325773	-0.035642	1.651765
142.371526	1151.816155	16.330778	-0.035599	1.649252
142.147992	1148.066085	16.335783	-0.035541	1.646686
141.892883	1144.398318	16.340787	-0.035477	1.644167
141.476824	1140.754230	16.345792	-0.035373	1.641643
141.271167	1137.156092	16.350797	-0.035320	1.639170
140.958998	1133.543105	16.355802	-0.035241	1.636671
140.614842	1130.010406	16.360807	-0.035155	1.634219
140.411437	1126.427355	16.365811	-0.035103	1.631745
140.166457	1122.946538	16.370816	-0.035041	1.629333
139.849172	1119.404377	16.375821	-0.034961	1.626867
139.527572	1116.021179	16.380826	-0.034880	1.624506
139.374909	1112.510235	16.385831	-0.034840	1.622072
138.985805	1109.120730	16.390835	-0.034743	1.619692
138.902766	1105.653015	16.395840	-0.034720	1.617289
138.603660	1102.265167	16.400845	-0.034645	1.614913
138.427224	1098.831671	16.405850	-0.034600	1.612515
138.190459	1095.489067	16.410855	-0.034539	1.610171
137.835097	1092.136765	16.415859	-0.034450	1.607802
137.759952	1088.804292	16.420864	-0.034430	1.605476
137.522242	1085.436439	16.425869	-0.034370	1.603104
137.394302	1082.126507	16.430874	-0.034336	1.600780
137.019205	1078.846709	16.435879	-0.034242	1.598446
136.779639	1075.557564	16.440883	-0.034182	1.596118
136.443282	1072.336920	16.445888	-0.034097	1.593823
136.122207	1069.103193	16.450893	-0.034017	1.591517
135.819399	1065.972958	16.455898	-0.033941	1.589283
135.470835	1062.803586	16.460903	-0.033853	1.587013
135.223743	1059.737920	16.465907	-0.033791	1.584824
135.000814	1056.598308	16.470912	-0.033734	1.582583
134.784792	1053.541570	16.475917	-0.033680	1.580398
134.552077	1050.451118	16.480922	-0.033621	1.578184
134.284315	1047.397977	16.485927	-0.033553	1.575989
134.026564	1044.341821	16.490931	-0.033488	1.573791
133.992564	1041.282378	16.495936	-0.033478	1.571613
133.718756	1038.248312	16.500941	-0.033409	1.569422
133.442882	1035.214557	16.505946	-0.033340	1.567228
133.527239	1032.188551	16.510951	-0.033358	1.565079
133.277996	1029.100460	16.515955	-0.033295	1.562843
133.091001	1026.130810	16.520960	-0.033248	1.560696
132.815249	1023.085806	16.525965	-0.033178	1.558481
132.688884	1020.086482	16.530970	-0.033145	1.556314
132.548000	1017.064710	16.535975	-0.033109	1.554126
132.400375	1014.016504	16.540979	-0.033071	1.551915
132.172741	1011.060279	16.545984	-0.033013	1.549758
132.042082	1007.989631	16.550989	-0.032979	1.547526
131.647761	1005.107958	16.555994	-0.032881	1.545396
131.478487	1002.099741	16.560999	-0.032838	1.543199
131.580020	999.099529	16.566003	-0.032861	1.541037
131.227667	996.145330	16.571008	-0.032773	1.538851
130.939596	993.175929	16.576013	-0.032700	1.536658
130.834986	990.220718	16.581018	-0.032673	1.534494
130.721830	987.227695	16.586023	-0.032643	1.532299
130.373178	984.346811	16.591027	-0.032556	1.530154
130.259305	981.384263	16.596032	-0.032526	1.527975
129.978325	978.496607	16.601037	-0.032456	1.525827
129.825398	975.565699	16.606042	-0.032416	1.523660
129.443278	972.735049	16.611047	-0.032321	1.521536
129.088056	969.933488	16.616051	-0.032233	1.519433
128.916256	967.087352	16.621056	-0.032189	1.517316
128.606340	964.308446	16.626061	-0.032111	1.515230
128.327997	961.523322	16.631066	-0.032041	1.513140
128.178913	958.775295	16.636071	-0.032003	1.511090
127.877097	956.012059	16.641075	-0.031928	1.509007
127.628514	953.302307	16.646080	-0.031865	1.506968
127.368168	950.593462	16.651085	-0.031800	1.504925
127.180509	947.873421	16.656090	-0.031752	1.502880
127.098005	945.209235	16.661095	-0.031730	1.500887
126.948681	942.454168	16.666099	-0.031692	1.498816
126.768702	939.757051	16.671104	-0.031646	1.496780
126.680486	937.000380	16.676109	-0.031623	1.494709
126.611322	934.238717	16.681114	-0.031604	1.492634
126.387703	931.557594	16.686119	-0.031548	1.490597
126.265697	928.772826	16.691123	-0.031516	1.488492
126.203167	926.050701	16.696128	-0.031499	1.486439
125.873796	923.316339	16.701133	-0.031417	1.484339
125.876266	920.558592	16.706138	-0.031416	1.482261
125.565827	917.901510	16.711143	-0.031338	1.480217
125.340394	915.143196	16.716147	-0.031281	1.478104
125.050636	912.511539	16.721152	-0.031209	1.476075
124.848353	909.801466	16.726157	-0.031157	1.473996
124.581385	907.173280	16.731162	-0.031090	1.471967
124.354111	904.550908	16.736167	-0.031033	1.469945
124.303283	901.841391	16.741171	-0.031019	1.467877
124.185806	899.244062	16.746176	-0.030989	1.465882
123.901510	896.563360	16.751181	-0.030917	1.463800
123.723582	893.947090	16.756186	-0.030872	1.461778
123.617496	891.308019	16.761191	-0.030845	1.459745
123.426834	888.628633	16.766195	-0.030796	1.457667
123.350708	885.995843	16.771200	-0.030776	1.455636
123.044016	883.340862	16.776205	-0.030699	1.453556
122.921902	880.731524	16.781210	-0.030668	1.451532
122.708972	878.095606	16.786215	-0.030614	1.449473
122.490127	875.468567	16.791219	-0.030559	1.447417
122.241768	872.908710	16.796224	-0.030496	1.445405
122.062581	870.268748	16.801229	-0.030451	1.443339
121.861980	867.767317	16.806234	-0.030400	1.441374
121.724977	865.155799	16.811239	-0.030365	1.439329
121.729992	862.508516	16.816243	-0.030365	1.437272
121.392066	859.976969	16.821248	-0.030280	1.435257
121.005443	857.390993	16.826253	-0.030184	1.433190
120.792874	854.936989	16.831258	-0.030131	1.431246
120.533784	852.390781	16.836263	-0.030066	1.429221
120.425052	849.868960	16.841267	-0.030038	1.427233
120.219086	847.396410	16.846272	-0.029986	1.425267
120.105344	844.811971	16.851277	-0.029956	1.423223
119.873333	842.404972	16.856282	-0.029898	1.421300
119.791893	839.838538	16.861287	-0.029876	1.419269
119.555574	837.343751	16.866291	-0.029817	1.417271
119.320190	834.873951	16.871296	-0.029758	1.415289
119.104084	832.345581	16.876301	-0.029703	1.413261
119.041452	829.909623	16.881306	-0.029687	1.411325
118.905546	827.357195	16.886311	-0.029652	1.409283
118.601142	824.908238	16.891315	-0.029576	1.407297
118.576582	822.428430	16.896320	-0.029568	1.405323
118.379358	819.898174	16.901325	-0.029518	1.403281
118.116499	817.515634	16.906330	-0.029453	1.401346
117.895047	815.030288	16.911335	-0.029397	1.399331
117.764359	812.575296	16.916339	-0.029363	1.397350
117.748706	810.090942	16.921344	-0.029358	1.395359
117.536663	807.565814	16.926349	-0.029304	1.393305
117.242355	805.198164	16.931354	-0.029231	1.391363
117.197788	802.681014	16.936359	-0.029218	1.389333
117.009606	800.227424	16.941363	-0.029171	1.387331
116.989221	797.756961	16.946368	-0.029164	1.385336
116.933762	795.198979	16.951373	-0.029149	1.383262
116.657172	792.787039	16.956378	-0.029080	1.381273
116.653133	790.232544	16.961383	-0.029077	1.379203
116.240614	787.794695	16.966387	-0.028975	1.377168
116.153350	785.309090	16.971392	-0.028952	1.375136
116.043850	782.807462	16.976397	-0.028924	1.373085
115.769125	780.382465	16.981402	-0.028855	1.371070
115.562631	777.906113	16.986407	-0.028803	1.369020
115.319908	775.495562	16.991411	-0.028742	1.367016
115.082103	773.082831	16.996416	-0.028682	1.365007
114.812843	770.652944	17.001421	-0.028615	1.362977
114.663400	768.310477	17.006426	-0.028577	1.361033
114.386093	765.894775	17.011431	-0.028508	1.359007
114.124007	763.555538	17.016435	-0.028442	1.357044
114.021336	761.177500	17.021440	-0.028415	1.355068
113.766585	758.794286	17.026445	-0.028352	1.353064
113.764573	756.439380	17.031450	-0.028350	1.351116
113.434288	754.074947	17.036455	-0.028267	1.349111
113.260553	751.744632	17.041459	-0.028223	1.347153
113.149189	749.393570	17.046464	-0.028195	1.345184
112.894325	747.031997	17.051469	-0.028131	1.343183
112.779127	744.746961	17.056474	-0.028101	1.341262
112.708157	742.346467	17.061479	-0.028082	1.339249
112.526433	739.992546	17.066483	-0.028036	1.337256
112.364659	737.644315	17.071488	-0.027995	1.335267
112.040773	735.297241	17.076493	-0.027915	1.333253
112.040648	732.969854	17.081498	-0.027913	1.331300
111.867264	730.607684	17.086503	-0.027869	1.329289
111.667096	728.269957	17.091507	-0.027819	1.327291
111.643509	725.922795	17.096512	-0.027812	1.325309
111.534394	723.522442	17.101517	-0.027783	1.323266
111.403796	721.201622	17.106522	-0.027750	1.321284
111.221759	718.797668	17.111527	-0.027704	1.319221
111.088354	716.453473	17.116531	-0.027670	1.317213
110.923973	714.067754	17.121536	-0.027628	1.315162
110.690868	711.714091	17.126541	-0.027570	1.313124
110.480910	709.399372	17.131546	-0.027517	1.311120
110.263686	707.046422	17.136551	-0.027462	1.309079
110.101152	704.746742	17.141555	-0.027421	1.307089
109.895264	702.422898	17.146560	-0.027369	1.305068
109.784513	700.105031	17.151565	-0.027341	1.303064
109.564003	697.841930	17.156570	-0.027285	1.301087
109.569845	695.442833	17.161575	-0.027285	1.299025
109.389399	693.116869	17.166579	-0.027240	1.296993
109.236685	690.759646	17.171584	-0.027201	1.294936
109.176505	688.386966	17.176589	-0.027185	1.292877
108.994997	686.051881	17.181594	-0.027139	1.290828
108.852871	683.682249	17.186599	-0.027103	1.288751
108.644602	681.346375	17.191603	-0.027050	1.286691
108.485030	679.002785	17.196608	-0.027010	1.284628
108.391221	676.663869	17.201613	-0.026985	1.282576
108.129252	674.346240	17.206618	-0.026920	1.280513
107.892933	672.037294	17.211623	-0.026861	1.278459
107.663483	669.717492	17.216627	-0.026803	1.276392
107.567450	667.388116	17.221632	-0.026778	1.274335
107.181426	665.156569	17.226637	-0.026682	1.272315
106.997341	662.866791	17.231642	-0.026636	1.270272
106.918653	660.590637	17.236647	-0.026615	1.268255
106.635033	658.330961	17.241651	-0.026544	1.266216
106.666754	656.003101	17.246656	-0.026551	1.264164
106.393622	653.792946	17.251661	-0.026482	1.262164
106.250993	651.503671	17.256666	-0.026446	1.260111
106.012017	649.247013	17.261671	-0.026386	1.258069
105.809175	646.984470	17.266675	-0.026335	1.256025
105.888543	644.659918	17.271680	-0.026353	1.253966
105.695662	642.404808	17.276685	-0.026305	1.251922
105.538105	640.103233	17.281690	-0.026265	1.249839
105.348258	637.848556	17.286695	-0.026217	1.247790
105.085066	635.580602	17.291699	-0.026151	1.245714
104.967027	633.335457	17.296704	-0.026121	1.243677
104.704744	631.112208	17.301709	-0.026055	1.241635
104.567965	628.850439	17.306714	-0.026020	1.239574
104.364705	626.639194	17.311719	-0.025969	1.237544
104.066170	624.393684	17.316723	-0.025895	1.235465
103.937956	622.204059	17.321728	-0.025862	1.233461
103.680297	620.007913	17.326733	-0.025798	1.231426
103.515607	617.780247	17.331738	-0.025756	1.229375
103.405931	615.618596	17.336743	-0.025728	1.227389
103.266372	613.368675	17.341747	-0.025692	1.225314
103.115499	611.188999	17.346752	-0.025654	1.223298
103.123450	608.930544	17.351757	-0.025655	1.221233
103.037462	606.662202	17.356762	-0.025632	1.219139
102.890061	604.431592	17.361767	-0.025595	1.217067
102.668825	602.160625	17.366771	-0.025539	1.214942
102.620900	599.958243	17.371776	-0.025526	1.212905
102.563673	597.651489	17.376781	-0.025511	1.210766
102.446956	595.391004	17.381786	-0.025481	1.208657
102.332144	593.130805	17.386791	-0.025451	1.206545
102.102785	590.845427	17.391795	-0.025394	1.204386
102.011910	588.647776	17.396800	-0.025370	1.202328
101.565087	586.411094	17.401805	-0.025259	1.200171
101.425396	584.196377	17.406810	-0.025224	1.198082
101.355820	581.948657	17.411815	-0.025205	1.195970
101.181855	579.711389	17.416819	-0.025161	1.193847
100.827094	577.563464	17.421824	-0.025073	1.191773
100.590073	575.341376	17.426829	-0.025014	1.189646
100.512536	573.184751	17.431834	-0.024994	1.187603
100.405379	570.949415	17.436839	-0.024966	1.185478
100.254511	568.771555	17.441843	-0.024928	1.183395
100.174967	566.570197	17.446848	-0.024907	1.181299
100.207245	564.291317	17.451853	-0.024913	1.179145
99.956385	562.087573	17.456858	-0.024851	1.177010
99.881931	559.821312	17.461863	-0.024831	1.174841
99.653282	557.638781	17.466867	-0.024774	1.172722
99.577034	555.385105	17.471872	-0.024754	1.170557
99.528577	553.138944	17.476877	-0.024740	1.168401
99.310059	550.905180	17.481882	-0.024686	1.166222
99.101775	548.694717	17.486887	-0.024633	1.164064
98.603039	546.572458	17.491891	-0.024510	1.161937
98.493549	544.367101	17.496896	-0.024482	1.159792
98.361124	542.201260	17.501901	-0.024448	1.157679
98.105901	540.015135	17.506906	-0.024384	1.155520
97.994132	537.872757	17.511911	-0.024356	1.153424
97.796319	535.690163	17.516915	-0.024306	1.151271
97.613416	533.553785	17.521920	-0.024260	1.149161
97.405965	531.414398	17.526925	-0.024208	1.147040
97.388679	529.204134	17.531930	-0.024202	1.144879
97.246031	527.089980	17.536935	-0.024166	1.142787
97.138588	524.867237	17.541939	-0.024138	1.140590
97.265291	522.646914	17.546944	-0.024168	1.138432
96.961969	520.430908	17.551949	-0.024092	1.136199
96.767291	518.258289	17.556954	-0.024043	1.134023
96.543166	516.112787	17.561959	-0.023987	1.131864
96.428545	513.904049	17.566963	-0.023958	1.129659
96.165124	511.784127	17.571968	-0.023892	1.127510
96.063676	509.580292	17.576973	-0.023866	1.125303
95.834863	507.481717	17.581978	-0.023809	1.123173
95.722178	505.303994	17.586983	-0.023780	1.120982
95.576023	503.142894	17.591987	-0.023743	1.118797
95.411206	500.990168	17.596992	-0.023701	1.116612
95.411353	498.785433	17.601997	-0.023700	1.114401
95.241256	496.639411	17.607002	-0.023657	1.112213
95.093378	494.452999	17.612007	-0.023619	1.109985
94.923180	492.314204	17.617011	-0.023576	1.107796
95.013618	490.072414	17.622016	-0.023597	1.105546
94.941568	487.893005	17.627021	-0.023578	1.103325
94.848565	485.661373	17.632026	-0.023554	1.101043
94.784498	483.445166	17.637031	-0.023537	1.098777
94.708272	481.173582	17.642035	-0.023517	1.096447
94.545408	478.963852	17.647040	-0.023475	1.094160
94.277906	476.764016	17.652045	-0.023409	1.091859
94.077210	474.556625	17.657050	-0.023358	1.089557
93.705480	472.428707	17.662055	-0.023266	1.087300
93.356448	470.281344	17.667059	-0.023179	1.085023
93.076824	468.220268	17.672064	-0.023110	1.082843
92.868429	466.068840	17.677069	-0.023057	1.080578
92.693921	463.987825	17.682074	-0.023013	1.078388
92.484841	461.866006	17.687079	-0.022961	1.076145
92.226170	459.798373	17.692083	-0.022897	1.073944
91.913290	457.752406	17.697088	-0.022819	1.071751
91.887838	455.652352	17.702093	-0.022811	1.069551
91.965744	453.536017	17.707098	-0.022829	1.067350
92.019580	451.368447	17.712103	-0.022841	1.065086
91.823688	449.256700	17.717107	-0.022791	1.062827
91.673797	447.120477	17.722112	-0.022753	1.060547
91.675008	444.969304	17.727117	-0.022752	1.058275
91.429623	442.808976	17.732122	-0.022691	1.055941
91.261705	440.720424	17.737127	-0.022649	1.053693
91.041946	438.577190	17.742131	-0.022594	1.051372
90.862205	436.496664	17.747136	-0.022548	1.049121
90.654861	434.388878	17.752141	-0.022496	1.046830
90.479173	432.294573	17.757146	-0.022452	1.044554
90.209128	430.241935	17.762151	-0.022385	1.042300
90.023361	428.160555	17.767155	-0.022338	1.040027
89.886706	426.103826	17.772160	-0.022303	1.037784
89.678845	424.002208	17.777165	-0.022251	1.035475
89.534912	421.976731	17.782170	-0.022215	1.033255
89.445514	419.882800	17.787175	-0.022192	1.030967
89.496323	417.774595	17.792179	-0.022203	1.028687
89.410229	415.659772	17.797184	-0.022180	1.026367
89.182981	413.610170	17.802189	-0.022123	1.024084
89.301951	411.450718	17.807194	-0.022151	1.021746
89.101897	409.345557	17.812199	-0.022101	1.019397
88.959905	407.215434	17.817203	-0.022065	1.017028
88.724627	405.132869	17.822208	-0.022006	1.014686
88.534534	403.041822	17.827213	-0.021958	1.012339
88.525863	400.914177	17.832218	-0.021955	1.009982
88.303000	398.832681	17.837223	-0.021899	1.007628
87.966550	396.770038	17.842227	-0.021816	1.005266
87.818792	394.731397	17.847232	-0.021778	1.002964
87.787404	392.616358	17.852237	-0.021769	1.000595
87.663132	390.537344	17.857242	-0.021737	0.998241
87.615949	388.416412	17.862247	-0.021725	0.995851
87.429531	386.366229	17.867251	-0.021678	0.993506
87.241839	384.256656	17.872256	-0.021630	0.991088
86.962066	382.240038	17.877261	-0.021561	0.988750
86.914123	380.129669	17.882266	-0.021548	0.986348
86.845500	378.052372	17.887271	-0.021530	0.983974
86.524603	375.982518	17.892275	-0.021450	0.981550
86.686297	373.871837	17.897280	-0.021488	0.979175
86.488013	371.758795	17.902285	-0.021438	0.976715
86.153287	369.731639	17.907290	-0.021355	0.974318
85.847618	367.698238	17.912295	-0.021279	0.971915
85.552526	365.693904	17.917299	-0.021206	0.969541
85.446448	363.654464	17.922304	-0.021179	0.967162
85.021755	361.712641	17.927309	-0.021074	0.964821
84.951941	359.701724	17.932314	-0.021055	0.962471
84.927844	357.681508	17.937319	-0.021048	0.960114
84.787658	355.656689	17.942323	-0.021013	0.957720
84.604354	353.658671	17.947328	-0.020967	0.955343
84.418961	351.671896	17.952333	-0.020920	0.952972
84.413474	349.633792	17.957338	-0.020917	0.950574
84.235316	347.644366	17.962343	-0.020873	0.948190
84.254460	345.581070	17.967347	-0.020876	0.945756
84.331404	343.545077	17.972352	-0.020893	0.943361
84.208217	341.470863	17.977357	-0.020862	0.940870
83.917147	339.460094	17.982362	-0.020790	0.938410
83.602712	337.459767	17.987367	-0.020712	0.935952
83.444481	335.471460	17.992371	-0.020672	0.933536
83.310856	333.447375	17.997376	-0.020638	0.931076
83.063532	331.483966	18.002381	-0.020576	0.928658
83.005876	329.452861	18.007386	-0.020561	0.926194
82.702752	327.543698	18.012391	-0.020485	0.923816
82.434691	325.551930	18.017395	-0.020419	0.921339
82.218273	323.642163	18.022400	-0.020365	0.918967
82.186597	321.630100	18.027405	-0.020356	0.916506
82.125461	319.678099	18.032410	-0.020339	0.914105
81.976074	317.690266	18.037415	-0.020302	0.911634
81.965857	315.711831	18.042419	-0.020298	0.909200
81.923522	313.691835	18.047424	-0.020286	0.906700
81.937775	311.691818	18.052429	-0.020288	0.904231
81.846513	309.648312	18.057434	-0.020265	0.901677
81.703866	307.659696	18.062439	-0.020229	0.899172
81.531594	305.621661	18.067443	-0.020185	0.896591
81.330893	303.670855	18.072448	-0.020135	0.894106
81.112096	301.670973	18.077453	-0.020080	0.891548
81.057730	299.685904	18.082458	-0.020066	0.889039
80.703217	297.727646	18.087463	-0.019978	0.886487
80.421255	295.829336	18.092467	-0.019908	0.884020
80.245060	293.875298	18.097472	-0.019864	0.881501
80.054174	291.954897	18.102477	-0.019816	0.879013
80.007467	289.976146	18.107482	-0.019803	0.876479
79.778933	288.090886	18.112487	-0.019746	0.874013
79.676848	286.122265	18.117491	-0.019720	0.871464
79.732831	284.178137	18.122496	-0.019732	0.868977
79.717545	282.173164	18.127501	-0.019727	0.866387
79.497440	280.261093	18.132506	-0.019672	0.863860
79.370226	278.300302	18.137511	-0.019640	0.861284
79.136720	276.365311	18.142515	-0.019582	0.858709
78.914716	274.447304	18.147520	-0.019526	0.856151
78.627651	272.558119	18.152525	-0.019455	0.853606
78.574528	270.622962	18.157530	-0.019441	0.851052
78.441409	268.715380	18.162535	-0.019407	0.848506
78.145866	266.830496	18.167539	-0.019334	0.845943
78.152598	264.918000	18.172544	-0.019334	0.843410
78.073421	262.991242	18.177549	-0.019313	0.840829
77.825088	261.095361	18.182554	-0.019252	0.838239
77.807318	259.179292	18.187559	-0.019246	0.835672
77.786466	257.229730	18.192563	-0.019240	0.833051
77.745341	255.312365	18.197568	-0.019228	0.830461
77.634292	253.367263	18.202573	-0.019200	0.827807
77.570584	251.435127	18.207578	-0.019183	0.825174
77.455891	249.491803	18.212583	-0.019154	0.822504
77.120853	247.599837	18.217587	-0.019071	0.819839
76.896585	245.703020	18.222592	-0.019015	0.817187
76.691968	243.835831	18.227597	-0.018964	0.814572
76.394909	241.962578	18.232602	-0.018890	0.811916
76.188173	240.132415	18.237607	-0.018838	0.809335
76.073104	238.241397	18.242611	-0.018809	0.806685
75.812362	236.443922	18.247616	-0.018744	0.804118
75.478297	234.624098	18.252621	-0.018662	0.801493
75.309285	232.807750	18.257626	-0.018619	0.798907
75.321018	230.962400	18.262631	-0.018621	0.796320
75.277808	229.096243	18.267635	-0.018609	0.793681
75.095313	227.283984	18.272640	-0.018563	0.791072
75.036944	225.426108	18.277645	-0.018548	0.788423
75.086261	223.562209	18.282650	-0.018559	0.785786
75.024694	221.697201	18.287655	-0.018543	0.783108
74.793226	219.860269	18.292659	-0.018485	0.780414
74.944389	217.943710	18.297664	-0.018521	0.777702
74.856929	216.079793	18.302669	-0.018498	0.774990
74.821774	214.168916	18.307674	-0.018488	0.772215
74.888471	212.270531	18.312679	-0.018503	0.769477
74.585814	210.400119	18.317683	-0.018428	0.766667
74.475628	208.544970	18.322688	-0.018400	0.763923
74.247883	206.690505	18.327693	-0.018343	0.761137
73.963635	204.850725	18.332698	-0.018273	0.758346
73.568891	203.092352	18.337703	-0.018175	0.755635
73.134947	201.323425	18.342707	-0.018068	0.752887
73.129027	199.530967	18.347712	-0.018065	0.750216
72.798362	197.762483	18.352717	-0.017984	0.747478
72.348506	196.082812	18.357722	-0.017873	0.744829
72.305627	194.305435	18.362727	-0.017861	0.742141
72.208552	192.552211	18.367731	-0.017836	0.739463
72.331738	190.745984	18.372736	-0.017865	0.736759
72.230713	188.959159	18.377741	-0.017839	0.734010
72.166246	187.178503	18.382746	-0.017823	0.731270
72.264804	185.355299	18.387751	-0.017845	0.728502
72.236590	183.553538	18.392755	-0.017837	0.725720
72.365032	181.697721	18.397760	-0.017868	0.722889
72.380132	179.861736	18.402765	-0.017870	0.720045
72.356606	177.996152	18.407770	-0.017863	0.717131
72.223503	176.182869	18.412775	-0.017830	0.714255
71.873291	174.406047	18.417779	-0.017743	0.711360
71.631397	172.625349	18.422784	-0.017683	0.708479
71.282801	170.907301	18.427789	-0.017596	0.705653
71.158085	169.127868	18.432794	-0.017565	0.702786
70.849782	167.417668	18.437799	-0.017488	0.699962
70.414946	165.723896	18.442803	-0.017381	0.697114
70.232174	164.036347	18.447808	-0.017335	0.694342
69.986865	162.348647	18.452813	-0.017275	0.691540
69.970891	160.617336	18.457818	-0.017270	0.688726
69.837739	158.944788	18.462823	-0.017236	0.685960
69.719524	157.224842	18.467827	-0.017206	0.683110
69.551703	155.557371	18.472832	-0.017164	0.680319
69.525712	153.827063	18.477837	-0.017157	0.677457
69.601837	152.090833	18.482842	-0.017174	0.674606
69.457222	150.398588	18.487847	-0.017138	0.671745
69.311207	148.693722	18.492851	-0.017101	0.668851
69.306012	146.976850	18.497856	-0.017099	0.665969
69.203605	145.251305	18.502861	-0.017073	0.663029
68.949124	143.580636	18.507866	-0.017009	0.660119
68.872344	141.876950	18.512871	-0.016989	0.657198
68.730484	140.188413	18.517875	-0.016954	0.654268
68.681131	138.492043	18.522880	-0.016941	0.651342
68.618835	136.780407	18.527885	-0.016924	0.648373
68.600914	135.088488	18.532890	-0.016919	0.645438
68.460817	133.396139	18.537895	-0.016884	0.642449
68.388236	131.687131	18.542899	-0.016865	0.639439
68.300625	130.004194	18.547904	-0.016842	0.636456
68.233099	128.299102	18.552909	-0.016825	0.633427
67.958454	126.658572	18.557914	-0.016757	0.630426
67.931569	124.973655	18.562919	-0.016749	0.627417
67.601118	123.348191	18.567923	-0.016667	0.624396
67.402874	121.720386	18.572928	-0.016618	0.621401
67.188944	120.080181	18.577933	-0.016565	0.618364
67.034541	118.465358	18.582938	-0.016526	0.615379
66.940602	116.833692	18.587943	-0.016502	0.612370
66.685358	115.233386	18.592947	-0.016439	0.609347
66.628762	113.629906	18.597952	-0.016424	0.606373
66.473912	112.021286	18.602957	-0.016385	0.603340
66.314106	110.426371	18.607962	-0.016345	0.600315
66.291904	108.813374	18.612967	-0.016339	0.597291
66.127958	107.217354	18.617971	-0.016297	0.594232
65.997839	105.643577	18.622976	-0.016265	0.591211
66.076620	104.007020	18.627981	-0.016283	0.588133
65.826122	102.442892	18.632986	-0.016221	0.585055
65.878439	100.824804	18.637991	-0.016233	0.581969
65.727716	99.225156	18.642995	-0.016195	0.578827
65.652591	97.651758	18.648000	-0.016175	0.575747
65.606008	96.046659	18.653005	-0.016163	0.572599
65.318998	94.496146	18.658010	-0.016092	0.569450
65.229993	92.949870	18.663015	-0.016069	0.566367
64.978977	91.402449	18.668019	-0.016007	0.563203
64.872529	89.855472	18.673024	-0.015980	0.560078
64.380809	88.398492	18.678029	-0.015859	0.556966
64.081753	86.917671	18.683034	-0.015785	0.553864
63.968340	85.440233	18.688039	-0.015756	0.550824
63.860764	83.936274	18.693043	-0.015729	0.547716
63.698940	82.469411	18.698048	-0.015689	0.544644
63.628380	80.979083	18.703053	-0.015671	0.541543
63.558595	79.479598	18.708058	-0.015653	0.538405
63.474379	78.006462	18.713063	-0.015631	0.535299
63.410490	76.517169	18.718067	-0.015615	0.532148
63.441765	75.010557	18.723072	-0.015621	0.528981
63.408286	73.537584	18.728077	-0.015612	0.525840
63.327478	72.042279	18.733082	-0.015592	0.522612
63.373086	70.532993	18.738087	-0.015602	0.519387
63.328580	69.048280	18.743091	-0.015590	0.516157
63.147626	67.585690	18.748096	-0.015545	0.512898
62.936282	66.141574	18.753101	-0.015493	0.509645
62.718522	64.715158	18.758106	-0.015438	0.506408
62.529081	63.292759	18.763111	-0.015391	0.503171
62.363669	61.858082	18.768115	-0.015350	0.499895
62.141061	60.466623	18.773120	-0.015295	0.496671
62.122764	59.030204	18.778125	-0.015289	0.493414
61.979064	57.621364	18.783130	-0.015254	0.490142
61.961889	56.212599	18.788135	-0.015248	0.486905
61.822751	54.805879	18.793139	-0.015214	0.483596
61.800193	53.391112	18.798144	-0.015207	0.480299
61.717417	51.998119	18.803149	-0.015186	0.477002
61.789217	50.562102	18.808154	-0.015203	0.473652
61.756595	49.158027	18.813159	-0.015194	0.470305
61.626421	47.775472	18.818163	-0.015161	0.466941
61.522024	46.388600	18.823168	-0.015135	0.463554
61.360790	45.017676	18.828173	-0.015095	0.460154
61.164313	43.672037	18.833178	-0.015046	0.456773
61.025808	42.322449	18.838183	-0.015011	0.453386
60.840760	40.982575	18.843187	-0.014965	0.449974
60.660660	39.678051	18.848192	-0.014921	0.446628
60.336332	38.392175	18.853197	-0.014841	0.443232
60.163794	37.089344	18.858202	-0.014798	0.439842
60.062909	35.804760	18.863207	-0.014772	0.436509
59.912967	34.514211	18.868211	-0.014735	0.433110
59.827889	33.224588	18.873216	-0.014713	0.429719
59.537923	31.994836	18.878221	-0.014642	0.426353
59.447040	30.721073	18.883226	-0.014619	0.422947
59.624326	29.402473	18.888231	-0.014661	0.419534
59.420652	28.159901	18.893235	-0.014611	0.416096
59.519787	26.866054	18.898240	-0.014634	0.412652
59.417830	25.608688	18.903245	-0.014609	0.409171
59.360095	24.353188	18.908250	-0.014594	0.405689
59.342375	23.098038	18.913255	-0.014589	0.402199
59.235740	21.853144	18.918259	-0.014562	0.398659
59.098213	20.627246	18.923264	-0.014528	0.395124
58.851907	19.445470	18.928269	-0.014467	0.391623
58.735788	18.240459	18.933274	-0.014438	0.388096
58.681193	17.038149	18.938279	-0.014424	0.384580
58.586215	15.835437	18.943283	-0.014400	0.381006
58.360789	14.682455	18.948288	-0.014344	0.377471
58.072671	13.547125	18.953293	-0.014273	0.373919
57.921723	12.396747	18.958298	-0.014235	0.370368
57.833379	11.264441	18.963303	-0.014213	0.366875
57.855421	10.093527	18.968307	-0.014218	0.363296
57.777485	8.952189	18.973312	-0.014198	0.359713
57.759756	7.810320	18.978317	-0.014193	0.356129
57.677162	6.684908	18.983322	-0.014172	0.352521
57.734844	5.535306	18.988327	-0.014186	0.348886
57.603419	4.422214	18.993331	-0.014153	0.345211
57.381396	3.341922	18.998336	-0.014098	0.341545
57.266247	2.258287	19.003341	-0.014069	0.337898
57.133831	1.180694	19.008346	-0.014036	0.334221
57.070953	0.103363	19.013351	-0.014020	0.330549
56.750270	-0.904336	19.018355	-0.013941	0.326902
56.488835	-1.915702	19.023360	-0.013877	0.323240
56.458438	-2.960964	19.028365	-0.013869	0.319577
56.159042	-3.942544	19.033370	-0.013795	0.315910
55.928669	-4.910955	19.038375	-0.013738	0.312296
55.752951	-5.888324	19.043379	-0.013695	0.308646
55.560433	-6.844912	19.048384	-0.013647	0.305016
55.688058	-7.861798	19.053389	-0.013678	0.301352
55.431421	-8.794449	19.058394	-0.013615	0.297676
55.244058	-9.725021	19.063399	-0.013569	0.294014
55.120039	-10.662278	19.068403	-0.013538	0.290328
54.249412	-11.425626	19.073408	-0.013325	0.286701
6.738137	-2.590780	19.078413	-0.001723	0.284758
16.050555	-3.505868	19.083418	-0.003997	0.288335
4.048728	-0.589078	19.088423	-0.001067	0.290506
13.621479	-1.995467	19.093427	-0.003405	0.292328
19.430895	-2.644319	19.098432	-0.004824	0.294208
15.520928	-1.566381	19.103437	-0.003870	0.295389
19.553288	-2.106265	19.108442	-0.004855	0.296344
22.287874	-2.407187	19.113447	-0.005523	0.297235
21.120153	-2.010681	19.118451	-0.005238	0.297866
22.844384	-2.232499	19.123456	-0.005659	0.298305
23.656508	-2.283455	19.128461	-0.005858	0.298713
23.670691	-2.234157	19.133466	-0.005862	0.298909
24.001718	-2.249324	19.138471	-0.005943	0.299096
24.039246	-2.244133	19.143475	-0.005952	0.299143
24.409948	-2.247545	19.148480	-0.006043	0.299404
24.367050	-2.238697	19.153485	-0.006032	0.299406
24.526070	-2.273211	19.158490	-0.006071	0.299394
24.386334	-2.241735	19.163495	-0.006037	0.299409
24.140530	-2.196673	19.168499	-0.005977	0.299398
24.483808	-2.263136	19.173504	-0.006061	0.299402
24.278028	-2.221683	19.178509	-0.006011	0.299406
23.766389	-2.198234	19.183514	-0.005886	0.299118
23.442716	-2.102542	19.188519	-0.005808	0.299239
23.658293	-2.185282	19.193523	-0.005860	0.299088
23.814746	-2.215099	19.198528	-0.005899	0.299092
23.434440	-2.139662	19.203533	-0.005806	0.299095
23.747079	-2.222478	19.208538	-0.005882	0.299015
23.750994	-2.263494	19.213543	-0.005884	0.298865
23.754216	-2.295910	19.218547	-0.005884	0.298746
23.276834	-2.261110	19.223552	-0.005768	0.298525
23.451606	-2.327255	19.228557	-0.005811	0.298406
22.970842	-2.287799	19.233562	-0.005694	0.298200
22.968919	-2.326853	19.238567	-0.005693	0.298052
22.176119	-2.215725	19.243571	-0.005500	0.297886
22.358719	-2.249934	19.248576	-0.005544	0.297892
21.872997	-2.234052	19.253581	-0.005426	0.297593
21.253097	-2.115284	19.258586	-0.005275	0.297583
21.143284	-2.089632	19.263591	-0.005248	0.297599
21.071087	-2.078309	19.268595	-0.005231	0.297588
21.209218	-2.121677	19.273600	-0.005264	0.297528
20.547758	-2.061572	19.278605	-0.005103	0.297265
20.669690	-2.087647	19.283610	-0.005133	0.297258
20.901033	-2.129359	19.288615	-0.005190	0.297272
20.831392	-2.163077	19.293619	-0.005173	0.297094
20.718193	-2.179674	19.298624	-0.005145	0.296948
20.735154	-2.221942	19.303629	-0.005149	0.296801
20.173202	-2.157057	19.308634	-0.005012	0.296630
20.456366	-2.242089	19.313639	-0.005082	0.296519
19.760068	-2.155160	19.318643	-0.004912	0.296331
19.977248	-2.231330	19.323648	-0.004965	0.296205
19.550192	-2.199372	19.328653	-0.004861	0.296009
19.575405	-2.229898	19.333658	-0.004867	0.295912
19.130970	-2.201458	19.338663	-0.004758	0.295690
18.936894	-2.165965	19.343667	-0.004711	0.295680
18.630581	-2.174211	19.348672	-0.004637	0.295421
18.308413	-2.124256	19.353677	-0.004558	0.295371
18.301699	-2.125611	19.358682	-0.004557	0.295362
18.230413	-2.165631	19.363687	-0.004539	0.295157
17.482925	-2.043775	19.368691	-0.004357	0.295063
17.430887	-2.032180	19.373696	-0.004344	0.295069
17.215167	-1.989161	19.378701	-0.004292	0.295072
16.959738	-1.941401	19.383706	-0.004230	0.295063
17.011826	-2.013172	19.388711	-0.004242	0.294829
16.606413	-1.956930	19.393715	-0.004143	0.294741
17.122837	-2.056828	19.398720	-0.004270	0.294747
17.241546	-2.123104	19.403725	-0.004299	0.294584
16.894793	-2.096983	19.408730	-0.004214	0.294425
16.820781	-2.135445	19.413735	-0.004196	0.294223
16.429575	-2.085811	19.418739	-0.004101	0.294120
16.873227	-2.216406	19.423744	-0.004209	0.293955
16.688910	-2.218018	19.428749	-0.004164	0.293811
16.110589	-2.174706	19.433754	-0.004023	0.293543
15.940029	-2.184447	19.438759	-0.003982	0.293379
15.454217	-2.128013	19.443763	-0.003863	0.293230
15.362833	-2.150395	19.448768	-0.003841	0.293076
14.669496	-2.056622	19.453773	-0.003672	0.292915
14.616118	-2.047796	19.458778	-0.003659	0.292909
14.669640	-2.057658	19.463783	-0.003672	0.292912
13.865251	-1.979715	19.468787	-0.003476	0.292606
13.535161	-1.914005	19.473792	-0.003395	0.292610
13.538836	-1.913308	19.478797	-0.003397	0.292616
13.700680	-1.947589	19.483802	-0.003436	0.292607
13.784861	-1.961099	19.488807	-0.003457	0.292619
13.571105	-1.973001	19.493811	-0.003405	0.292412
13.438502	-1.980066	19.498816	-0.003373	0.292286
13.553426	-2.007142	19.503821	-0.003401	0.292269
13.207941	-2.018199	19.508826	-0.003316	0.291967
13.381371	-2.050153	19.513831	-0.003359	0.291975
13.180957	-2.093103	19.518835	-0.003310	0.291659
13.411366	-2.170020	19.523840	-0.003367	0.291538
12.862961	-2.108724	19.528845	-0.003233	0.291360
12.856084	-2.178528	19.533850	-0.003231	0.291086
12.643584	-2.163241	19.538855	-0.003179	0.290985
11.984879	-2.106663	19.543859	-0.003019	0.290705
11.908845	-2.096683	19.548864	-0.003000	0.290686
11.280634	-2.048440	19.553869	-0.002847	0.290397
11.182052	-2.031497	19.558874	-0.002823	0.290388
11.088938	-2.010419	19.563879	-0.002800	0.290399
10.763341	-2.010209	19.568883	-0.002721	0.290154
10.404327	-1.954924	19.573888	-0.002633	0.290095
10.012335	-1.876321	19.578893	-0.002538	0.290102
10.289454	-1.933935	19.583898	-0.002606	0.290090
10.390494	-1.982900	19.588903	-0.002630	0.289978
9.651507	-1.892163	19.593907	-0.002450	0.289768
9.961365	-1.951886	19.598912	-0.002526	0.289773
10.173511	-2.019360	19.603917	-0.002578	0.289673
9.938727	-2.029905	19.608922	-0.002521	0.289454
10.022535	-2.092541	19.613927	-0.002541	0.289276
9.472663	-2.016832	19.618931	-0.002407	0.289151
9.464152	-2.057683	19.623936	-0.002405	0.288987
9.395971	-2.055117	19.628941	-0.002389	0.288945
8.911622	-2.043823	19.633946	-0.002270	0.288620
8.807492	-2.026202	19.638951	-0.002245	0.288609
8.343924	-2.001569	19.643955	-0.002132	0.288352
8.394301	-2.029717	19.648960	-0.002145	0.288281
8.280270	-2.035879	19.653965	-0.002117	0.288171
7.716312	-1.979645	19.658970	-0.001979	0.287959
7.855507	-2.004015	19.663975	-0.002013	0.287971
7.508283	-2.010306	19.668979	-0.001929	0.287681
7.313079	-1.976988	19.673984	-0.001881	0.287662
7.196097	-1.969207	19.678989	-0.001853	0.287603
6.499652	-1.902117	19.683994	-0.001683	0.287332
6.716602	-1.941073	19.688999	-0.001736	0.287347
6.527347	-1.907803	19.694003	-0.001690	0.287332
6.636769	-1.998461	19.699008	-0.001717	0.287062
6.426539	-1.964843	19.704013	-0.001665	0.287033
6.370821	-2.011806	19.709018	-0.001652	0.286807
6.197587	-2.000768	19.714023	-0.001610	0.286717
5.837009	-1.974110	19.719027	-0.001522	0.286545
5.567640	-1.956813	19.724032	-0.001456	0.286406
5.689233	-1.986638	19.729037	-0.001486	0.286383
5.475165	-2.023460	19.734042	-0.001434	0.286075
5.521516	-2.046096	19.739047	-0.001445	0.286022
4.855548	-1.982276	19.744051	-0.001283	0.285760
4.920645	-1.994338	19.749056	-0.001299	0.285763
4.559058	-1.996565	19.754061	-0.001211	0.285476
4.412521	-1.976051	19.759066	-0.001175	0.285444
4.346118	-1.994650	19.764071	-0.001159	0.285320
3.817900	-1.934841	19.769075	-0.001030	0.285148
3.970799	-1.966197	19.774080	-0.001067	0.285143
3.779557	-1.993772	19.779085	-0.001021	0.284887
3.096042	-1.877784	19.784090	-0.000854	0.284816
3.340163	-1.922376	19.789095	-0.000914	0.284829
3.313279	-1.991544	19.794099	-0.000907	0.284536
3.193744	-1.974934	19.799104	-0.000878	0.284510
2.794088	-1.954846	19.804109	-0.000781	0.284280
2.438078	-1.906263	19.809114	-0.000694	0.284196
2.678414	-1.958870	19.814119	-0.000753	0.284175
2.077111	-1.895945	19.819123	-0.000606	0.283958
2.069269	-1.894652	19.824128	-0.000604	0.283957
2.125011	-1.924834	19.829133	-0.000618	0.283882
