Sun Feb 26 14:23:29 2017

Number of Points = 3586
Depth (nm)	Load (µN)	Time (s)	Depth (V)	Load (V)
1.509126	0.002301	0.000000	-0.000015	0.280946

1.481406	-0.031252	0.005005	-0.000008	0.280790
1.501028	-0.030923	0.010010	-0.000013	0.280806
1.344092	-0.001779	0.015014	0.000026	0.280799
1.376238	-0.007937	0.020019	0.000018	0.280799
1.320192	0.004877	0.025024	0.000032	0.280806
1.270580	0.011642	0.030029	0.000044	0.280794
1.323784	-0.041477	0.035034	0.000031	0.280623
1.325334	-0.077312	0.040038	0.000031	0.280480
1.374128	-0.085926	0.045043	0.000019	0.280484
1.346252	-0.117424	0.050048	0.000026	0.280335
1.362567	-0.159366	0.055053	0.000023	0.280180
1.326823	-0.176610	0.060058	0.000031	0.280082
1.383790	-0.243217	0.065062	0.000018	0.279859
1.333311	-0.270772	0.070067	0.000030	0.279708
1.246679	-0.290905	0.075072	0.000052	0.279559
1.111873	-0.326543	0.080077	0.000085	0.279309
1.200805	-0.365933	0.085082	0.000063	0.279220
0.931521	-0.366457	0.090086	0.000129	0.279005
0.917136	-0.399658	0.095091	0.000133	0.278860
0.963011	-0.452502	0.100096	0.000122	0.278683
0.881589	-0.512690	0.105101	0.000142	0.278375
0.914136	-0.560828	0.110106	0.000134	0.278207
0.746264	-0.577962	0.115110	0.000175	0.278004
0.866358	-0.667655	0.120115	0.000146	0.277737
0.797840	-0.722327	0.125120	0.000163	0.277461
0.805254	-0.787091	0.130125	0.000161	0.277204
0.699680	-0.828787	0.135130	0.000187	0.276951
0.547712	-0.863924	0.140134	0.000225	0.276687
0.612070	-0.944141	0.145139	0.000209	0.276412
0.499960	-0.994292	0.150144	0.000237	0.276118
0.367508	-1.040417	0.155149	0.000269	0.275824
0.421863	-1.124083	0.160154	0.000256	0.275527
0.186679	-1.150455	0.165158	0.000314	0.275231
0.166402	-1.216963	0.170163	0.000319	0.274943
0.119025	-1.278032	0.175168	0.000331	0.274655
-0.052233	-1.319477	0.180173	0.000373	0.274347
0.032018	-1.391098	0.185178	0.000352	0.274121
-0.056066	-1.449199	0.190182	0.000374	0.273812
-0.188868	-1.502113	0.195187	0.000407	0.273488
-0.271891	-1.562590	0.200192	0.000427	0.273172
-0.489858	-1.596513	0.205197	0.000480	0.272856
-0.632485	-1.639088	0.210202	0.000515	0.272565
-0.708982	-1.697950	0.215206	0.000534	0.272260
-0.873623	-1.737364	0.220211	0.000575	0.271963
-1.064730	-1.766454	0.225216	0.000622	0.271688
-1.326085	-1.778333	0.230221	0.000686	0.271426
-1.475278	-1.806370	0.235226	0.000722	0.271188
-1.365527	-1.905353	0.240230	0.000696	0.270867
-1.681158	-1.908515	0.245235	0.000773	0.270597
-1.912794	-1.912829	0.250240	0.000830	0.270389
-2.456411	-1.838936	0.255245	0.000962	0.270252
-2.750456	-1.853893	0.260250	0.001034	0.269949
-3.131836	-1.782659	0.265254	0.001128	0.269934
-3.333762	-1.776413	0.270259	0.001177	0.269794
-3.796812	-1.725619	0.275264	0.001290	0.269626
-4.158795	-1.656410	0.280269	0.001379	0.269618
-4.148800	-1.654954	0.285274	0.001377	0.269632
-4.333024	-1.621320	0.290278	0.001422	0.269620
-4.296223	-1.627535	0.295283	0.001413	0.269624
-4.065650	-1.671454	0.300288	0.001357	0.269630
-3.941335	-1.718446	0.305293	0.001327	0.269535
-3.894632	-1.778726	0.310298	0.001315	0.269322
-3.830109	-1.793577	0.315302	0.001300	0.269312
-3.691779	-1.872376	0.320307	0.001266	0.269097
-3.725510	-1.883995	0.325312	0.001274	0.269020
-3.816950	-1.934922	0.330317	0.001297	0.268732
-3.869957	-1.963096	0.335322	0.001310	0.268570
-4.057037	-1.962656	0.340326	0.001356	0.268418
-4.242094	-1.995401	0.345331	0.001401	0.268128
-4.445710	-1.963923	0.350336	0.001451	0.268092
-4.771294	-1.970607	0.355341	0.001531	0.267796
-4.989375	-1.924392	0.360346	0.001584	0.267809
-5.292832	-1.892273	0.365350	0.001659	0.267693
-5.777729	-1.849199	0.370355	0.001777	0.267474
-5.988182	-1.807234	0.375360	0.001829	0.267476
-6.389710	-1.729772	0.380365	0.001927	0.267469
-6.437560	-1.717124	0.385370	0.001939	0.267483
-6.506280	-1.706377	0.390374	0.001956	0.267471
-6.540023	-1.699556	0.395379	0.001964	0.267471
-6.318060	-1.741295	0.400384	0.001910	0.267478
-6.113368	-1.784549	0.405389	0.001860	0.267465
-5.995849	-1.804212	0.410394	0.001832	0.267479
-6.179817	-1.818287	0.415398	0.001877	0.267268
-6.449637	-1.790746	0.420403	0.001943	0.267160
-6.249766	-1.828383	0.425408	0.001894	0.267167
-6.336001	-1.858708	0.430413	0.001915	0.266967
-6.541338	-1.844069	0.435418	0.001966	0.266859
-6.594922	-1.835919	0.440422	0.001979	0.266848
-6.700930	-1.877136	0.445427	0.002005	0.266587
-6.932098	-1.841244	0.450432	0.002061	0.266546
-7.043015	-1.822023	0.455437	0.002089	0.266535
-6.984890	-1.888116	0.460442	0.002075	0.266304
-6.983822	-1.912470	0.465446	0.002075	0.266202
-7.074253	-1.915244	0.470451	0.002097	0.266115
-7.086487	-1.965432	0.475456	0.002100	0.265892
-7.237394	-1.937814	0.480461	0.002137	0.265883
-7.392519	-1.977111	0.485466	0.002175	0.265588
-7.573409	-1.944904	0.490470	0.002219	0.265573
-7.812255	-1.919214	0.495475	0.002278	0.265483
-8.107533	-1.908188	0.500480	0.002350	0.265284
-8.217473	-1.890957	0.505485	0.002377	0.265265
-8.119136	-1.906782	0.510490	0.002353	0.265279
-8.403438	-1.894886	0.515494	0.002423	0.265092
-8.703474	-1.869455	0.520499	0.002496	0.264950
-8.975496	-1.814895	0.525504	0.002563	0.264954
-9.059064	-1.801220	0.530509	0.002583	0.264942
-8.877366	-1.832976	0.535514	0.002539	0.264958
-8.969161	-1.816528	0.540518	0.002562	0.264951
-9.112920	-1.797249	0.545523	0.002597	0.264912
-8.965854	-1.888403	0.550528	0.002561	0.264648
-9.107517	-1.863376	0.555533	0.002596	0.264636
-9.050103	-1.871903	0.560538	0.002582	0.264647
-9.084512	-1.926080	0.565542	0.002591	0.264388
-9.071470	-1.941801	0.570547	0.002588	0.264331
-9.045792	-1.969515	0.575552	0.002581	0.264235
-9.327360	-1.950255	0.580557	0.002650	0.264081
-9.442929	-1.925935	0.585562	0.002679	0.264087
-9.783075	-1.938673	0.590566	0.002762	0.263748
-9.963092	-1.903627	0.595571	0.002806	0.263746
-10.071168	-1.880368	0.600576	0.002833	0.263754
-10.049311	-1.912647	0.605581	0.002827	0.263635
-10.318326	-1.906132	0.610586	0.002893	0.263437
-10.538481	-1.864584	0.615590	0.002947	0.263429
-10.683188	-1.836128	0.620595	0.002983	0.263429
-10.715324	-1.827325	0.625600	0.002991	0.263439
-11.036115	-1.767866	0.630605	0.003069	0.263423
-10.972662	-1.845170	0.635610	0.003054	0.263146
-10.961620	-1.855387	0.640614	0.003051	0.263111
-10.976251	-1.853360	0.645619	0.003055	0.263107
-10.928218	-1.860494	0.650624	0.003043	0.263116
-11.107559	-1.880484	0.655629	0.003087	0.262880
-11.095395	-1.896468	0.660634	0.003084	0.262822
-11.261868	-1.865113	0.665638	0.003125	0.262815
-11.327727	-1.889921	0.670643	0.003142	0.262654
-11.459881	-1.901073	0.675648	0.003174	0.262494
-11.457880	-1.903882	0.680653	0.003174	0.262484
-11.177896	-1.999943	0.685658	0.003105	0.262307
-11.707284	-1.925409	0.690662	0.003235	0.262181
-11.761133	-1.915484	0.695667	0.003248	0.262177
-12.073902	-1.923665	0.700672	0.003325	0.261878
-12.238930	-1.895623	0.705677	0.003365	0.261859
-12.479663	-1.845844	0.710682	0.003424	0.261869
-12.593918	-1.825101	0.715686	0.003452	0.261861
-12.665299	-1.811588	0.720691	0.003470	0.261859
-12.862477	-1.835187	0.725696	0.003518	0.261591
-13.193819	-1.779720	0.730701	0.003599	0.261549
-13.182350	-1.778862	0.735706	0.003596	0.261562
-13.025087	-1.811333	0.740710	0.003558	0.261554
-12.839366	-1.848115	0.745715	0.003513	0.261553
-12.647663	-1.908960	0.750720	0.003466	0.261453
-13.152536	-1.864562	0.755725	0.003590	0.261217
-12.953522	-1.900193	0.760730	0.003541	0.261231
-12.987864	-1.938727	0.765734	0.003550	0.261036
-13.295173	-1.908129	0.770739	0.003625	0.260907
-13.317855	-1.901809	0.775744	0.003631	0.260915
-13.316684	-1.969325	0.780749	0.003631	0.260625
-13.362594	-1.966417	0.785754	0.003642	0.260598
-13.714333	-1.923839	0.790758	0.003728	0.260483
-14.190506	-1.874307	0.795763	0.003844	0.260293
-14.278877	-1.854908	0.800768	0.003866	0.260301
-14.500832	-1.813151	0.805773	0.003921	0.260292
-14.783618	-1.755064	0.810778	0.003990	0.260303
-15.044809	-1.705468	0.815782	0.004054	0.260295
-15.233052	-1.669822	0.820787	0.004100	0.260288
-15.513383	-1.611634	0.825792	0.004168	0.260301
-15.621514	-1.593335	0.830797	0.004195	0.260288
-15.385867	-1.636479	0.835802	0.004137	0.260301
-15.256713	-1.663522	0.840806	0.004106	0.260293
-14.755777	-1.761555	0.845811	0.003984	0.260295
-14.387423	-1.862752	0.850816	0.003894	0.260170
-14.432438	-1.901866	0.855821	0.003905	0.259963
-14.363165	-1.962697	0.860826	0.003888	0.259758
-14.560284	-1.954645	0.865830	0.003937	0.259625
-14.906909	-1.950145	0.870835	0.004022	0.259349
-15.149082	-1.909471	0.875840	0.004081	0.259319
-15.424589	-1.905389	0.880845	0.004148	0.259101
-15.511310	-1.885669	0.885850	0.004170	0.259112
-15.683144	-1.879894	0.890854	0.004212	0.258990
-16.330330	-1.803808	0.895859	0.004370	0.258768
-16.490774	-1.770423	0.900864	0.004409	0.258776
-16.517183	-1.767351	0.905869	0.004416	0.258766
-16.556818	-1.757097	0.910874	0.004426	0.258776
-16.745614	-1.721380	0.915878	0.004472	0.258770
-16.843897	-1.702458	0.920883	0.004496	0.258767
-16.922961	-1.684188	0.925888	0.004516	0.258779
-16.893290	-1.729287	0.930893	0.004508	0.258608
-16.939296	-1.754514	0.935898	0.004520	0.258459
-16.815570	-1.779153	0.940902	0.004490	0.258457
-16.906962	-1.761908	0.945907	0.004512	0.258453
-16.987114	-1.785348	0.950912	0.004532	0.258282
-17.361171	-1.747907	0.955917	0.004623	0.258125
-17.273323	-1.762256	0.960922	0.004602	0.258137
-17.501510	-1.717554	0.965926	0.004658	0.258136
-17.327051	-1.787618	0.970931	0.004616	0.257980
-17.306151	-1.821947	0.975936	0.004611	0.257848
-17.331746	-1.819873	0.980941	0.004617	0.257834
-17.353658	-1.881882	0.985946	0.004623	0.257545
-17.425515	-1.875002	0.990950	0.004640	0.257513
-17.530709	-1.909019	0.995955	0.004666	0.257274
-17.768216	-1.878853	1.000960	0.004724	0.257201

-18.315727	-1.838177	1.010957	0.004858	0.256908
-18.850456	-1.688106	1.020954	0.004989	0.257103
-18.875902	-1.660686	1.030950	0.004996	0.257200
-18.906392	-1.627445	1.040947	0.005003	0.257318
-18.643760	-1.633968	1.050944	0.004939	0.257514
-18.407779	-1.679967	1.060941	0.004882	0.257514
-17.986127	-1.762150	1.070938	0.004779	0.257517
-17.998581	-1.760501	1.080934	0.004783	0.257512
-17.858171	-1.787793	1.090931	0.004749	0.257512
-17.782665	-1.802440	1.100928	0.004731	0.257512
-18.075006	-1.782884	1.110925	0.004802	0.257346
-18.189142	-1.721558	1.120922	0.004830	0.257515
-18.360305	-1.688410	1.130918	0.004872	0.257512
-18.077467	-1.743866	1.140915	0.004804	0.257511
-18.052345	-1.679809	1.150912	0.004798	0.257811
-18.054053	-1.671382	1.160909	0.004798	0.257845
-17.877622	-1.706221	1.170906	0.004756	0.257844
-17.694057	-1.741844	1.180902	0.004711	0.257845
-17.782481	-1.724881	1.190899	0.004733	0.257842
-17.708771	-1.684692	1.200896	0.004715	0.258079
-17.258664	-1.782075	1.210893	0.004606	0.258039
-17.491191	-1.780946	1.220890	0.004663	0.257844
-17.442819	-1.751063	1.230886	0.004651	0.258015
-17.320498	-1.746691	1.240883	0.004621	0.258137
-17.493816	-1.712287	1.250880	0.004664	0.258138
-17.499121	-1.710563	1.260877	0.004666	0.258140
-17.413660	-1.726793	1.270874	0.004645	0.258141
-17.325959	-1.744460	1.280870	0.004624	0.258138
-17.397883	-1.691241	1.290867	0.004642	0.258307
-17.144761	-1.705645	1.300864	0.004580	0.258460
-16.948255	-1.743725	1.310861	0.004532	0.258461
-16.681295	-1.795888	1.320858	0.004468	0.258462
-16.916375	-1.750193	1.330854	0.004525	0.258459
-16.820311	-1.769420	1.340851	0.004502	0.258456
-17.038349	-1.726077	1.350848	0.004556	0.258457
-17.294441	-1.674066	1.360845	0.004618	0.258464
-17.268738	-1.640416	1.370842	0.004612	0.258631
-17.013338	-1.656133	1.380838	0.004550	0.258779
-16.709989	-1.715425	1.390835	0.004476	0.258780
-16.463655	-1.764001	1.400832	0.004417	0.258778
-16.044496	-1.845229	1.410829	0.004314	0.258782
-15.964540	-1.864716	1.420826	0.004295	0.258765
-16.447524	-1.811565	1.430822	0.004413	0.258583
-16.427265	-1.771356	1.440819	0.004409	0.258774
-16.744684	-1.707956	1.450816	0.004487	0.258777
-16.687083	-1.718330	1.460813	0.004473	0.258780
-16.669376	-1.658690	1.470810	0.004469	0.259053
-16.437051	-1.690006	1.480806	0.004412	0.259114
-16.790920	-1.599474	1.490803	0.004499	0.259204
-16.662650	-1.589520	1.500800	0.004468	0.259355
-16.096814	-1.688920	1.510797	0.004330	0.259406
-15.401923	-1.836902	1.520794	0.004161	0.259355
-14.919820	-1.950830	1.530790	0.004043	0.259271
-15.077631	-1.956434	1.540787	0.004082	0.259112
-15.414687	-1.959412	1.550784	0.004165	0.258811
-16.303819	-1.770581	1.560781	0.004382	0.258871
-16.685997	-1.633930	1.570778	0.004475	0.259136
-17.013387	-1.504055	1.580774	0.004556	0.259419
-16.841073	-1.456681	1.590771	0.004514	0.259770
-16.174384	-1.540951	1.600768	0.004351	0.259971
-15.076542	-1.733791	1.610765	0.004083	0.260069
-14.554312	-1.864058	1.620762	0.003956	0.259949
-14.667295	-1.907092	1.630758	0.003984	0.259666
-14.732535	-1.932180	1.640755	0.004000	0.259501
-15.355469	-1.842475	1.650752	0.004153	0.259358
-15.871852	-1.691384	1.660749	0.004279	0.259572
-15.669543	-1.708168	1.670746	0.004230	0.259670
-15.346310	-1.750494	1.680742	0.004151	0.259761
-15.268015	-1.717021	1.690739	0.004132	0.259971
-15.591674	-1.652742	1.700736	0.004212	0.259973
-15.576946	-1.618165	1.710733	0.004208	0.260134
-15.636479	-1.567134	1.720730	0.004223	0.260303
-15.296027	-1.585863	1.730726	0.004140	0.260509
-14.403785	-1.751670	1.740723	0.003923	0.260550
-14.115872	-1.865710	1.750720	0.003853	0.260301
-13.965252	-1.932503	1.760717	0.003816	0.260140
-13.927571	-1.977593	1.770714	0.003807	0.259976
-14.502162	-1.924890	1.780710	0.003948	0.259715
-15.521571	-1.671963	1.790707	0.004197	0.259941
-15.894542	-1.533623	1.800704	0.004288	0.260221
-15.869736	-1.448515	1.810701	0.004283	0.260608
-15.341239	-1.481181	1.820698	0.004154	0.260913
-14.177560	-1.669315	1.830694	0.003870	0.261087
-13.294300	-1.884724	1.840691	0.003654	0.260906
-12.878004	-2.054559	1.850688	0.003553	0.260526
-13.255143	-2.040436	1.860685	0.003646	0.260266
-14.502116	-1.842869	1.870682	0.003950	0.260060
-15.305987	-1.620531	1.880678	0.004147	0.260337
-15.593930	-1.479448	1.890675	0.004217	0.260700
-15.333732	-1.439532	1.900672	0.004154	0.261091
-14.680145	-1.488357	1.910669	0.003995	0.261432
-13.283945	-1.750583	1.920666	0.003654	0.261484
-12.728575	-1.931866	1.930662	0.003519	0.261173
-12.644310	-2.024881	1.940659	0.003499	0.260843
-12.987907	-2.015076	1.950656	0.003583	0.260594
-13.826059	-1.881247	1.960653	0.003788	0.260459
-14.675524	-1.682380	1.970650	0.003995	0.260596
-14.927307	-1.552088	1.980646	0.004057	0.260943
-14.831702	-1.489465	1.990643	0.004034	0.261292
-14.226771	-1.546748	2.000640	0.003886	0.261556
-13.345167	-1.719182	2.010637	0.003671	0.261558
-12.544903	-1.875552	2.020634	0.003476	0.261561
-12.493373	-1.957574	2.030630	0.003464	0.261252
-12.847910	-1.923639	2.040627	0.003551	0.261097
-13.662144	-1.770356	2.050624	0.003750	0.261067
-13.984626	-1.668933	2.060621	0.003829	0.261230
-14.119427	-1.576775	2.070618	0.003862	0.261511
-13.631798	-1.626986	2.080614	0.003743	0.261706
-13.047290	-1.704296	2.090611	0.003601	0.261866
-12.915640	-1.730008	2.100608	0.003569	0.261866
-12.761436	-1.812464	2.110605	0.003532	0.261641
-12.680748	-1.846882	2.120602	0.003512	0.261560
-12.816268	-1.820460	2.130598	0.003546	0.261558
-12.932317	-1.797382	2.140595	0.003574	0.261559
-13.269027	-1.713437	2.150592	0.003657	0.261634
-13.510433	-1.611178	2.160589	0.003716	0.261868
-13.446095	-1.565607	2.170586	0.003700	0.262117
-12.973884	-1.642488	2.180582	0.003585	0.262184
-12.660179	-1.704496	2.190579	0.003509	0.262181
-12.341513	-1.766813	2.200576	0.003432	0.262182
-12.019131	-1.829405	2.210573	0.003353	0.262184
-11.833346	-1.881900	2.220570	0.003308	0.262115
-12.233841	-1.860192	2.230566	0.003406	0.261869
-12.420011	-1.824039	2.240563	0.003452	0.261867
-12.683858	-1.724996	2.250560	0.003517	0.262068
-13.090360	-1.617593	2.260557	0.003616	0.262185
-13.293363	-1.508780	2.270554	0.003666	0.262479
-12.980412	-1.496138	2.280550	0.003590	0.262795
-12.675559	-1.509690	2.290547	0.003515	0.262992
-11.882145	-1.636312	2.300544	0.003322	0.263116
-11.253492	-1.810884	2.310541	0.003169	0.262897
-11.025086	-1.894591	2.320538	0.003113	0.262731
-11.236435	-1.908190	2.330534	0.003165	0.262494
-11.438936	-1.911190	2.340531	0.003215	0.262310
-12.087660	-1.780380	2.350528	0.003374	0.262323
-12.430853	-1.672765	2.360525	0.003458	0.262494
-12.585695	-1.589215	2.370522	0.003496	0.262720
-12.513979	-1.544039	2.380518	0.003479	0.262972
-12.227758	-1.566920	2.390515	0.003409	0.263114
-11.958263	-1.558916	2.400512	0.003343	0.263373
-11.509159	-1.630951	2.410509	0.003234	0.263441
-11.180334	-1.695532	2.420506	0.003154	0.263440
-10.882788	-1.803411	2.430502	0.003082	0.263229
-11.124230	-1.782052	2.440499	0.003141	0.263116
-11.141838	-1.778322	2.450496	0.003145	0.263117
-11.107892	-1.783988	2.460493	0.003137	0.263120
-11.274895	-1.751520	2.470490	0.003178	0.263118
-11.313639	-1.743856	2.480486	0.003188	0.263117
-11.416708	-1.724493	2.490483	0.003214	0.263112
-11.499750	-1.642028	2.500480	0.003234	0.263393
-11.455421	-1.639154	2.510477	0.003224	0.263442
-11.342219	-1.623727	2.520474	0.003196	0.263601
-11.133038	-1.628476	2.530470	0.003145	0.263755
-11.255369	-1.604606	2.540467	0.003175	0.263753
-11.030164	-1.641597	2.550464	0.003121	0.263783
-10.639084	-1.692752	2.560461	0.003026	0.263892
-10.505832	-1.750529	2.570458	0.002993	0.263756
-10.498234	-1.751850	2.580454	0.002992	0.263756
-10.373438	-1.775900	2.590451	0.002962	0.263757
-10.460709	-1.758287	2.600448	0.002983	0.263758
-10.722878	-1.706999	2.610445	0.003047	0.263756
-10.873592	-1.658665	2.620442	0.003084	0.263835
-10.970558	-1.579334	2.630438	0.003108	0.264090
-11.032275	-1.540423	2.640435	0.003124	0.264203
-10.850223	-1.544830	2.650432	0.003080	0.264336
-10.610647	-1.552454	2.660429	0.003021	0.264502
-10.203165	-1.597223	2.670426	0.002922	0.264651
-9.896431	-1.658046	2.680422	0.002847	0.264648
-9.825030	-1.740242	2.690419	0.002830	0.264358
-9.698952	-1.769480	2.700416	0.002800	0.264338
-9.530495	-1.801696	2.710413	0.002759	0.264341
-9.703883	-1.767361	2.720410	0.002802	0.264341
-10.017514	-1.739446	2.730406	0.002878	0.264197
-10.406672	-1.628889	2.740403	0.002974	0.264340
-10.642791	-1.548208	2.750400	0.003032	0.264485
-10.631957	-1.493601	2.760397	0.003029	0.264725
-10.351507	-1.492735	2.770394	0.002961	0.264961
-9.995039	-1.522895	2.780390	0.002874	0.265129
-9.408435	-1.601746	2.790387	0.002731	0.265282
-9.217929	-1.715583	2.800384	0.002685	0.264958
-8.924930	-1.772324	2.810381	0.002614	0.264961
-8.932857	-1.791727	2.820378	0.002616	0.264871
-9.362867	-1.759518	2.830374	0.002721	0.264648
-9.631527	-1.679691	2.840371	0.002787	0.264762
-9.679119	-1.624719	2.850368	0.002799	0.264954
-9.843542	-1.587434	2.860365	0.002839	0.264974
-9.712571	-1.539371	2.870362	0.002808	0.265286
-9.642727	-1.553626	2.880358	0.002791	0.265283
-9.227344	-1.572295	2.890355	0.002690	0.265548
-9.008167	-1.608120	2.900352	0.002636	0.265578
-8.811097	-1.646108	2.910349	0.002589	0.265580
-8.699664	-1.734973	2.920346	0.002562	0.265296
-8.506887	-1.775368	2.930342	0.002515	0.265284
-8.776740	-1.722593	2.940339	0.002581	0.265282
-9.028310	-1.673680	2.950336	0.002643	0.265279
-9.298744	-1.590813	2.960333	0.002709	0.265404
-9.093548	-1.589725	2.970330	0.002659	0.265578
-9.184520	-1.560873	2.980326	0.002682	0.265623
-8.952718	-1.542101	2.990323	0.002625	0.265894
-8.944043	-1.543495	3.000320	0.002623	0.265895
-8.819569	-1.533342	3.010317	0.002593	0.266040
-8.345555	-1.584879	3.020314	0.002478	0.266214
-8.333013	-1.587584	3.030310	0.002475	0.266212
-8.160636	-1.671845	3.040307	0.002433	0.265999
-8.114687	-1.704812	3.050304	0.002422	0.265897
-8.216196	-1.683822	3.060301	0.002447	0.265900
-8.531657	-1.597625	3.070298	0.002525	0.266002
-8.650810	-1.524624	3.080294	0.002554	0.266210
-8.688273	-1.498561	3.090291	0.002563	0.266288
-8.601570	-1.454662	3.100288	0.002543	0.266544
-8.340609	-1.504654	3.110285	0.002479	0.266548
-8.001956	-1.508636	3.120282	0.002397	0.266811
-7.731878	-1.582936	3.130278	0.002331	0.266720
-7.722964	-1.625291	3.140275	0.002329	0.266548
-7.528297	-1.663647	3.150272	0.002282	0.266547
-7.631482	-1.643100	3.160269	0.002307	0.266547
-7.776322	-1.614062	3.170266	0.002343	0.266549
-7.729200	-1.623034	3.180262	0.002332	0.266549
-7.842793	-1.598067	3.190259	0.002360	0.266559
-7.829636	-1.530248	3.200256	0.002357	0.266855
-7.803857	-1.533679	3.210253	0.002351	0.266861
-7.896238	-1.506691	3.220250	0.002374	0.266897
-7.872252	-1.446408	3.230246	0.002368	0.267169
-7.748373	-1.471272	3.240243	0.002338	0.267166
-7.445910	-1.490639	3.250240	0.002264	0.267333
-7.119608	-1.573433	3.260237	0.002185	0.267254
-7.046732	-1.607482	3.270234	0.002167	0.267170
-6.862300	-1.644189	3.280230	0.002123	0.267167
-6.846958	-1.647223	3.290227	0.002119	0.267166
-7.175828	-1.581537	3.300224	0.002200	0.267170
-7.578990	-1.488209	3.310221	0.002299	0.267228
-7.601530	-1.422798	3.320218	0.002304	0.267483
-7.587053	-1.380100	3.330214	0.002301	0.267673
-7.219156	-1.420209	3.340211	0.002211	0.267807
-6.978514	-1.467409	3.350208	0.002153	0.267807
-6.781018	-1.505463	3.360205	0.002105	0.267809
-6.677101	-1.482816	3.370202	0.002080	0.267989
-6.465279	-1.542563	3.380198	0.002028	0.267912
-6.285631	-1.602657	3.390195	0.001985	0.267807
-6.407625	-1.578681	3.400192	0.002015	0.267806
-6.415024	-1.575997	3.410189	0.002017	0.267810
-6.521354	-1.555095	3.420186	0.002043	0.267809
-6.593712	-1.539986	3.430182	0.002061	0.267812
-6.728183	-1.473872	3.440179	0.002094	0.267977
-6.581236	-1.472505	3.450176	0.002059	0.268103
-6.666445	-1.455034	3.460173	0.002080	0.268105
-6.571869	-1.418568	3.470170	0.002057	0.268335
-6.385303	-1.432562	3.480166	0.002012	0.268429
-6.163777	-1.476322	3.490163	0.001958	0.268427
-6.041963	-1.500316	3.500160	0.001928	0.268426
-5.752639	-1.557248	3.510157	0.001858	0.268424
-5.665347	-1.574902	3.520154	0.001837	0.268421
-5.709547	-1.565368	3.530150	0.001848	0.268424
-5.994133	-1.509322	3.540147	0.001918	0.268423
-6.212800	-1.466225	3.550144	0.001971	0.268423
-6.399946	-1.403047	3.560141	0.002017	0.268533
-6.195174	-1.392622	3.570138	0.001968	0.268743
-6.070991	-1.385671	3.580134	0.001937	0.268873
-5.763731	-1.397502	3.590131	0.001863	0.269075
-5.559688	-1.437518	3.600128	0.001813	0.269074
-5.372263	-1.473866	3.610125	0.001768	0.269075
-5.376828	-1.471383	3.620122	0.001769	0.269081
-5.382237	-1.470622	3.630118	0.001771	0.269079
-5.368638	-1.474274	3.640115	0.001768	0.269074
-5.648562	-1.418434	3.650112	0.001836	0.269076
-5.592598	-1.428548	3.660109	0.001823	0.269079
-5.467513	-1.395503	3.670106	0.001793	0.269319
-5.398604	-1.408619	3.680102	0.001776	0.269319
-5.295760	-1.428844	3.690099	0.001751	0.269318
-5.406059	-1.395200	3.700096	0.001778	0.269367
-5.335000	-1.345875	3.710093	0.001761	0.269630
-5.400278	-1.332807	3.720090	0.001777	0.269630
-5.305947	-1.309799	3.730086	0.001755	0.269802
-5.366158	-1.265515	3.740083	0.001770	0.269936
-5.062023	-1.325356	3.750080	0.001696	0.269935
-4.665103	-1.365368	3.760077	0.001599	0.270092
-4.515680	-1.431049	3.770074	0.001563	0.269940
-4.345761	-1.464068	3.780070	0.001522	0.269941
-4.379693	-1.458047	3.790067	0.001530	0.269937
-4.523071	-1.429534	3.800064	0.001565	0.269937
-4.719391	-1.389811	3.810061	0.001614	0.269941
-5.021805	-1.301313	3.820058	0.001688	0.270061
-4.942900	-1.268877	3.830054	0.001669	0.270260
-4.801200	-1.267735	3.840051	0.001634	0.270379
-4.629348	-1.258327	3.850048	0.001593	0.270557
-4.247239	-1.332345	3.860045	0.001500	0.270561
-4.059540	-1.368710	3.870042	0.001454	0.270562
-4.042756	-1.372077	3.880038	0.001450	0.270561
-3.984958	-1.383375	3.890035	0.001436	0.270560
-4.108991	-1.358485	3.900032	0.001467	0.270561
-4.302035	-1.320736	3.910029	0.001514	0.270560
-4.387331	-1.276186	3.920026	0.001535	0.270674
-4.196814	-1.264651	3.930022	0.001489	0.270876
-4.281912	-1.248476	3.940019	0.001510	0.270873
-4.020053	-1.278866	3.950016	0.001447	0.270959
-3.868490	-1.252078	3.960013	0.001410	0.271192
-3.870717	-1.251526	3.970010	0.001411	0.271192
-3.760406	-1.272515	3.980006	0.001384	0.271194
-3.723262	-1.280496	3.990003	0.001375	0.271190
-3.738590	-1.276974	4.000000	0.001379	0.271191
-3.598212	-1.294509	4.009997	0.001345	0.271232
-3.477193	-1.247230	4.019994	0.001316	0.271525
-3.416632	-1.259260	4.029990	0.001301	0.271524
-3.469315	-1.249608	4.039987	0.001314	0.271520
-3.372317	-1.268689	4.049984	0.001291	0.271519
-3.342089	-1.273129	4.059981	0.001284	0.271524
-3.362560	-1.268544	4.069978	0.001289	0.271525
-3.345413	-1.271751	4.079974	0.001285	0.271525
-3.347360	-1.220510	4.089971	0.001286	0.271734
-3.359773	-1.193736	4.099968	0.001289	0.271834
-3.457535	-1.174097	4.109965	0.001313	0.271835
-3.387996	-1.127027	4.119962	0.001297	0.272085
-3.187891	-1.151550	4.129958	0.001248	0.272145
-3.064703	-1.176037	4.139955	0.001218	0.272143
-3.050391	-1.163306	4.149952	0.001215	0.272206
-2.869692	-1.137641	4.159949	0.001171	0.272457
-2.701621	-1.170605	4.169946	0.001130	0.272456
-2.635638	-1.183683	4.179942	0.001115	0.272455
-2.683538	-1.174879	4.189939	0.001127	0.272451
-2.741172	-1.163508	4.199936	0.001141	0.272451
-2.790275	-1.153519	4.209933	0.001153	0.272451
-2.815789	-1.083795	4.219930	0.001160	0.272717
-2.661551	-1.098089	4.229926	0.001122	0.272782
-2.575099	-1.115474	4.239923	0.001101	0.272779
-2.643432	-1.079962	4.249920	0.001118	0.272869
-2.484997	-1.059594	4.259917	0.001080	0.273080
-2.452262	-1.065864	4.269914	0.001072	0.273080
-2.438745	-1.067807	4.279910	0.001069	0.273082
-2.424504	-1.013061	4.289907	0.001066	0.273317
-2.288958	-1.020470	4.299904	0.001033	0.273395
-2.361595	-1.005172	4.309901	0.001051	0.273399
-2.434343	-0.946508	4.319898	0.001069	0.273580
-2.327283	-0.933796	4.329894	0.001043	0.273717
-2.179726	-0.957612	4.339891	0.001007	0.273738
-1.958911	-0.925703	4.349888	0.000954	0.274045
-1.815652	-0.952737	4.359885	0.000919	0.274049
-1.822444	-0.950450	4.369882	0.000921	0.274052
-1.950159	-0.925389	4.379878	0.000952	0.274051
-2.016701	-0.889059	4.389875	0.000969	0.274145
-1.903886	-0.878657	4.399872	0.000942	0.274277
-1.845776	-0.889688	4.409869	0.000928	0.274278
-1.838992	-0.846847	4.419866	0.000926	0.274458
-1.676332	-0.845426	4.429862	0.000887	0.274593
-1.639649	-0.853806	4.439859	0.000878	0.274588
-1.466130	-0.888112	4.449856	0.000836	0.274586
-1.462690	-0.815521	4.459853	0.000836	0.274884
-1.579505	-0.788899	4.469850	0.000864	0.274898
-1.527756	-0.798436	4.479846	0.000852	0.274900
-1.492319	-0.737072	4.489843	0.000844	0.275178
-1.432666	-0.737652	4.499840	0.000829	0.275223
-1.422059	-0.722762	4.509837	0.000827	0.275291
-1.289526	-0.691758	4.519834	0.000795	0.275522
-1.337020	-0.682373	4.529830	0.000807	0.275522
-1.315135	-0.627395	4.539827	0.000802	0.275762
-1.267062	-0.619338	4.549824	0.000790	0.275833
-1.264638	-0.584446	4.559821	0.000790	0.275976
-1.057281	-0.580767	4.569818	0.000739	0.276155
-1.093345	-0.568172	4.579814	0.000748	0.276177
-0.942421	-0.522729	4.589811	0.000712	0.276481
-0.756952	-0.558816	4.599808	0.000667	0.276481
-0.710293	-0.567460	4.609805	0.000656	0.276483
-0.730930	-0.539332	4.619802	0.000661	0.276579
-0.706650	-0.491136	4.629798	0.000655	0.276793
-0.737742	-0.485798	4.639795	0.000663	0.276789
-0.772094	-0.449102	4.649792	0.000672	0.276910
-0.849202	-0.386546	4.659789	0.000691	0.277101
-0.700549	-0.368899	4.669786	0.000655	0.277290
-0.516484	-0.373066	4.679782	0.000610	0.277418
-0.394175	-0.397878	4.689779	0.000581	0.277414
-0.234705	-0.374469	4.699776	0.000542	0.277635
-0.069762	-0.379988	4.709773	0.000502	0.277742
-0.164036	-0.360362	4.719770	0.000525	0.277746
-0.333496	-0.326880	4.729766	0.000567	0.277746
-0.377987	-0.259615	4.739763	0.000578	0.277981
-0.464611	-0.227727	4.749760	0.000599	0.278041
-0.323951	-0.177435	4.759757	0.000565	0.278354
-0.116968	-0.215616	4.769754	0.000515	0.278363
0.109294	-0.195333	4.779750	0.000460	0.278623
0.282368	-0.214938	4.789747	0.000418	0.278680
0.351090	-0.229359	4.799744	0.000401	0.278676
0.229647	-0.204107	4.809741	0.000431	0.278680
0.057868	-0.134298	4.819738	0.000473	0.278825
-0.115854	-0.053531	4.829734	0.000516	0.279011
-0.081844	-0.011631	4.839731	0.000508	0.279206
-0.098691	0.030706	4.849728	0.000512	0.279362
0.000000	0.062164	4.859725	0.000489	0.279565

0.177740	0.027883	4.864730	0.000445	0.279567
0.374907	0.064818	4.869734	0.000397	0.279870
0.414813	0.055554	4.874739	0.000388	0.279864
0.552362	0.066600	4.879744	0.000354	0.280016
0.685843	0.085061	4.884749	0.000322	0.280195
0.647957	0.119699	4.889754	0.000331	0.280303
0.723095	0.151539	4.894758	0.000313	0.280489
0.752337	0.197826	4.899763	0.000306	0.280697
0.793260	0.230577	4.904768	0.000296	0.280860
0.850017	0.285847	4.909773	0.000282	0.281125
0.686556	0.387985	4.914778	0.000322	0.281404
0.824528	0.433378	4.919782	0.000289	0.281692
0.868720	0.498014	4.924787	0.000278	0.281984
0.871738	0.574106	4.929792	0.000277	0.282288
0.979676	0.642282	4.934797	0.000251	0.282643
0.968705	0.724026	4.939802	0.000254	0.282958
1.018365	0.820477	4.944806	0.000242	0.283379
0.983542	0.928081	4.949811	0.000250	0.283777
1.187883	0.976310	4.954816	0.000200	0.284126
1.485947	1.011500	4.959821	0.000128	0.284496
1.485967	1.119783	4.964826	0.000128	0.284922
1.671692	1.183812	4.969830	0.000082	0.285317
1.753358	1.266905	4.974835	0.000063	0.285706
2.034687	1.329462	4.979840	-0.000006	0.286168
2.051762	1.434290	4.984845	-0.000010	0.286592
2.083683	1.533064	4.989850	-0.000018	0.287002
2.366966	1.602612	4.994854	-0.000087	0.287491
2.345022	1.709761	4.999859	-0.000082	0.287892
2.260979	1.859668	5.004864	-0.000061	0.288411
2.353845	1.967773	5.009869	-0.000084	0.288902
2.366502	2.077279	5.014874	-0.000087	0.289336
2.476852	2.200036	5.019878	-0.000114	0.289895
2.520409	2.327264	5.024883	-0.000124	0.290420
2.619880	2.450443	5.029888	-0.000148	0.290971
2.754140	2.577271	5.034893	-0.000181	0.291560
2.849063	2.710960	5.039898	-0.000204	0.292146
3.119836	2.810950	5.044902	-0.000270	0.292733
3.266506	2.930279	5.049907	-0.000306	0.293300
3.324357	3.067982	5.054912	-0.000320	0.293869
3.636621	3.145761	5.059917	-0.000397	0.294399
3.641797	3.295139	5.064922	-0.000398	0.294972
3.763795	3.426408	5.069926	-0.000428	0.295561
3.951986	3.553470	5.074931	-0.000473	0.296183
4.043517	3.697608	5.079936	-0.000496	0.296796
4.225465	3.827684	5.084941	-0.000540	0.297422
4.049606	4.022276	5.089946	-0.000497	0.298025
4.153032	4.186394	5.094950	-0.000523	0.298718
4.216655	4.338766	5.099955	-0.000538	0.299336
4.299857	4.501443	5.104960	-0.000558	0.300006
4.385463	4.672450	5.109965	-0.000579	0.300708
4.587797	4.821669	5.114970	-0.000629	0.301412
4.675081	5.002043	5.119974	-0.000650	0.302146
4.706659	5.190101	5.124979	-0.000658	0.302866
4.962812	5.336752	5.129984	-0.000720	0.303594
5.186409	5.481786	5.134989	-0.000775	0.304291
5.358641	5.638453	5.139994	-0.000817	0.304992
5.639675	5.772722	5.144998	-0.000885	0.305688
5.909759	5.915046	5.150003	-0.000951	0.306404
6.190449	6.048726	5.155008	-0.001020	0.307094
6.518063	6.171368	5.160013	-0.001100	0.307776
6.598460	6.334127	5.165018	-0.001120	0.308426
6.761528	6.476093	5.170022	-0.001159	0.309058
6.883831	6.628262	5.175027	-0.001189	0.309696
6.854767	6.819374	5.180032	-0.001182	0.310367
7.061473	6.981693	5.185037	-0.001233	0.311099
6.974630	7.198073	5.190042	-0.001211	0.311817
7.092490	7.379450	5.195046	-0.001240	0.312552
7.095835	7.593824	5.200051	-0.001241	0.313322
7.135893	7.786983	5.205056	-0.001251	0.314041
7.285577	7.974644	5.210061	-0.001287	0.314815
7.259907	8.198944	5.215066	-0.001281	0.315595
7.367069	8.419393	5.220070	-0.001307	0.316452
7.478355	8.629504	5.225075	-0.001335	0.317273
7.690964	8.821689	5.230080	-0.001386	0.318099
8.018670	8.990870	5.235085	-0.001467	0.318921
8.143313	9.177381	5.240090	-0.001497	0.319662
8.281298	9.392477	5.245094	-0.001531	0.320511
8.643177	9.552017	5.250099	-0.001619	0.321316
8.772296	9.756355	5.255104	-0.001651	0.322117
8.981681	9.945948	5.260109	-0.001702	0.322919
9.119213	10.145798	5.265114	-0.001735	0.323706
9.173536	10.360514	5.270118	-0.001749	0.324486
9.402881	10.544878	5.275123	-0.001805	0.325277
9.457592	10.778554	5.280128	-0.001818	0.326119
9.662600	10.980525	5.285133	-0.001868	0.326951
9.575082	11.236930	5.290138	-0.001847	0.327770
9.822046	11.445567	5.295142	-0.001907	0.328649
10.004432	11.639549	5.300147	-0.001952	0.329432
10.038843	11.876582	5.305152	-0.001960	0.330261
10.314558	12.083880	5.310157	-0.002028	0.331147
10.341810	12.335849	5.315162	-0.002034	0.332017
10.574409	12.545663	5.320166	-0.002091	0.332879
10.850675	12.745366	5.325171	-0.002159	0.333733
11.048136	12.944360	5.330176	-0.002207	0.334531
11.155271	13.182780	5.335181	-0.002233	0.335399
11.403694	13.388419	5.340186	-0.002294	0.336249
11.554862	13.613182	5.345190	-0.002331	0.337096
11.685641	13.850918	5.350195	-0.002363	0.337971
11.825642	14.076418	5.355200	-0.002397	0.338810
12.052482	14.283191	5.360205	-0.002452	0.339640
12.221747	14.501531	5.365210	-0.002494	0.340470
12.339344	14.752047	5.370214	-0.002523	0.341370
12.480636	14.989466	5.375219	-0.002557	0.342239
12.608042	15.225818	5.380224	-0.002588	0.343095
12.859806	15.436708	5.385229	-0.002650	0.343944
12.989522	15.671939	5.390234	-0.002681	0.344793
13.061954	15.928624	5.395238	-0.002699	0.345673
13.313142	16.155988	5.400243	-0.002761	0.346569
13.447774	16.398895	5.405248	-0.002794	0.347439
13.777962	16.608736	5.410253	-0.002874	0.348324
13.893391	16.838621	5.415258	-0.002902	0.349136
14.132575	17.060353	5.420262	-0.002961	0.349998
14.237824	17.309097	5.425267	-0.002987	0.350860
14.471652	17.530119	5.430272	-0.003044	0.351712
14.610324	17.784561	5.435277	-0.003078	0.352608
14.715085	18.031718	5.440282	-0.003103	0.353459
14.836015	18.264900	5.445286	-0.003133	0.354273
15.019439	18.503688	5.450291	-0.003178	0.355141
15.002069	18.791755	5.455296	-0.003174	0.356039
15.205978	19.045069	5.460301	-0.003223	0.356961
15.392796	19.293267	5.465306	-0.003269	0.357855
15.541606	19.548441	5.470310	-0.003306	0.358745
15.641394	19.809992	5.475315	-0.003330	0.359622
15.748529	20.079572	5.480320	-0.003356	0.360527
15.981882	20.338076	5.485325	-0.003413	0.361472
16.045012	20.621094	5.490330	-0.003429	0.362387
16.370721	20.857559	5.495334	-0.003508	0.363315
16.565392	21.095954	5.500339	-0.003556	0.364168
16.727834	21.355619	5.505344	-0.003596	0.365064
16.918779	21.623284	5.510349	-0.003642	0.366000
17.111821	21.877792	5.515354	-0.003690	0.366894
17.380824	22.126021	5.520358	-0.003755	0.367813
17.701483	22.344889	5.525363	-0.003834	0.368670
17.840108	22.588944	5.530368	-0.003868	0.369494
18.053976	22.835606	5.535373	-0.003920	0.370369
18.241016	23.089120	5.540378	-0.003966	0.371246
18.479012	23.336188	5.545382	-0.004024	0.372132
18.682887	23.583966	5.550387	-0.004074	0.372998
18.825023	23.820253	5.555392	-0.004108	0.373791
18.784046	24.118833	5.560397	-0.004099	0.374662
18.977611	24.378034	5.565402	-0.004146	0.375550
19.252988	24.626352	5.570406	-0.004213	0.376451
19.309761	24.914469	5.575411	-0.004227	0.377341
19.389447	25.197483	5.580416	-0.004247	0.378227
19.628383	25.442270	5.585421	-0.004305	0.379091
19.790226	25.706478	5.590426	-0.004345	0.379965
19.976586	25.979455	5.595430	-0.004390	0.380877
20.055247	26.275711	5.600435	-0.004410	0.381793
20.223893	26.551208	5.605440	-0.004451	0.382698
20.556240	26.792357	5.610445	-0.004532	0.383594
20.641339	27.066508	5.615450	-0.004553	0.384443
20.923843	27.321059	5.620454	-0.004622	0.385346
21.069663	27.603615	5.625459	-0.004658	0.386250
21.228120	27.875394	5.630464	-0.004696	0.387128
21.602667	28.116985	5.635469	-0.004788	0.388038
21.685265	28.373477	5.640474	-0.004808	0.388825
21.906587	28.631820	5.645478	-0.004862	0.389694
21.953106	28.930892	5.650483	-0.004874	0.390580
22.217336	29.185659	5.655488	-0.004938	0.391458
22.400765	29.464379	5.660493	-0.004983	0.392358
22.636713	29.724515	5.665498	-0.005041	0.393233
22.750989	29.985917	5.670502	-0.005069	0.394041
22.944852	30.255336	5.675507	-0.005116	0.394914
22.972961	30.560157	5.680512	-0.005123	0.395794
23.338147	30.808730	5.685517	-0.005212	0.396700
23.520540	31.080410	5.690522	-0.005257	0.397567
23.662512	31.355033	5.695526	-0.005292	0.398419
23.965760	31.588863	5.700531	-0.005366	0.399243
24.116692	31.856472	5.705536	-0.005403	0.400076
24.357500	32.132060	5.710541	-0.005462	0.400980
24.481312	32.407313	5.715546	-0.005492	0.401816
24.606568	32.690685	5.720550	-0.005523	0.402674
24.735555	32.969522	5.725555	-0.005554	0.403520
24.901579	33.240385	5.730560	-0.005595	0.404361
25.011420	33.538155	5.735565	-0.005622	0.405246
25.187880	33.823062	5.740570	-0.005665	0.406128
25.386710	34.100488	5.745574	-0.005714	0.407000
25.556125	34.394658	5.750579	-0.005755	0.407901
25.550693	34.688370	5.755584	-0.005754	0.408704
25.910839	34.947352	5.760589	-0.005842	0.409607
26.167998	35.212865	5.765594	-0.005905	0.410470
26.377082	35.487046	5.770598	-0.005956	0.411330
26.512878	35.784159	5.775603	-0.005989	0.412211
26.748634	36.053726	5.780608	-0.006047	0.413068
26.869220	36.329629	5.785613	-0.006076	0.413880
26.940547	36.630199	5.790618	-0.006094	0.414731
27.225210	36.904361	5.795622	-0.006163	0.415622
27.394421	37.199975	5.800627	-0.006205	0.416507
27.434753	37.510744	5.805632	-0.006215	0.417364
27.700219	37.785765	5.810637	-0.006280	0.418241
27.858802	38.064792	5.815642	-0.006319	0.419071
28.021450	38.357921	5.820646	-0.006358	0.419939
28.178853	38.667846	5.825651	-0.006397	0.420848
28.332693	38.961726	5.830656	-0.006435	0.421710
28.734116	39.215282	5.835661	-0.006533	0.422591
28.702766	39.528994	5.840666	-0.006525	0.423406
29.039824	39.792423	5.845670	-0.006608	0.424277
29.331375	40.056521	5.850675	-0.006679	0.425124
29.532116	40.330800	5.855680	-0.006728	0.425950
29.792381	40.608588	5.860685	-0.006792	0.426814
30.028979	40.874698	5.865690	-0.006849	0.427633
30.264647	41.120466	5.870694	-0.006907	0.428397
30.422029	41.402312	5.875699	-0.006946	0.429214
30.475345	41.694250	5.880704	-0.006959	0.430003
30.802030	41.960022	5.885709	-0.007038	0.430861
30.885889	42.251508	5.890714	-0.007059	0.431661
31.051116	42.531098	5.895718	-0.007099	0.432470
31.226153	42.814444	5.900723	-0.007142	0.433292
31.374725	43.079128	5.905728	-0.007179	0.434052
31.487917	43.379029	5.910733	-0.007206	0.434882
31.681319	43.671897	5.915738	-0.007254	0.435734
31.906166	43.950548	5.920742	-0.007309	0.436562
32.111139	44.233554	5.925747	-0.007359	0.437391
32.375583	44.490163	5.930752	-0.007424	0.438180
32.598715	44.746479	5.935757	-0.007478	0.438946
32.698721	45.045752	5.940762	-0.007503	0.439760
32.986188	45.304872	5.945766	-0.007573	0.440562
33.220961	45.582601	5.950771	-0.007630	0.441384
33.391230	45.845718	5.955776	-0.007672	0.442136
33.732779	46.100991	5.960781	-0.007755	0.442951
33.848723	46.348515	5.965786	-0.007784	0.443634
33.993858	46.639919	5.970790	-0.007819	0.444441
34.179814	46.904257	5.975795	-0.007865	0.445199
34.332018	47.192745	5.980800	-0.007902	0.445999
34.571750	47.452964	5.985805	-0.007961	0.446770
34.659372	47.752298	5.990810	-0.007982	0.447563
34.681090	48.034095	5.995814	-0.007988	0.448279
35.001247	48.295849	6.000819	-0.008066	0.449088
35.094126	48.575389	6.005824	-0.008089	0.449831
35.405831	48.854163	6.010829	-0.008165	0.450676
35.593430	49.116415	6.015834	-0.008211	0.451418
35.794268	49.398617	6.020838	-0.008260	0.452215
36.038196	49.652436	6.025843	-0.008319	0.452962
36.128151	49.928047	6.030848	-0.008341	0.453686
36.345986	50.198327	6.035853	-0.008395	0.454458
36.445769	50.495542	6.040858	-0.008419	0.455238
36.539931	50.795126	6.045862	-0.008442	0.456021
36.754174	51.081317	6.050867	-0.008495	0.456826
36.910108	51.367865	6.055872	-0.008533	0.457603
37.027144	51.656961	6.060877	-0.008561	0.458366
37.321754	51.908149	6.065882	-0.008634	0.459120
37.664162	52.162388	6.070886	-0.008717	0.459902
37.723797	52.469849	6.075891	-0.008732	0.460679
37.866243	52.757661	6.080896	-0.008767	0.461446
38.047601	53.045360	6.085901	-0.008811	0.462230
38.243836	53.316677	6.090906	-0.008859	0.462980
38.345000	53.608169	6.095910	-0.008884	0.463733
38.586351	53.880639	6.100915	-0.008943	0.464504
38.691861	54.186565	6.105920	-0.008969	0.465291
38.918727	54.467461	6.110925	-0.009024	0.466074
39.033517	54.773679	6.115930	-0.009052	0.466863
39.093345	55.088792	6.120934	-0.009067	0.467647
39.096349	55.400071	6.125939	-0.009068	0.468393
39.211187	55.715496	6.130944	-0.009096	0.469201
39.433016	56.023545	6.135949	-0.009150	0.470039
39.499701	56.366479	6.140954	-0.009167	0.470887
39.805178	56.654331	6.145958	-0.009241	0.471713
39.877388	56.993036	6.150963	-0.009259	0.472550
39.982511	57.300391	6.155968	-0.009285	0.473327
40.304713	57.593998	6.160973	-0.009364	0.474170
40.530241	57.887341	6.165978	-0.009419	0.474966
40.682290	58.219084	6.170982	-0.009456	0.475818
40.873295	58.527805	6.175987	-0.009503	0.476632
40.943505	58.865968	6.180992	-0.009520	0.477458
41.189955	59.156195	6.185997	-0.009580	0.478252
41.282191	59.482517	6.191002	-0.009603	0.479058
41.453301	59.809250	6.196006	-0.009645	0.479899
41.542226	60.163948	6.201011	-0.009667	0.480767
41.663653	60.496333	6.206016	-0.009697	0.481596
41.956393	60.814246	6.211021	-0.009768	0.482468
41.924813	61.164793	6.216026	-0.009761	0.483267
42.022210	61.516077	6.221030	-0.009784	0.484125
42.045057	61.900697	6.226035	-0.009790	0.485024
42.221415	62.250920	6.231040	-0.009833	0.485912
42.325085	62.631012	6.236045	-0.009859	0.486834
42.478669	62.986779	6.241050	-0.009896	0.487721
42.503884	63.358744	6.246054	-0.009903	0.488586
42.634470	63.743770	6.251059	-0.009935	0.489527
42.677177	64.149108	6.256064	-0.009945	0.490473
42.938143	64.520033	6.261069	-0.010009	0.491435
43.212622	64.879343	6.266074	-0.010076	0.492375
43.479836	65.206565	6.271078	-0.010142	0.493238
43.608635	65.589855	6.276083	-0.010173	0.494164
43.891957	65.939326	6.281088	-0.010243	0.495081
44.118479	66.302935	6.286093	-0.010298	0.496003
44.158042	66.693524	6.291098	-0.010308	0.496902
44.376234	67.052649	6.296102	-0.010361	0.497806
44.334138	67.462494	6.301107	-0.010351	0.498710
44.447301	67.854078	6.306112	-0.010379	0.499638
44.671702	68.245970	6.311117	-0.010434	0.500614
44.593412	68.687424	6.316122	-0.010415	0.501567
44.749507	69.095299	6.321126	-0.010453	0.502545
44.824344	69.509976	6.326131	-0.010472	0.503502
44.941095	69.934474	6.331136	-0.010501	0.504496
45.199612	70.345056	6.336141	-0.010564	0.505518
45.425584	70.744133	6.341146	-0.010619	0.506499
45.778689	71.119854	6.346150	-0.010706	0.507481
46.080970	71.471880	6.351155	-0.010780	0.508387
46.285991	71.853171	6.356160	-0.010830	0.509315
46.654392	72.216528	6.361165	-0.010920	0.510271
46.874424	72.587327	6.366170	-0.010974	0.511178
46.928385	72.995784	6.371174	-0.010987	0.512095
47.104063	73.363548	6.376179	-0.011030	0.512974
47.209580	73.752150	6.381184	-0.011056	0.513867
47.230167	74.190781	6.386189	-0.011061	0.514831
47.233015	74.634456	6.391194	-0.011062	0.515797
47.309929	75.071936	6.396198	-0.011081	0.516779
47.372175	75.512456	6.401203	-0.011097	0.517759
47.529260	75.926841	6.406208	-0.011135	0.518721
47.809653	76.350005	6.411213	-0.011204	0.519752
47.805745	76.816881	6.416218	-0.011203	0.520756
47.942101	77.260650	6.421222	-0.011236	0.521767
48.198032	77.680163	6.426227	-0.011299	0.522773
48.478308	78.082552	6.431232	-0.011368	0.523751
48.870654	78.473627	6.436237	-0.011464	0.524750
48.959104	78.915353	6.441242	-0.011486	0.525729
49.319298	79.300025	6.446246	-0.011574	0.526697
49.455775	79.717099	6.451251	-0.011607	0.527639
49.621065	80.109360	6.456256	-0.011648	0.528540
49.755642	80.544510	6.461261	-0.011681	0.529517
49.877794	80.984125	6.466266	-0.011711	0.530496
49.826562	81.463495	6.471270	-0.011699	0.531487
49.967877	81.916381	6.476275	-0.011733	0.532498
50.098753	82.341854	6.481280	-0.011765	0.533446
50.183885	82.815647	6.486285	-0.011786	0.534475
50.315083	83.289442	6.491290	-0.011819	0.535520
50.517546	83.744394	6.496294	-0.011868	0.536553
50.728089	84.192018	6.501299	-0.011920	0.537572
50.916748	84.618765	6.506304	-0.011966	0.538537
51.235746	85.063506	6.511309	-0.012044	0.539590
51.482779	85.501421	6.516314	-0.012105	0.540598
51.664578	85.940134	6.521318	-0.012149	0.541579
51.922036	86.368309	6.526323	-0.012212	0.542567
52.005796	86.807642	6.531328	-0.012233	0.543507
52.284566	87.243243	6.536333	-0.012301	0.544515
52.235982	87.743063	6.541338	-0.012290	0.545524
52.324328	88.222418	6.546342	-0.012311	0.546542
52.529503	88.668225	6.551347	-0.012362	0.547537
52.491969	89.150347	6.556352	-0.012353	0.548508
52.769779	89.620914	6.561357	-0.012421	0.549578
52.906375	90.102969	6.566362	-0.012454	0.550613
53.041891	90.586809	6.571366	-0.012488	0.551650
53.277306	91.048201	6.576371	-0.012546	0.552679
53.617929	91.465158	6.581376	-0.012629	0.553657
54.001529	91.895698	6.586381	-0.012723	0.554677
54.213835	92.341412	6.591386	-0.012775	0.555660
54.547725	92.760033	6.596390	-0.012857	0.556633
54.936041	93.148805	6.601395	-0.012952	0.557566
55.038192	93.573237	6.606400	-0.012977	0.558458
55.141091	94.031355	6.611405	-0.013002	0.559416
55.128938	94.517776	6.616410	-0.012999	0.560385
55.330981	94.966426	6.621414	-0.013049	0.561359
55.352027	95.454884	6.626419	-0.013054	0.562341
55.512224	95.897700	6.631424	-0.013093	0.563284
55.578155	96.394480	6.636429	-0.013110	0.564297
55.796568	96.860629	6.641434	-0.013163	0.565305
55.700075	97.400758	6.646438	-0.013140	0.566338
55.962413	97.865814	6.651443	-0.013204	0.567357
56.100479	98.328074	6.656448	-0.013238	0.568322
56.304461	98.824727	6.661453	-0.013288	0.569377
56.503179	99.313287	6.666458	-0.013337	0.570413
56.647173	99.804450	6.671462	-0.013372	0.571432
56.902581	100.270827	6.676467	-0.013435	0.572442
56.912610	100.780601	6.681472	-0.013438	0.573442
57.241625	101.254689	6.686477	-0.013518	0.574492
57.387869	101.748322	6.691482	-0.013554	0.575509
57.634804	102.232748	6.696486	-0.013615	0.576544
57.797245	102.714142	6.701491	-0.013655	0.577539
57.941827	103.194011	6.706496	-0.013690	0.578523
58.171060	103.682904	6.711501	-0.013746	0.579555
58.223719	104.210693	6.716506	-0.013760	0.580594
58.415088	104.707255	6.721510	-0.013806	0.581622
58.633557	105.182793	6.726515	-0.013860	0.582618
58.673663	105.700000	6.731520	-0.013870	0.583627
59.042858	106.182953	6.736525	-0.013960	0.584690
59.249064	106.673601	6.741530	-0.014011	0.585705
59.529929	107.140425	6.746534	-0.014080	0.586701
59.647493	107.622589	6.751539	-0.014109	0.587664
59.669700	108.147114	6.756544	-0.014114	0.588671
59.988927	108.631618	6.761549	-0.014193	0.589709
60.149151	109.126315	6.766554	-0.014232	0.590707
60.196644	109.650849	6.771558	-0.014244	0.591718
60.363915	110.138613	6.776563	-0.014285	0.592702
60.460498	110.654345	6.781568	-0.014309	0.593711
60.660323	111.174875	6.786573	-0.014358	0.594765
60.671103	111.732742	6.791578	-0.014361	0.595819
60.815396	112.262877	6.796582	-0.014396	0.596867
60.908136	112.781948	6.801587	-0.014419	0.597874
61.113942	113.317611	6.806592	-0.014470	0.598951
61.314497	113.856582	6.811597	-0.014519	0.600030
61.394795	114.416352	6.816602	-0.014539	0.601103
61.796319	114.901214	6.821606	-0.014637	0.602150
62.033842	115.396243	6.826611	-0.014695	0.603155
62.310761	115.903738	6.831616	-0.014763	0.604196
62.555291	116.414846	6.836621	-0.014823	0.605230
62.866331	116.897944	6.841626	-0.014899	0.606234
63.047670	117.381670	6.846630	-0.014944	0.607192
63.288557	117.856165	6.851635	-0.015003	0.608152
63.379467	118.378231	6.856640	-0.015025	0.609145
63.542499	118.897572	6.861645	-0.015065	0.610157
63.687024	119.416926	6.866650	-0.015101	0.611160
63.752078	119.935434	6.871654	-0.015117	0.612133
63.805870	120.477247	6.876659	-0.015130	0.613142
63.780272	121.054237	6.881664	-0.015124	0.614186
64.030721	121.594707	6.886669	-0.015186	0.615259
64.173641	122.147750	6.891674	-0.015221	0.616315
64.327804	122.680425	6.896678	-0.015259	0.617336
64.604717	123.195356	6.901683	-0.015327	0.618366
64.643361	123.778131	6.906688	-0.015337	0.619435
64.990829	124.302283	6.911693	-0.015422	0.620502
65.161818	124.841968	6.916698	-0.015464	0.621535
65.374463	125.356507	6.921702	-0.015516	0.622535
65.728121	125.861316	6.926707	-0.015603	0.623565
65.859197	126.398579	6.931712	-0.015635	0.624575
66.057293	126.931838	6.936717	-0.015683	0.625598
66.149557	127.494498	6.941722	-0.015706	0.626637
66.172828	128.018682	6.946726	-0.015712	0.627581
66.336326	128.573621	6.951731	-0.015752	0.628626
66.442874	129.157541	6.956736	-0.015779	0.629702
66.540605	129.735074	6.961741	-0.015803	0.630762
66.617234	130.319411	6.966746	-0.015822	0.631825
66.801020	130.864574	6.971750	-0.015867	0.632853
67.053050	131.429653	6.976755	-0.015929	0.633938
67.207136	132.008008	6.981760	-0.015967	0.635011
67.490878	132.560366	6.986765	-0.016036	0.636081
67.542645	133.146071	6.991770	-0.016049	0.637129
67.857893	133.667109	6.996774	-0.016127	0.638150
68.108724	134.227434	7.001779	-0.016188	0.639218
68.222441	134.814288	7.006784	-0.016216	0.640283
68.421253	135.379327	7.011789	-0.016265	0.641337
68.683714	135.900127	7.016794	-0.016329	0.642334
68.870984	136.459085	7.021798	-0.016375	0.643371
69.097890	137.019635	7.026803	-0.016431	0.644421
69.308994	137.562985	7.031808	-0.016483	0.645435
69.320947	138.174071	7.036813	-0.016486	0.646499
69.507470	138.694843	7.041818	-0.016532	0.647462
69.583877	139.276071	7.046822	-0.016551	0.648492
69.632209	139.914152	7.051827	-0.016563	0.649609
69.736426	140.506573	7.056832	-0.016589	0.650664
69.895259	141.116005	7.061837	-0.016628	0.651765
69.943832	141.710138	7.066842	-0.016640	0.652801
70.083637	142.335629	7.071846	-0.016674	0.653919
70.329930	142.937352	7.076851	-0.016735	0.655029
70.361576	143.587300	7.081856	-0.016743	0.656150
70.620218	144.164883	7.086861	-0.016806	0.657220
70.913658	144.753471	7.091866	-0.016878	0.658318
71.006574	145.377046	7.096870	-0.016901	0.659408
71.301311	145.983014	7.101875	-0.016974	0.660532
71.501362	146.571631	7.106880	-0.017023	0.661594
71.852759	147.133434	7.111885	-0.017109	0.662658
71.954766	147.737406	7.116890	-0.017134	0.663711
72.197913	148.329644	7.121894	-0.017194	0.664788
72.363928	148.937508	7.126899	-0.017235	0.665865
72.509182	149.516583	7.131904	-0.017270	0.666885
72.711384	150.105735	7.136909	-0.017320	0.667938
72.901685	150.702083	7.141914	-0.017367	0.668999
72.996625	151.326592	7.146918	-0.017390	0.670074
73.132455	151.950660	7.151923	-0.017424	0.671159
73.274502	152.518615	7.156928	-0.017459	0.672151
73.420127	153.150924	7.161933	-0.017495	0.673250
73.524334	153.784592	7.166938	-0.017521	0.674337
73.714779	154.412187	7.171942	-0.017567	0.675439
73.962626	155.022168	7.176947	-0.017628	0.676528
73.985613	155.644249	7.181952	-0.017634	0.677564
74.333268	156.238213	7.186957	-0.017719	0.678655
74.622947	156.853189	7.191962	-0.017790	0.679760
74.729067	157.467645	7.196966	-0.017817	0.680805
74.898492	158.085310	7.201971	-0.017858	0.681873
75.136791	158.667422	7.206976	-0.017917	0.682903
75.447357	159.257485	7.211981	-0.017993	0.683968
75.464985	159.916986	7.216986	-0.017998	0.685052
75.610609	160.533816	7.221990	-0.018034	0.686105
75.648997	161.159929	7.226995	-0.018043	0.687138
75.942165	161.752894	7.232000	-0.018115	0.688195
76.114308	162.399039	7.237005	-0.018158	0.689299
76.224977	163.043799	7.242010	-0.018185	0.690380
76.478968	163.650285	7.247014	-0.018247	0.691441
76.668859	164.256969	7.252019	-0.018294	0.692482
76.797934	164.885249	7.257024	-0.018326	0.693537
77.140345	165.505971	7.262029	-0.018410	0.694644
77.374300	166.111252	7.267034	-0.018467	0.695691
77.601893	166.696837	7.272038	-0.018523	0.696703
77.801117	167.300390	7.277043	-0.018572	0.697733
77.818721	167.940545	7.282048	-0.018577	0.698765
78.003210	168.579017	7.287053	-0.018622	0.699844
78.073632	169.239896	7.292058	-0.018640	0.700922
78.086928	169.873251	7.297062	-0.018643	0.701937
78.342824	170.518053	7.302067	-0.018706	0.703042
78.540136	171.151447	7.307072	-0.018754	0.704110
78.492513	171.865398	7.312077	-0.018743	0.705230
78.664099	172.517816	7.317082	-0.018785	0.706317
78.814111	173.157075	7.322086	-0.018822	0.707375
79.061137	173.812289	7.327091	-0.018883	0.708486
79.089129	174.517518	7.332096	-0.018890	0.709608
79.373378	175.175633	7.337101	-0.018960	0.710731
79.653968	175.793958	7.342106	-0.019029	0.711789
79.917983	176.420581	7.347110	-0.019094	0.712853
80.083023	177.097824	7.352115	-0.019134	0.713965
80.111505	177.782307	7.357120	-0.019142	0.715046
80.532921	178.405470	7.362125	-0.019245	0.716147
80.649767	179.030516	7.367130	-0.019274	0.717158
80.767501	179.703467	7.372134	-0.019303	0.718243
81.114536	180.337535	7.377139	-0.019388	0.719334
81.262666	180.998925	7.382144	-0.019425	0.720407
81.440193	181.637185	7.387149	-0.019468	0.721450
81.509296	182.300177	7.392154	-0.019485	0.722499
81.812082	182.936179	7.397158	-0.019560	0.723573
81.996054	183.594568	7.402163	-0.019605	0.724645
82.059896	184.281450	7.407168	-0.019621	0.725724
82.293229	184.892682	7.412173	-0.019678	0.726735
82.452900	185.555860	7.417178	-0.019718	0.727803
82.446423	186.255342	7.422182	-0.019716	0.728876
82.641587	186.949324	7.427187	-0.019764	0.729999
82.792902	187.621198	7.432192	-0.019802	0.731072
82.954791	188.284898	7.437197	-0.019842	0.732135
83.031384	188.986718	7.442202	-0.019861	0.733230
83.131330	189.710962	7.447206	-0.019885	0.734364
83.504767	190.368008	7.452211	-0.019977	0.735473
83.584236	191.060545	7.457216	-0.019997	0.736549
83.779537	191.733140	7.462221	-0.020045	0.737627
84.044207	192.428382	7.467226	-0.020110	0.738758
84.165900	193.115074	7.472230	-0.020140	0.739833
84.493277	193.801348	7.477235	-0.020220	0.740965
84.551159	194.457578	7.482240	-0.020235	0.741972
84.867569	195.135587	7.487245	-0.020312	0.743085
85.071160	195.808279	7.492250	-0.020363	0.744156
85.217857	196.502702	7.497254	-0.020399	0.745242
85.418912	197.173949	7.502259	-0.020448	0.746307
85.500777	197.847430	7.507264	-0.020469	0.747340
85.690431	198.546700	7.512269	-0.020515	0.748441
85.830313	199.252086	7.517274	-0.020550	0.749535
85.827179	199.988052	7.522278	-0.020549	0.750632
86.009580	200.669999	7.527283	-0.020594	0.751700
86.113723	201.379190	7.532288	-0.020620	0.752785
86.356163	202.106658	7.537293	-0.020680	0.753934
86.434328	202.837439	7.542298	-0.020699	0.755041
86.489413	203.589256	7.547302	-0.020713	0.756170
86.667741	204.301999	7.552307	-0.020757	0.757275
86.851490	205.033844	7.557312	-0.020802	0.758407
87.183086	205.757598	7.562317	-0.020884	0.759567
87.422935	206.464577	7.567322	-0.020943	0.760676
87.570258	207.159864	7.572326	-0.020979	0.761739
87.870520	207.853652	7.577331	-0.021053	0.762842
88.123839	208.559319	7.582336	-0.021115	0.763947
88.345275	209.257583	7.587341	-0.021169	0.765031
88.360143	209.999607	7.592346	-0.021173	0.766120
88.540469	210.670729	7.597350	-0.021218	0.767150
88.853873	211.380152	7.602355	-0.021295	0.768271
88.823593	212.131389	7.607360	-0.021288	0.769356
89.111151	212.849666	7.612365	-0.021358	0.770480
89.222057	213.546828	7.617370	-0.021386	0.771523
89.151068	214.318430	7.622374	-0.021369	0.772622
89.225884	215.117981	7.627379	-0.021388	0.773800
89.331732	215.888033	7.632384	-0.021414	0.774942
89.637291	216.624561	7.637389	-0.021489	0.776089
89.687090	217.393506	7.642394	-0.021501	0.777210
89.930589	218.146430	7.647398	-0.021561	0.778360
90.316489	218.880770	7.652403	-0.021656	0.779521
90.283482	219.673827	7.657408	-0.021648	0.780650
90.662373	220.356896	7.662413	-0.021741	0.781731
90.812973	221.130865	7.667418	-0.021779	0.782880
91.089844	221.859671	7.672422	-0.021847	0.783996
91.404795	222.586327	7.677427	-0.021924	0.785118
91.574679	223.288439	7.682432	-0.021966	0.786164
91.775339	223.997780	7.687437	-0.022015	0.787227
91.985098	224.731314	7.692442	-0.022067	0.788326
92.078323	225.480582	7.697446	-0.022090	0.789414
92.303704	226.219825	7.702451	-0.022145	0.790522
92.346516	226.938342	7.707456	-0.022156	0.791550
92.468708	227.698979	7.712461	-0.022186	0.792657
92.546152	228.494374	7.717466	-0.022206	0.793800
92.633771	229.282084	7.722470	-0.022228	0.794933
92.652160	230.079833	7.727475	-0.022233	0.796060
92.813898	230.847582	7.732480	-0.022272	0.797182
93.090790	231.645048	7.737485	-0.022341	0.798374
93.233597	232.437950	7.742490	-0.022376	0.799523
93.371474	233.223814	7.747494	-0.022410	0.800659
93.524157	234.014242	7.752499	-0.022448	0.801803
93.709367	234.803221	7.757504	-0.022493	0.802953
93.874822	235.614508	7.762509	-0.022534	0.804126
94.115716	236.418720	7.767514	-0.022594	0.805308
94.268921	237.161539	7.772518	-0.022631	0.806380
94.436702	237.967840	7.777523	-0.022673	0.807542
94.661519	238.763502	7.782528	-0.022728	0.808703
94.767051	239.585750	7.787533	-0.022754	0.809868
94.868383	240.391516	7.792538	-0.022780	0.811007
95.014591	241.178922	7.797542	-0.022816	0.812131
95.174737	242.024152	7.802547	-0.022855	0.813336
95.430884	242.830287	7.807552	-0.022918	0.814511
95.517373	243.654813	7.812557	-0.022940	0.815666
95.610178	244.471595	7.817562	-0.022963	0.816810
95.778366	245.307543	7.822566	-0.023005	0.817998
95.980958	246.159800	7.827571	-0.023054	0.819215
96.102866	247.002765	7.832576	-0.023085	0.820397
96.207323	247.829197	7.837581	-0.023111	0.821551
96.349768	248.688550	7.842586	-0.023146	0.822757
96.426983	249.569681	7.847590	-0.023165	0.823974
96.518818	250.476544	7.852595	-0.023188	0.825229
96.666030	251.299793	7.857600	-0.023225	0.826382
96.776632	252.196648	7.862605	-0.023252	0.827624
97.038395	253.083484	7.867610	-0.023317	0.828889
97.141278	253.973998	7.872614	-0.023342	0.830116
97.348232	254.817890	7.877619	-0.023393	0.831306
97.454700	255.709696	7.882624	-0.023420	0.832532
97.868926	256.563092	7.887629	-0.023521	0.833783
98.034751	257.446154	7.892634	-0.023562	0.835010
97.961519	258.333867	7.897638	-0.023545	0.836180
98.301994	259.198802	7.902643	-0.023629	0.837422
98.409379	260.101507	7.907648	-0.023655	0.838655
98.539242	261.012235	7.912653	-0.023688	0.839902
98.816819	261.862337	7.917658	-0.023756	0.841103
98.793927	262.781787	7.922662	-0.023751	0.842320
99.033229	263.703250	7.927667	-0.023810	0.843603
99.100612	264.630579	7.932672	-0.023827	0.844849
99.313450	265.501823	7.937677	-0.023879	0.846055
99.375114	266.437638	7.942682	-0.023895	0.847307
99.533695	267.374786	7.947686	-0.023934	0.848583
99.674088	268.332528	7.952691	-0.023969	0.849880
99.662882	269.265097	7.957696	-0.023967	0.851104
99.739330	270.240297	7.962701	-0.023986	0.852405
99.917570	271.235199	7.967706	-0.024030	0.853754
100.074295	272.203103	7.972710	-0.024069	0.855060
100.126292	273.171090	7.977715	-0.024082	0.856338
100.176106	274.182462	7.982720	-0.024095	0.857671
100.538147	275.163337	7.987725	-0.024184	0.859039
100.693469	276.153612	7.992730	-0.024223	0.860366
100.806929	277.114934	7.997734	-0.024251	0.861643
101.108463	278.103233	8.002739	-0.024325	0.862999
101.107693	279.136115	8.007744	-0.024325	0.864337
101.214633	280.135455	8.012749	-0.024352	0.865655
101.360041	281.123084	8.017754	-0.024388	0.866966
101.430825	282.180289	8.022758	-0.024406	0.868347
101.738808	283.196432	8.027763	-0.024482	0.869730
101.848523	284.171809	8.032768	-0.024509	0.871010
101.858937	285.244746	8.037773	-0.024513	0.872390
102.028764	286.303795	8.042778	-0.024555	0.873788
102.182980	287.352087	8.047782	-0.024593	0.875166
102.145980	288.427438	8.052787	-0.024584	0.876531
102.248226	289.523956	8.057792	-0.024610	0.877954
102.206992	290.661215	8.062797	-0.024601	0.879393
102.503084	291.739660	8.067802	-0.024674	0.880834
102.452071	292.865538	8.072806	-0.024662	0.882251
102.878180	293.960432	8.077811	-0.024767	0.883740
102.859743	295.099021	8.082816	-0.024763	0.885176
103.033360	296.176694	8.087821	-0.024806	0.886578
103.455186	297.261174	8.092826	-0.024910	0.888045
103.628438	298.371701	8.097830	-0.024953	0.889484
103.846305	299.433107	8.102835	-0.025006	0.890870
104.029967	300.530839	8.107840	-0.025052	0.892290
104.226701	301.630060	8.112845	-0.025101	0.893714
104.290994	302.770939	8.117850	-0.025117	0.895156
104.359743	303.858941	8.122854	-0.025134	0.896531
104.609312	304.993851	8.127859	-0.025196	0.898004
104.534213	306.180595	8.132864	-0.025178	0.899464
104.600503	307.328469	8.137869	-0.025195	0.900906
104.709394	308.508887	8.142874	-0.025223	0.902397
104.746187	309.724446	8.147878	-0.025232	0.903911
104.982429	310.904273	8.152883	-0.025291	0.905425
105.021318	312.096224	8.157888	-0.025301	0.906905
105.072074	313.343934	8.162893	-0.025314	0.908455
105.194729	314.573190	8.167898	-0.025345	0.909996
105.271872	315.775056	8.172902	-0.025364	0.911490
105.507463	317.020919	8.177907	-0.025423	0.913072
105.595603	318.282785	8.182912	-0.025445	0.914637
105.959142	319.435686	8.187917	-0.025534	0.916129
106.223563	320.664279	8.192922	-0.025600	0.917689
106.214704	321.928808	8.197926	-0.025598	0.919227
106.456000	323.131313	8.202931	-0.025658	0.920744
106.599366	324.371979	8.207936	-0.025694	0.922283
106.709598	325.647696	8.212941	-0.025721	0.923854
106.953357	326.861806	8.217946	-0.025782	0.925378
107.067439	328.090286	8.222950	-0.025810	0.926888
107.295960	329.360881	8.227955	-0.025867	0.928471
107.441700	330.605692	8.232960	-0.025903	0.930003
107.491752	331.855231	8.237965	-0.025916	0.931516
107.447188	333.214854	8.242970	-0.025906	0.933138
107.573894	334.513697	8.247974	-0.025938	0.934722
107.476860	335.860172	8.252979	-0.025915	0.936310
107.642645	337.218466	8.257984	-0.025956	0.937969
107.672812	338.602373	8.262989	-0.025965	0.939625
107.939245	339.925271	8.267994	-0.026030	0.941258
108.173145	341.268860	8.272998	-0.026088	0.942905
108.370933	342.624244	8.278003	-0.026138	0.944555
108.475698	343.939972	8.283008	-0.026164	0.946135
108.709380	345.300023	8.288013	-0.026222	0.947793
108.994684	346.649113	8.293018	-0.026292	0.949447
109.059553	347.959961	8.298022	-0.026309	0.951004
109.290614	349.339131	8.303027	-0.026366	0.952676
109.512113	350.697428	8.308032	-0.026421	0.954318
109.718028	351.993893	8.313037	-0.026472	0.955881
109.777355	353.391114	8.318042	-0.026488	0.957528
109.907840	354.784314	8.323046	-0.026520	0.959182
110.010909	356.147858	8.328051	-0.026546	0.960794
110.061703	357.575399	8.333056	-0.026560	0.962465
110.129892	359.014727	8.338061	-0.026577	0.964152
110.358737	360.376676	8.343066	-0.026634	0.965780
110.214530	361.862560	8.348070	-0.026600	0.967468
110.418892	363.343430	8.353075	-0.026651	0.969223
110.369553	364.797278	8.358080	-0.026639	0.970889
110.612107	366.292610	8.363085	-0.026700	0.972662
110.778146	367.783739	8.368090	-0.026741	0.974411
110.908112	369.228797	8.373094	-0.026774	0.976096
111.029042	370.767103	8.378099	-0.026804	0.977883
111.218278	372.255647	8.383104	-0.026851	0.979624
111.387271	373.736630	8.388109	-0.026894	0.981350
111.573168	375.268397	8.393114	-0.026940	0.983134
111.603705	376.789368	8.398118	-0.026948	0.984869
111.756855	378.322365	8.403123	-0.026987	0.986641
111.860832	379.875275	8.408128	-0.027013	0.988422
111.945200	381.408540	8.413133	-0.027035	0.990173
111.958151	383.001007	8.418138	-0.027039	0.991973
112.112888	384.595760	8.423142	-0.027078	0.993802
112.307702	386.137006	8.428147	-0.027126	0.995576
112.395699	387.747430	8.433152	-0.027149	0.997402
112.461025	389.368795	8.438157	-0.027166	0.999232
112.722618	390.945898	8.443162	-0.027231	1.001050
112.941163	392.541341	8.448166	-0.027285	1.002876
113.040236	394.164000	8.453171	-0.027310	1.004705
113.212281	395.752744	8.458176	-0.027353	1.006508
113.360863	397.391017	8.463181	-0.027390	1.008357
113.495702	399.007337	8.468186	-0.027424	1.010176
113.563491	400.650282	8.473190	-0.027442	1.012008
113.718082	402.336619	8.478195	-0.027481	1.013901
113.943833	403.929088	8.483200	-0.027537	1.015702
114.085498	405.611740	8.488205	-0.027573	1.017582
114.307575	407.273088	8.493210	-0.027628	1.019452
114.302756	408.934379	8.498214	-0.027628	1.021272
114.596122	410.619150	8.503219	-0.027701	1.023175
114.536593	412.309593	8.508224	-0.027687	1.025009
114.798911	413.977739	8.513229	-0.027752	1.026880
115.008993	415.689225	8.518234	-0.027805	1.028785
114.993709	417.365432	8.523238	-0.027802	1.030603
115.078294	419.140712	8.528243	-0.027824	1.032545
115.291881	420.855327	8.533248	-0.027877	1.034443
115.425608	422.569556	8.538253	-0.027911	1.036321
115.639076	424.338961	8.543258	-0.027964	1.038271
115.730670	426.062305	8.548262	-0.027987	1.040144
115.785411	427.863541	8.553267	-0.028002	1.042090
115.853680	429.654177	8.558272	-0.028020	1.044024
116.062563	431.386687	8.563277	-0.028072	1.045919
116.243890	433.216977	8.568282	-0.028117	1.047910
116.404101	434.972655	8.573287	-0.028158	1.049814
116.594092	436.768843	8.578291	-0.028205	1.051763
116.822258	438.564690	8.583296	-0.028262	1.053715
116.863719	440.363615	8.588301	-0.028273	1.055631
117.087620	442.198029	8.593306	-0.028329	1.057616
117.064928	444.032919	8.598311	-0.028325	1.059551
117.437144	445.832225	8.603315	-0.028417	1.061520
117.605569	447.681147	8.608320	-0.028459	1.063499
117.573798	449.500685	8.613325	-0.028453	1.065405
117.768375	451.384795	8.618330	-0.028501	1.067418
117.908243	453.229269	8.623335	-0.028537	1.069376
118.128801	455.059976	8.628339	-0.028592	1.071331
118.248253	456.953185	8.633344	-0.028622	1.073328
118.354416	458.798901	8.638349	-0.028649	1.075270
118.480205	460.716507	8.643354	-0.028681	1.077286
118.619028	462.608271	8.648359	-0.028716	1.079275
118.856089	464.486420	8.653363	-0.028775	1.081264
118.878881	466.444100	8.658368	-0.028782	1.083292
118.991766	468.312844	8.663373	-0.028811	1.085240
119.233005	470.264863	8.668378	-0.028871	1.087295
119.237043	472.211226	8.673383	-0.028873	1.089296
119.323481	474.177004	8.678387	-0.028896	1.091329
119.555447	476.153024	8.683392	-0.028954	1.093395
119.690011	478.087860	8.688397	-0.028988	1.095398
119.921492	480.079729	8.693402	-0.029046	1.097472
120.077308	482.039288	8.698407	-0.029085	1.099496
120.357440	483.987838	8.703411	-0.029155	1.101528
120.517034	485.980355	8.708416	-0.029195	1.103579
120.682021	487.892498	8.713421	-0.029236	1.105545
121.070052	489.859570	8.718426	-0.029332	1.107604
121.161658	491.774981	8.723431	-0.029356	1.109554
121.385937	493.757907	8.728435	-0.029412	1.111591
121.558276	495.716853	8.733440	-0.029456	1.113592
121.608194	497.687365	8.738445	-0.029469	1.115578
121.950041	499.669446	8.743450	-0.029554	1.117625
122.021365	501.628500	8.748455	-0.029572	1.119597
122.120865	503.658180	8.753459	-0.029598	1.121640
122.183617	505.685013	8.758464	-0.029615	1.123671
122.298309	507.674076	8.763469	-0.029644	1.125669
122.326114	509.786035	8.768474	-0.029652	1.127770
122.394067	511.816377	8.773479	-0.029670	1.129794
122.713450	513.885771	8.778483	-0.029749	1.131898
122.948520	515.927249	8.783488	-0.029808	1.133955
122.951676	517.995061	8.788493	-0.029810	1.135993
123.128776	520.119490	8.793498	-0.029855	1.138113
123.255620	522.179937	8.798503	-0.029887	1.140159
123.381880	524.324205	8.803507	-0.029919	1.142282
123.671407	526.382570	8.808512	-0.029991	1.144347
123.673814	528.512708	8.813517	-0.029993	1.146427
123.970210	530.618500	8.818522	-0.030067	1.148531
124.021031	532.708196	8.823527	-0.030081	1.150573
124.302303	534.858929	8.828531	-0.030151	1.152710
124.478927	536.927151	8.833536	-0.030196	1.154746
124.529687	539.096149	8.838541	-0.030209	1.156853
124.706274	541.242489	8.843546	-0.030254	1.158957
124.840933	543.382290	8.848551	-0.030288	1.161043
125.248367	545.512439	8.853555	-0.030389	1.163163
125.279844	547.611292	8.858560	-0.030398	1.165185
125.343322	549.821614	8.863565	-0.030415	1.167315
125.607935	551.954523	8.868570	-0.030481	1.169402
125.751408	554.121974	8.873575	-0.030518	1.171497
125.852424	556.320990	8.878579	-0.030544	1.173611
126.079357	558.479808	8.883584	-0.030600	1.175705
126.255864	560.688464	8.888589	-0.030645	1.177834
126.329859	562.872578	8.893594	-0.030664	1.179918
126.656673	565.064460	8.898599	-0.030746	1.182049
126.966308	567.190628	8.903603	-0.030823	1.184111
126.968208	569.406141	8.908608	-0.030825	1.186202
127.183707	571.593981	8.913613	-0.030879	1.188299
127.319365	573.784971	8.918618	-0.030913	1.190381
127.305382	576.055531	8.923623	-0.030911	1.192510
127.564052	578.234526	8.928627	-0.030976	1.194595
127.670901	580.518300	8.933632	-0.031004	1.196748
127.782255	582.763506	8.938637	-0.031032	1.198863
128.045521	585.016814	8.943642	-0.031098	1.201006
128.207413	587.259561	8.948647	-0.031139	1.203119
128.410282	589.482592	8.953651	-0.031190	1.205217
128.581511	591.776004	8.958656	-0.031233	1.207371
128.909990	593.944438	8.963661	-0.031315	1.209432
129.171167	596.212457	8.968666	-0.031380	1.211570
129.334687	598.417483	8.973671	-0.031422	1.213630
129.716885	600.629816	8.978675	-0.031516	1.215729
129.944864	602.844666	8.983680	-0.031574	1.217801
130.099687	605.015889	8.988685	-0.031613	1.219819
130.402838	607.264296	8.993690	-0.031688	1.221927
130.408523	609.475656	8.998695	-0.031691	1.223950
130.589616	611.723788	9.003699	-0.031737	1.226031
130.598982	613.998083	9.008704	-0.031741	1.228105
130.737877	616.229639	9.013709	-0.031776	1.230157
130.850858	618.553806	9.018714	-0.031805	1.232286
130.872626	620.820112	9.023719	-0.031812	1.234344
131.098195	623.163763	9.028723	-0.031869	1.236501
131.080542	625.502007	9.033728	-0.031866	1.238610
131.260784	627.830463	9.038733	-0.031911	1.240739
131.512131	630.179869	9.043738	-0.031974	1.242895
131.650520	632.469125	9.048743	-0.032009	1.244974
131.934846	634.833703	9.053747	-0.032081	1.247141
131.977663	637.152745	9.058752	-0.032092	1.249225
132.348931	639.492473	9.063757	-0.032185	1.251376
132.775792	641.756442	9.068762	-0.032290	1.253464
132.796277	644.072450	9.073767	-0.032297	1.255532
133.013530	646.426703	9.078771	-0.032352	1.257660
133.165564	648.730012	9.083776	-0.032390	1.259730
133.315071	651.088625	9.088781	-0.032428	1.261845
133.387414	653.412410	9.093786	-0.032447	1.263913
133.548187	655.779457	9.098791	-0.032488	1.266030
133.679317	658.162150	9.103795	-0.032522	1.268153
133.806657	660.529786	9.108800	-0.032555	1.270258
134.046057	662.916165	9.113805	-0.032615	1.272394
134.212566	665.260980	9.118810	-0.032657	1.274478
134.468981	667.659788	9.123815	-0.032721	1.276620
134.725107	670.010204	9.128819	-0.032785	1.278716
135.019471	672.366158	9.133824	-0.032859	1.280819
135.176944	674.704297	9.138829	-0.032899	1.282883
135.510695	677.020313	9.143834	-0.032982	1.284950
135.826733	679.341343	9.148839	-0.033060	1.287016
135.929973	681.647459	9.153843	-0.033087	1.289033
136.104275	684.010344	9.158848	-0.033131	1.291107
136.058333	686.382630	9.163853	-0.033121	1.293153
136.256376	688.775694	9.168858	-0.033171	1.295250
136.202968	691.216297	9.173863	-0.033160	1.297346
136.379535	693.631113	9.178867	-0.033205	1.299452
136.409056	696.118738	9.183872	-0.033214	1.301595
136.525171	698.501695	9.188877	-0.033243	1.303657
136.746704	700.984114	9.193882	-0.033299	1.305817
136.732518	703.462238	9.198887	-0.033297	1.307935
136.955396	705.935447	9.203891	-0.033353	1.310080
137.072682	708.458165	9.208896	-0.033384	1.312248
137.483392	710.862925	9.213901	-0.033486	1.314356
137.951468	713.306989	9.218906	-0.033602	1.316503
138.156145	715.674403	9.223911	-0.033653	1.318542
138.567588	718.088029	9.228915	-0.033755	1.320647
138.890091	720.427405	9.233920	-0.033836	1.322673
139.022959	722.782023	9.238925	-0.033870	1.324681
139.238003	725.195472	9.243930	-0.033924	1.326748
139.286840	727.545788	9.248935	-0.033937	1.328734
139.527345	729.967814	9.253939	-0.033997	1.330805
139.530494	732.406587	9.258944	-0.034000	1.332852
139.578868	734.850725	9.263949	-0.034013	1.334907
139.728178	737.346388	9.268954	-0.034051	1.337017
139.649044	739.821661	9.273959	-0.034034	1.339073
139.880177	742.366955	9.278963	-0.034092	1.341229
139.998022	744.838351	9.283968	-0.034122	1.343304
140.094770	747.376478	9.288973	-0.034147	1.345429
140.340961	749.893014	9.293978	-0.034209	1.347553
140.479301	752.395262	9.298983	-0.034245	1.349647
140.880216	754.910710	9.303987	-0.034344	1.351786
141.092968	757.371139	9.308992	-0.034398	1.353849
141.243020	759.893271	9.313997	-0.034436	1.355952
141.630970	762.345801	9.319002	-0.034533	1.358027
141.814678	764.835435	9.324007	-0.034579	1.360101
142.097925	767.279512	9.329011	-0.034650	1.362148
142.281768	769.719099	9.334016	-0.034696	1.364174
142.397597	772.221126	9.339021	-0.034726	1.366239
142.531218	774.680902	9.344026	-0.034761	1.368269
142.560108	777.231244	9.349031	-0.034769	1.370354
142.756508	779.753971	9.354035	-0.034819	1.372438
142.935409	782.259070	9.359040	-0.034864	1.374502
143.026579	784.834143	9.364045	-0.034888	1.376607
143.071632	787.390749	9.369050	-0.034901	1.378687
143.347650	789.956033	9.374055	-0.034970	1.380803
143.614538	792.478464	9.379059	-0.035037	1.382881
143.961108	795.007664	9.384064	-0.035123	1.384972
144.258703	797.474701	9.389069	-0.035198	1.387002
144.646507	799.908943	9.394074	-0.035294	1.389016
144.924414	802.369917	9.399079	-0.035363	1.391033
145.233658	804.772157	9.404083	-0.035440	1.393005
145.381578	807.230678	9.409088	-0.035478	1.394996
145.386451	809.718403	9.414093	-0.035481	1.396988
145.564550	812.180029	9.419098	-0.035526	1.398981
145.594242	814.725783	9.424103	-0.035535	1.401017
145.708042	817.191005	9.429107	-0.035565	1.402997
145.741453	819.779761	9.434112	-0.035574	1.405062
145.735510	822.355130	9.439117	-0.035575	1.407108
145.916079	824.946071	9.444122	-0.035620	1.409189
146.054431	827.561181	9.449127	-0.035656	1.411280
146.121436	830.142139	9.454131	-0.035674	1.413332
146.337855	832.807785	9.459136	-0.035729	1.415467
146.698859	835.357884	9.464141	-0.035818	1.417528
147.049337	837.916420	9.469146	-0.035906	1.419591
147.269089	840.482965	9.474151	-0.035961	1.421639
147.591580	842.946795	9.479155	-0.036042	1.423618
148.029914	845.467814	9.484160	-0.036150	1.425654
148.343681	847.876736	9.489165	-0.036229	1.427583
148.671112	850.347800	9.494170	-0.036310	1.429560
148.855810	852.816238	9.499175	-0.036357	1.431513
149.107155	855.211036	9.504179	-0.036420	1.433414
149.121266	857.732076	9.509184	-0.036425	1.435380
149.162551	860.218403	9.514189	-0.036437	1.437320
149.363013	862.734192	9.519194	-0.036487	1.439301
149.409621	865.274561	9.524199	-0.036500	1.441278
149.417333	867.795637	9.529203	-0.036504	1.443232
149.616633	870.388798	9.534208	-0.036554	1.445265
149.739271	872.928604	9.539213	-0.036586	1.447243
149.930685	875.514467	9.544218	-0.036634	1.449263
150.002104	878.126079	9.549223	-0.036654	1.451285
150.325469	880.660284	9.554227	-0.036734	1.453277
150.616321	883.232290	9.559232	-0.036807	1.455291
150.663007	885.821627	9.564237	-0.036820	1.457284
150.997977	888.378337	9.569242	-0.036904	1.459286
151.271865	890.931108	9.574247	-0.036972	1.461275
151.556363	893.408590	9.579251	-0.037043	1.463205
151.659542	896.000897	9.584256	-0.037070	1.465197
151.736388	898.530729	9.589261	-0.037091	1.467135
152.039164	901.077314	9.594266	-0.037166	1.469112
152.218754	903.637242	9.599271	-0.037212	1.471081
152.482837	906.111431	9.604275	-0.037278	1.472992
152.635871	908.710166	9.609280	-0.037317	1.474982
152.715165	911.249438	9.614285	-0.037338	1.476914
153.020566	913.789107	9.619290	-0.037414	1.478873
153.186065	916.364834	9.624295	-0.037456	1.480839
153.517855	918.810051	9.629299	-0.037539	1.482725
153.729830	921.369616	9.634304	-0.037593	1.484679
153.938875	923.865624	9.639309	-0.037645	1.486583
154.286486	926.328392	9.644314	-0.037732	1.488477
154.401435	928.862246	9.649319	-0.037762	1.490392
154.678111	931.313925	9.654323	-0.037831	1.492264
154.977529	933.799807	9.659328	-0.037906	1.494161
154.962281	936.334299	9.664333	-0.037903	1.496053
155.206350	938.807971	9.669338	-0.037965	1.497930
155.323246	941.345242	9.674343	-0.037995	1.499836
155.533289	943.837778	9.679347	-0.038048	1.501718
155.561383	946.352808	9.684352	-0.038056	1.503591
155.841207	948.892982	9.689357	-0.038126	1.505512
156.064306	951.368748	9.694362	-0.038183	1.507376
156.325651	953.885088	9.699367	-0.038248	1.509272
156.511496	956.405342	9.704371	-0.038295	1.511160
156.748675	958.869660	9.709376	-0.038355	1.513010
157.054918	961.366754	9.714381	-0.038431	1.514890
157.353004	963.819472	9.719386	-0.038506	1.516735
157.653314	966.228224	9.724391	-0.038581	1.518545
158.205015	968.613718	9.729395	-0.038717	1.520367
158.504946	970.915795	9.734400	-0.038792	1.522094
158.886415	973.207557	9.739405	-0.038886	1.523822
159.206255	975.552874	9.744410	-0.038966	1.525580
159.303843	977.797787	9.749415	-0.038991	1.527235
159.613163	980.094328	9.754419	-0.039068	1.528951
159.745727	982.440238	9.759424	-0.039102	1.530680
159.780859	984.704068	9.764429	-0.039112	1.532336
159.800098	987.126287	9.769434	-0.039119	1.534103
159.730653	989.551318	9.774439	-0.039103	1.535859
159.732523	991.986740	9.779443	-0.039105	1.537630
159.732209	994.514610	9.784448	-0.039107	1.539465
159.909486	996.984193	9.789453	-0.039152	1.541277
159.994573	999.481612	9.794458	-0.039174	1.543096
160.160136	1002.021480	9.799463	-0.039216	1.544954
160.514882	1004.440197	9.804467	-0.039305	1.546744
160.721650	1006.908998	9.809472	-0.039357	1.548551
161.134791	1009.363714	9.814477	-0.039459	1.550370
161.459197	1011.714539	9.819482	-0.039540	1.552102
161.916211	1014.052325	9.824487	-0.039653	1.553838
162.262032	1016.412892	9.829491	-0.039739	1.555575
162.570355	1018.643813	9.834496	-0.039816	1.557213
162.657363	1020.988032	9.839501	-0.039839	1.558904
162.860520	1023.366562	9.844506	-0.039890	1.560631
162.867690	1025.620080	9.849511	-0.039893	1.562244
162.897229	1028.063678	9.854515	-0.039902	1.563994
163.040145	1030.474797	9.859520	-0.039938	1.565732
163.063348	1032.800284	9.864525	-0.039946	1.567392

163.075707	1035.264685	9.869530	-0.039950	1.569149
163.145419	1037.658899	9.874535	-0.039969	1.570860
163.322862	1039.957684	9.879539	-0.040014	1.572515
163.584451	1042.327953	9.884544	-0.040079	1.574228
163.710980	1044.596602	9.889549	-0.040112	1.575852
164.024017	1046.795764	9.894554	-0.040189	1.577446
164.452268	1048.955678	9.899559	-0.040295	1.579025
164.771906	1051.057415	9.904563	-0.040375	1.580548
164.948744	1053.031201	9.909568	-0.040419	1.581963
165.176822	1055.070699	9.914573	-0.040476	1.583429
165.447713	1057.052581	9.919578	-0.040544	1.584858
165.429341	1059.005374	9.924583	-0.040541	1.586231
165.686845	1060.880818	9.929587	-0.040605	1.587581
165.921996	1062.829123	9.934592	-0.040663	1.588978
165.963638	1064.699980	9.939597	-0.040675	1.590297
166.017152	1066.528622	9.944602	-0.040689	1.591587
166.017054	1068.396761	9.949607	-0.040690	1.592897
166.150041	1070.293753	9.954611	-0.040724	1.594242
166.428208	1072.100448	9.959616	-0.040793	1.595539
166.344948	1073.854147	9.964621	-0.040774	1.596757
166.505728	1075.667938	9.969626	-0.040814	1.598043
166.572788	1077.458862	9.974631	-0.040832	1.599302
166.779032	1079.203036	9.979635	-0.040883	1.600543
166.994224	1080.811693	9.984640	-0.040937	1.601690
167.090365	1082.474952	9.989645	-0.040961	1.602860
167.278013	1084.177093	9.994650	-0.041008	1.604067
167.434672	1085.784010	9.999655	-0.041047	1.605203
167.595773	1087.315257	10.004659	-0.041088	1.606287
167.764241	1088.867028	10.009664	-0.041130	1.607385
167.910429	1090.391178	10.014669	-0.041167	1.608460
168.110750	1091.902316	10.019674	-0.041216	1.609531
168.279136	1093.382596	10.024679	-0.041258	1.610577
168.562965	1094.693106	10.029683	-0.041329	1.611518
168.765861	1096.060077	10.034688	-0.041379	1.612488
168.695336	1097.456503	10.039693	-0.041363	1.613447
168.842227	1098.837738	10.044698	-0.041399	1.614419
168.972147	1100.153971	10.049703	-0.041432	1.615344
168.990637	1101.450832	10.054707	-0.041437	1.616242
169.117729	1102.736956	10.059712	-0.041469	1.617145
169.084759	1104.043475	10.064717	-0.041462	1.618043
169.247736	1105.351443	10.069722	-0.041502	1.618964
169.261237	1106.630084	10.074727	-0.041506	1.619847
169.367693	1107.913240	10.079731	-0.041533	1.620744
169.498201	1109.078494	10.084736	-0.041566	1.621561
169.700495	1110.232837	10.089741	-0.041616	1.622378
169.787209	1111.466826	10.094746	-0.041638	1.623237
169.983578	1112.588657	10.099751	-0.041686	1.624031
170.208343	1113.680984	10.104755	-0.041742	1.624807
170.139192	1114.813503	10.109760	-0.041726	1.625577
170.203797	1115.805566	10.114765	-0.041742	1.626266
170.245688	1116.877957	10.119770	-0.041753	1.627007
170.302070	1117.999899	10.124775	-0.041767	1.627783
170.397705	1119.049272	10.129779	-0.041791	1.628513
170.387894	1120.122043	10.134784	-0.041790	1.629248
170.357600	1121.215274	10.139789	-0.041783	1.629993
170.503049	1122.253868	10.144794	-0.041819	1.630721
170.563600	1123.177499	10.149799	-0.041834	1.631360
170.756321	1124.193999	10.154803	-0.041882	1.632077
170.757377	1125.209833	10.159808	-0.041883	1.632772
170.672220	1126.219842	10.164813	-0.041863	1.633453
170.993029	1127.174326	10.169818	-0.041941	1.634141
171.207514	1128.056095	10.174823	-0.041994	1.634767
171.302742	1128.970245	10.179827	-0.042018	1.635402
171.509053	1129.748416	10.184832	-0.042069	1.635956
171.658797	1130.503836	10.189837	-0.042106	1.636489
171.843052	1131.286845	10.194842	-0.042151	1.637043
171.859636	1132.091052	10.199847	-0.042156	1.637593
171.887892	1132.856302	10.204851	-0.042163	1.638118
172.167320	1133.564158	10.209856	-0.042232	1.638632
172.065164	1134.332587	10.214861	-0.042207	1.639144
172.221391	1134.990401	10.219866	-0.042246	1.639609
172.235816	1135.768032	10.224871	-0.042250	1.640140
172.401479	1136.380012	10.229875	-0.042290	1.640575
172.352983	1137.030247	10.234880	-0.042279	1.641012
172.300335	1137.625338	10.239885	-0.042266	1.641411
172.495607	1138.375082	10.244890	-0.042314	1.641943
172.514884	1138.946172	10.249895	-0.042319	1.642333
172.591793	1139.622846	10.254899	-0.042339	1.642802
172.620890	1140.277636	10.259904	-0.042346	1.643250
172.590615	1140.857938	10.264909	-0.042339	1.643641
172.699592	1141.578446	10.269914	-0.042366	1.644142
172.846889	1142.096841	10.274919	-0.042402	1.644510
173.016617	1142.619073	10.279923	-0.042444	1.644884
172.993576	1143.193945	10.284928	-0.042438	1.645271
173.065010	1143.769002	10.289933	-0.042456	1.645669
173.263116	1144.174725	10.294938	-0.042505	1.645966
173.335909	1144.639342	10.299943	-0.042523	1.646289
173.257420	1145.139928	10.304947	-0.042504	1.646620
173.388464	1145.624507	10.309952	-0.042536	1.646963
173.480571	1146.045287	10.314957	-0.042559	1.647258
173.643209	1146.478407	10.319962	-0.042599	1.647570
173.631370	1146.911639	10.324967	-0.042596	1.647862
173.594375	1147.375993	10.329971	-0.042587	1.648173
173.723138	1147.775933	10.334976	-0.042619	1.648458
173.756932	1148.163721	10.339981	-0.042627	1.648724
173.812299	1148.578729	10.344986	-0.042641	1.649011
173.864206	1149.013281	10.349991	-0.042653	1.649311
173.933507	1149.349616	10.354995	-0.042671	1.649546
173.992113	1149.690968	10.360000	-0.042685	1.649783
173.897837	1150.041750	10.365005	-0.042662	1.650010
174.010845	1150.408279	10.370010	-0.042690	1.650271
174.081579	1150.846117	10.375015	-0.042707	1.650575
174.049196	1151.090079	10.380019	-0.042699	1.650736
173.898357	1151.410076	10.385024	-0.042663	1.650936
173.836251	1151.762094	10.390029	-0.042647	1.651167
173.922220	1152.185697	10.395034	-0.042669	1.651463
173.998689	1152.580673	10.400039	-0.042687	1.651738
174.058909	1152.874892	10.405043	-0.042702	1.651944
174.274592	1153.102568	10.410048	-0.042755	1.652121
174.233345	1153.504346	10.415053	-0.042745	1.652388
174.457048	1153.758289	10.420058	-0.042800	1.652584
174.472059	1153.934543	10.425063	-0.042803	1.652705
174.442039	1154.341342	10.430067	-0.042796	1.652976
174.657507	1154.405372	10.435072	-0.042849	1.653043
174.745450	1154.795654	10.440077	-0.042870	1.653316
174.808223	1154.839415	10.445082	-0.042886	1.653353
174.820783	1155.103301	10.450087	-0.042889	1.653532
174.788116	1155.286703	10.455091	-0.042881	1.653652
174.886875	1155.375962	10.460096	-0.042905	1.653723
174.851604	1155.734380	10.465101	-0.042896	1.653962
174.858242	1155.754900	10.470106	-0.042898	1.653976
174.762898	1156.098604	10.475111	-0.042875	1.654198
174.716228	1156.256825	10.480115	-0.042863	1.654299
174.801639	1156.456539	10.485120	-0.042884	1.654443
174.925931	1156.649733	10.490125	-0.042914	1.654587
174.952844	1156.663271	10.495130	-0.042921	1.654599
174.902819	1157.059203	10.500135	-0.042909	1.654861
174.899911	1157.135654	10.505139	-0.042908	1.654912
175.024799	1157.157827	10.510144	-0.042938	1.654941
174.996878	1157.591213	10.515149	-0.042932	1.655230
175.143979	1157.585032	10.520154	-0.042968	1.655242
175.194938	1157.561353	10.525159	-0.042980	1.655231
175.253197	1157.833177	10.530163	-0.042994	1.655421
175.305795	1158.053410	10.535168	-0.043007	1.655575
175.363900	1158.023246	10.540173	-0.043021	1.655561
175.343297	1158.050057	10.545178	-0.043016	1.655577
175.386164	1158.032087	10.550183	-0.043026	1.655569
175.311739	1158.160677	10.555187	-0.043008	1.655648
175.375855	1158.398751	10.560192	-0.043024	1.655815
175.322688	1158.394733	10.565197	-0.043011	1.655807
175.265042	1158.420379	10.570202	-0.042996	1.655818
175.153696	1158.426955	10.575207	-0.042969	1.655810
175.196696	1158.748351	10.580211	-0.042980	1.656031
175.442041	1158.854520	10.585216	-0.043039	1.656130
175.417953	1158.836985	10.590221	-0.043033	1.656115
175.478793	1158.851754	10.595226	-0.043048	1.656132
175.653274	1158.812206	10.600231	-0.043091	1.656124
175.757146	1158.794064	10.605235	-0.043116	1.656123
175.844581	1158.791322	10.610240	-0.043137	1.656131
175.905091	1158.761458	10.615245	-0.043152	1.656117
175.834618	1158.787102	10.620250	-0.043134	1.656127
175.881838	1158.769117	10.625255	-0.043146	1.656120
175.883819	1158.763794	10.630259	-0.043146	1.656116
175.768104	1158.803259	10.635264	-0.043118	1.656130
175.679892	1158.794502	10.640269	-0.043096	1.656114
175.675522	1158.817299	10.645274	-0.043095	1.656129
175.638414	1158.817620	10.650279	-0.043086	1.656125
175.591941	1158.818766	10.655283	-0.043074	1.656121
175.625571	1158.829381	10.660288	-0.043082	1.656132
175.539246	1158.823791	10.665293	-0.043061	1.656119
175.644734	1158.826457	10.670298	-0.043087	1.656132
175.660373	1158.810121	10.675303	-0.043090	1.656122
175.787067	1158.784342	10.680307	-0.043121	1.656119
175.816525	1158.908164	10.685312	-0.043128	1.656205
175.957996	1158.760975	10.690317	-0.043163	1.656122
176.022337	1158.766609	10.695322	-0.043178	1.656132
176.224949	1158.723656	10.700327	-0.043227	1.656126
176.101344	1158.747266	10.705331	-0.043197	1.656128
176.170664	1158.746768	10.710336	-0.043214	1.656135
176.107321	1158.733746	10.715341	-0.043198	1.656119
176.032140	1158.761544	10.720346	-0.043180	1.656130
176.160087	1158.506808	10.725351	-0.043211	1.655972
176.139194	1158.272065	10.730355	-0.043205	1.655811
176.228189	1158.275318	10.735360	-0.043227	1.655823
175.987735	1158.292878	10.740365	-0.043168	1.655809
175.770860	1158.341106	10.745370	-0.043115	1.655817
175.777482	1158.329244	10.750375	-0.043116	1.655810
175.905121	1158.308173	10.755379	-0.043147	1.655810
175.957866	1158.319156	10.760384	-0.043160	1.655823
175.933137	1158.298952	10.765389	-0.043154	1.655806
176.147108	1158.284019	10.770394	-0.043206	1.655820
176.229469	1158.082552	10.775399	-0.043226	1.655693
176.327146	1157.883937	10.780403	-0.043250	1.655569
176.371159	1157.890548	10.785408	-0.043260	1.655579
176.327994	1157.883290	10.790413	-0.043250	1.655569
176.281931	1157.711936	10.795418	-0.043238	1.655448
176.318229	1157.390928	10.800423	-0.043247	1.655236
176.123113	1157.423363	10.805427	-0.043199	1.655236
176.190984	1157.419852	10.810432	-0.043215	1.655241
176.078006	1157.420913	10.815437	-0.043187	1.655230
176.069148	1157.435633	10.820442	-0.043185	1.655238
176.014223	1157.438849	10.825447	-0.043172	1.655235
176.149765	1156.943751	10.830451	-0.043204	1.654915
176.227461	1156.939801	10.835456	-0.043223	1.654921
176.150412	1156.936890	10.840461	-0.043204	1.654911
176.326986	1156.925923	10.845466	-0.043247	1.654922
176.410883	1156.880013	10.850471	-0.043267	1.654901
176.461811	1156.416312	10.855475	-0.043279	1.654593
176.517379	1156.424739	10.860480	-0.043293	1.654605
176.508849	1156.401925	10.865485	-0.043291	1.654589
176.446372	1156.045292	10.870490	-0.043275	1.654341
176.503607	1155.971105	10.875495	-0.043289	1.654297
176.547124	1155.962981	10.880499	-0.043299	1.654296
176.423729	1155.676886	10.885504	-0.043269	1.654090
176.262830	1155.517623	10.890509	-0.043229	1.653964
176.345022	1155.519178	10.895514	-0.043249	1.653974
176.267186	1155.529356	10.900519	-0.043230	1.653973
176.283774	1155.341076	10.905523	-0.043234	1.653847
176.405298	1155.056480	10.910528	-0.043263	1.653669
176.195689	1155.071165	10.915533	-0.043212	1.653655
176.310919	1155.063656	10.920538	-0.043240	1.653663
176.308848	1155.065009	10.925543	-0.043239	1.653664
176.269076	1154.627925	10.930547	-0.043229	1.653364
176.232015	1154.619006	10.935552	-0.043220	1.653354
176.363180	1154.576546	10.940557	-0.043252	1.653339
176.312028	1154.604125	10.945562	-0.043239	1.653352
176.290505	1154.431807	10.950567	-0.043233	1.653234
176.323896	1154.132027	10.955571	-0.043241	1.653035
176.455414	1154.129494	10.960576	-0.043273	1.653047
176.325748	1154.129831	10.965581	-0.043241	1.653033
176.496830	1153.819754	10.970586	-0.043283	1.652843
176.518642	1153.616425	10.975591	-0.043288	1.652708
176.445032	1153.622457	10.980595	-0.043270	1.652703
176.564420	1153.451597	10.985600	-0.043299	1.652601
176.548744	1153.131937	10.990605	-0.043295	1.652383
176.550728	1153.153192	10.995610	-0.043295	1.652398
176.557924	1152.960836	11.000615	-0.043296	1.652269
176.506815	1152.677252	11.005619	-0.043284	1.652071
176.533416	1152.688270	11.010624	-0.043290	1.652082
176.512314	1152.553204	11.015629	-0.043285	1.651988
176.451838	1152.260568	11.020634	-0.043269	1.651783
176.560062	1152.239164	11.025639	-0.043296	1.651781
176.508048	1152.154173	11.030643	-0.043283	1.651718
176.364880	1151.798126	11.035648	-0.043247	1.651461
176.339988	1151.785635	11.040653	-0.043241	1.651450
176.429455	1151.788056	11.045658	-0.043263	1.651461
176.369360	1151.608582	11.050663	-0.043248	1.651333
176.348329	1151.328593	11.055667	-0.043243	1.651142
176.396922	1151.342957	11.060672	-0.043254	1.651157
176.327141	1151.336143	11.065677	-0.043237	1.651144
176.408941	1151.142436	11.070682	-0.043257	1.651022
176.549432	1150.847811	11.075687	-0.043291	1.650838
176.609081	1150.825985	11.080691	-0.043305	1.650830
176.795730	1150.631900	11.085696	-0.043350	1.650719
176.708094	1150.462292	11.090701	-0.043329	1.650595
176.810043	1150.335751	11.095706	-0.043353	1.650520
176.708636	1149.978737	11.100711	-0.043328	1.650268
176.719350	1149.960015	11.105715	-0.043331	1.650256
176.656153	1149.617850	11.110720	-0.043315	1.650017
176.515511	1149.523368	11.115725	-0.043280	1.649938
176.634943	1149.516287	11.120730	-0.043309	1.649946
176.473693	1149.061420	11.125735	-0.043270	1.649621
176.433540	1149.065728	11.130739	-0.043260	1.649619
176.618293	1149.050339	11.135744	-0.043305	1.649629
176.453572	1148.690674	11.140749	-0.043264	1.649367
176.528518	1148.626476	11.145754	-0.043282	1.649332
176.502711	1148.626610	11.150759	-0.043276	1.649329
176.519894	1148.287959	11.155763	-0.043279	1.649102
176.577561	1148.133662	11.160768	-0.043293	1.649004
176.503504	1148.131954	11.165773	-0.043275	1.648994
176.534084	1147.861963	11.170778	-0.043282	1.648815
176.560658	1147.672405	11.175783	-0.043288	1.648689
176.599895	1147.659898	11.180787	-0.043298	1.648685
176.527712	1147.383606	11.185792	-0.043280	1.648490
176.604194	1147.188970	11.190797	-0.043298	1.648366
176.618050	1147.202251	11.195802	-0.043302	1.648377
176.588313	1146.850448	11.200807	-0.043294	1.648135
176.512778	1146.752213	11.205811	-0.043275	1.648060
176.602654	1146.761663	11.210816	-0.043297	1.648077
176.488949	1146.314602	11.215821	-0.043269	1.647761
176.454602	1146.288946	11.220826	-0.043260	1.647740
176.522528	1146.270166	11.225831	-0.043277	1.647735
176.609648	1145.904347	11.230835	-0.043298	1.647496
176.579348	1145.805023	11.235840	-0.043290	1.647425
176.574383	1145.781969	11.240845	-0.043289	1.647409
176.583444	1145.407719	11.245850	-0.043290	1.647156
176.518033	1145.339916	11.250855	-0.043274	1.647103
176.582743	1145.318206	11.255859	-0.043290	1.647096
176.686603	1144.928847	11.260864	-0.043315	1.646843
176.623260	1144.881215	11.265869	-0.043299	1.646804
176.678978	1144.727662	11.270874	-0.043313	1.646706
176.527720	1144.421300	11.275879	-0.043275	1.646481
176.561938	1144.408233	11.280883	-0.043284	1.646476
176.591919	1144.248305	11.285888	-0.043291	1.646371
176.449999	1143.967882	11.290893	-0.043256	1.646165
176.470714	1143.980947	11.295898	-0.043261	1.646176
176.561620	1143.858780	11.300903	-0.043283	1.646103
176.426582	1143.515391	11.305907	-0.043249	1.645855
176.214325	1143.575308	11.310912	-0.043197	1.645872
176.188502	1143.557049	11.315917	-0.043191	1.645857
176.364553	1143.540711	11.320922	-0.043234	1.645865
176.417095	1143.218872	11.325927	-0.043246	1.645653
176.334058	1143.194964	11.330931	-0.043226	1.645627
176.481908	1143.188961	11.335936	-0.043262	1.645639
176.527132	1143.008687	11.340941	-0.043272	1.645522
176.626726	1142.661777	11.345946	-0.043296	1.645298
176.641214	1142.660433	11.350951	-0.043300	1.645298
176.729818	1142.333753	11.355955	-0.043321	1.645086
176.807264	1142.174973	11.360960	-0.043340	1.644987
176.820894	1142.011632	11.365965	-0.043343	1.644878
176.973776	1141.667906	11.370970	-0.043380	1.644661
176.878930	1141.540175	11.375975	-0.043356	1.644564
176.775005	1141.252765	11.380979	-0.043331	1.644357
176.740606	1141.255234	11.385984	-0.043322	1.644355
176.743064	1140.772415	11.390989	-0.043322	1.644027
176.577757	1140.814800	11.395994	-0.043282	1.644038
176.555555	1140.652785	11.400999	-0.043276	1.643925
176.416386	1140.370313	11.406003	-0.043242	1.643718
176.275871	1140.418086	11.411008	-0.043207	1.643735
176.219164	1140.402125	11.416013	-0.043193	1.643718
176.312597	1140.293487	11.421018	-0.043216	1.643654
176.406313	1139.925156	11.426023	-0.043238	1.643414
176.461311	1139.902974	11.431027	-0.043252	1.643405
176.419080	1139.924642	11.436032	-0.043241	1.643415
176.439245	1139.631736	11.441037	-0.043246	1.643218
176.593871	1139.437127	11.446042	-0.043283	1.643103
176.747623	1139.413120	11.451047	-0.043321	1.643104
176.776371	1138.969570	11.456051	-0.043327	1.642805
176.756655	1138.934744	11.461056	-0.043322	1.642779
176.666349	1138.690928	11.466061	-0.043300	1.642604
176.680778	1138.472347	11.471066	-0.043303	1.642457
176.580063	1138.489290	11.476071	-0.043278	1.642457
176.516445	1138.095846	11.481075	-0.043262	1.642182
176.313421	1138.063549	11.486080	-0.043213	1.642138
176.322802	1138.043519	11.491085	-0.043215	1.642125
176.233904	1138.074840	11.496090	-0.043193	1.642137
176.232981	1137.749092	11.501095	-0.043192	1.641915
176.277956	1137.620433	11.506099	-0.043203	1.641832
176.411715	1137.623085	11.511104	-0.043236	1.641849
176.346098	1137.612510	11.516109	-0.043219	1.641834
176.539485	1137.301554	11.521114	-0.043266	1.641644
176.637268	1137.103957	11.526119	-0.043290	1.641521
176.739691	1137.072458	11.531123	-0.043315	1.641510
176.694902	1136.658055	11.536128	-0.043303	1.641224
176.855782	1136.602586	11.541133	-0.043343	1.641204
176.883051	1136.297207	11.546138	-0.043349	1.640999
176.832893	1136.160928	11.551143	-0.043336	1.640900
176.844803	1135.970967	11.556147	-0.043339	1.640772
176.759973	1135.852741	11.561152	-0.043318	1.640683
176.642653	1135.801974	11.566157	-0.043289	1.640635
176.589996	1135.381283	11.571162	-0.043276	1.640343
176.542264	1135.385937	11.576167	-0.043264	1.640341
176.163522	1135.437153	11.581171	-0.043172	1.640333
176.222162	1135.116053	11.586176	-0.043185	1.640121
176.155364	1134.969268	11.591181	-0.043169	1.640014
176.158042	1134.988643	11.596186	-0.043169	1.640027
176.232813	1134.974266	11.601191	-0.043188	1.640026
176.234774	1134.955008	11.606195	-0.043188	1.640013
176.487227	1134.682187	11.611200	-0.043249	1.639855
176.462422	1134.457750	11.616205	-0.043243	1.639699
176.470113	1134.466218	11.621210	-0.043245	1.639706
176.593088	1134.307821	11.626215	-0.043274	1.639612
176.625044	1133.993949	11.631219	-0.043282	1.639401
177.017995	1133.940812	11.636224	-0.043378	1.639409
176.733627	1133.493559	11.641229	-0.043308	1.639072
176.804780	1133.487332	11.646234	-0.043325	1.639076
176.637013	1133.197386	11.651239	-0.043284	1.638860
176.605065	1133.050087	11.656243	-0.043276	1.638756
176.764444	1133.013448	11.661248	-0.043314	1.638748
176.584513	1132.597953	11.666253	-0.043270	1.638445
176.514117	1132.617531	11.671258	-0.043253	1.638451
176.569828	1132.535475	11.676263	-0.043266	1.638401
176.456427	1132.165809	11.681267	-0.043238	1.638136
176.461801	1132.178080	11.686272	-0.043239	1.638145
176.336920	1132.184091	11.691277	-0.043209	1.638135
176.487130	1131.822147	11.696282	-0.043245	1.637905
176.437432	1131.688822	11.701287	-0.043232	1.637809
176.381832	1131.687212	11.706291	-0.043219	1.637802
176.297129	1131.721486	11.711296	-0.043198	1.637815
176.319485	1131.268486	11.716301	-0.043203	1.637509
176.437184	1131.229252	11.721306	-0.043232	1.637495
176.244161	1131.262630	11.726311	-0.043184	1.637497
176.253441	1131.249993	11.731315	-0.043186	1.637489
176.334251	1130.936343	11.736320	-0.043206	1.637284
176.281290	1130.778656	11.741325	-0.043193	1.637170
176.390458	1130.768740	11.746330	-0.043219	1.637176
176.321001	1130.781296	11.751335	-0.043202	1.637177
176.301050	1130.569491	11.756339	-0.043197	1.637030
176.476890	1130.329914	11.761344	-0.043239	1.636886
176.610336	1130.295671	11.766349	-0.043272	1.636877
176.712531	1130.101982	11.771354	-0.043297	1.636756
176.657646	1129.819271	11.776359	-0.043283	1.636557
176.765380	1129.791050	11.781363	-0.043309	1.636550
176.958810	1129.375704	11.786368	-0.043356	1.636288
176.782029	1129.330034	11.791373	-0.043312	1.636237
176.795125	1128.978923	11.796378	-0.043315	1.635999
176.761644	1128.899159	11.801383	-0.043307	1.635941
176.658038	1128.745978	11.806387	-0.043281	1.635825
176.580921	1128.587349	11.811392	-0.043262	1.635708
176.456861	1128.589143	11.816397	-0.043232	1.635695
176.314749	1128.509270	11.821402	-0.043197	1.635625
176.137679	1128.160262	11.826407	-0.043153	1.635367
176.101521	1128.153218	11.831411	-0.043144	1.635358
176.174757	1128.162176	11.836416	-0.043162	1.635372
176.066459	1128.163921	11.841421	-0.043135	1.635361
176.109384	1128.160216	11.846426	-0.043146	1.635363
176.154316	1128.163500	11.851431	-0.043157	1.635370
176.302312	1127.735033	11.856435	-0.043192	1.635094
176.622971	1127.619289	11.861440	-0.043270	1.635051
176.725602	1127.588246	11.866445	-0.043295	1.635041
176.874865	1127.156674	11.871450	-0.043331	1.634763
176.835504	1127.118388	11.876455	-0.043322	1.634732
176.761342	1126.787769	11.881459	-0.043303	1.634498
176.941670	1126.677101	11.886464	-0.043347	1.634443
176.871485	1126.393418	11.891469	-0.043329	1.634241
176.632855	1126.232743	11.896474	-0.043271	1.634104
176.592349	1126.193292	11.901479	-0.043261	1.634073
176.255387	1125.833957	11.906483	-0.043178	1.633790
176.083330	1125.880159	11.911488	-0.043136	1.633802
175.985420	1125.873151	11.916493	-0.043112	1.633786
176.126369	1125.854365	11.921498	-0.043146	1.633789
176.084030	1125.875526	11.926503	-0.043136	1.633799
175.976758	1125.870959	11.931507	-0.043109	1.633784
176.317444	1125.658107	11.936512	-0.043192	1.633676
176.294949	1125.370217	11.941517	-0.043186	1.633477
176.355105	1125.366206	11.946522	-0.043201	1.633481
176.444198	1125.356333	11.951527	-0.043223	1.633484
176.557938	1125.088268	11.956531	-0.043250	1.633313
176.574199	1124.881569	11.961536	-0.043254	1.633174
176.587251	1124.866060	11.966541	-0.043257	1.633164
176.553903	1124.540762	11.971546	-0.043248	1.632938
176.541201	1124.403896	11.976551	-0.043245	1.632843
176.432413	1124.409410	11.981555	-0.043218	1.632835
176.474667	1124.213824	11.986560	-0.043228	1.632706
176.268504	1123.972736	11.991565	-0.043178	1.632518
176.326190	1123.973915	11.996570	-0.043192	1.632525
176.334374	1123.977466	12.001575	-0.043193	1.632528
176.287828	1123.821281	12.006579	-0.043182	1.632416
176.266873	1123.532225	12.011584	-0.043176	1.632216
176.115525	1123.535564	12.016589	-0.043139	1.632201
176.175918	1123.532419	12.021594	-0.043154	1.632206
176.293449	1123.520179	12.026599	-0.043182	1.632211
176.249757	1123.494998	12.031603	-0.043172	1.632188
176.387494	1123.079467	12.036608	-0.043205	1.631919
176.382452	1123.058708	12.041613	-0.043203	1.631905
176.571481	1123.035254	12.046618	-0.043249	1.631910
176.671213	1122.733663	12.051623	-0.043274	1.631714
176.678335	1122.539146	12.056627	-0.043275	1.631582
176.746359	1122.469285	12.061632	-0.043291	1.631542
176.762719	1122.073483	12.066637	-0.043295	1.631273
176.683410	1122.096099	12.071642	-0.043275	1.631279
176.752006	1121.756826	12.076647	-0.043292	1.631054
176.365243	1121.682090	12.081651	-0.043197	1.630960
176.215232	1121.727191	12.086656	-0.043160	1.630974
175.987253	1121.749219	12.091661	-0.043105	1.630964
175.982472	1121.751917	12.096666	-0.043103	1.630965
175.975382	1121.525384	12.101671	-0.043101	1.630809
175.893576	1121.414119	12.106675	-0.043081	1.630724
175.931860	1121.427341	12.111680	-0.043090	1.630737
176.019573	1121.394192	12.116685	-0.043112	1.630724
176.158576	1121.382082	12.121690	-0.043145	1.630731
176.432630	1121.347241	12.126695	-0.043212	1.630738
176.571081	1121.243341	12.131699	-0.043246	1.630682
176.703210	1120.820187	12.136704	-0.043278	1.630407
176.729027	1120.801704	12.141709	-0.043284	1.630397
176.666451	1120.486528	12.146714	-0.043268	1.630174
176.738048	1120.341149	12.151719	-0.043285	1.630083
176.738772	1120.221933	12.156723	-0.043285	1.630001
176.543314	1119.910988	12.161728	-0.043237	1.629766
176.455032	1119.905444	12.166733	-0.043215	1.629752
176.346879	1119.929349	12.171738	-0.043189	1.629756
176.261910	1119.576954	12.176743	-0.043168	1.629505
176.093280	1119.529176	12.181747	-0.043126	1.629454
176.070561	1119.559405	12.186752	-0.043121	1.629472
176.084542	1119.543318	12.191757	-0.043124	1.629462
176.071283	1119.543981	12.196762	-0.043121	1.629461
176.202017	1119.532750	12.201767	-0.043152	1.629468
176.155857	1119.287977	12.206771	-0.043141	1.629295
176.378944	1119.028188	12.211776	-0.043195	1.629142
176.446914	1119.000781	12.216781	-0.043211	1.629131
176.563216	1118.985525	12.221786	-0.043240	1.629133
176.664557	1118.604210	12.226791	-0.043264	1.628883
176.721786	1118.501131	12.231795	-0.043278	1.628819
176.622209	1118.373341	12.236800	-0.043253	1.628720
176.517643	1118.086310	12.241805	-0.043227	1.628512
176.469568	1118.095849	12.246810	-0.043216	1.628513
176.519303	1118.005399	12.251815	-0.043227	1.628456
176.157607	1117.689852	12.256819	-0.043139	1.628199
176.043386	1117.727268	12.261824	-0.043111	1.628212
175.971857	1117.721289	12.266829	-0.043093	1.628200
175.862969	1117.740307	12.271834	-0.043066	1.628201
176.021071	1117.727549	12.276839	-0.043105	1.628210
176.088260	1117.697773	12.281843	-0.043121	1.628197
176.106148	1117.714748	12.286848	-0.043125	1.628210
176.241000	1117.598801	12.291853	-0.043158	1.628146
176.387866	1117.171351	12.296858	-0.043194	1.627869
176.614584	1117.142828	12.301863	-0.043249	1.627875
176.672371	1117.060880	12.306867	-0.043263	1.627825
176.663601	1116.680319	12.311872	-0.043260	1.627563
176.677087	1116.666376	12.316877	-0.043263	1.627555
176.748297	1116.382474	12.321882	-0.043280	1.627368
176.617302	1116.221275	12.326887	-0.043248	1.627242
176.415039	1116.239627	12.331891	-0.043199	1.627232
176.409111	1115.980441	12.336896	-0.043197	1.627054
176.240404	1115.845915	12.341901	-0.043155	1.626942
176.039788	1115.881518	12.346906	-0.043106	1.626944
175.979821	1115.902100	12.351911	-0.043091	1.626952
175.949328	1115.886704	12.356915	-0.043084	1.626938
175.966377	1115.897203	12.361920	-0.043088	1.626947
175.947436	1115.894477	12.366925	-0.043083	1.626943
176.071872	1115.876284	12.371930	-0.043113	1.626944
176.191306	1115.548673	12.376935	-0.043142	1.626732
176.125832	1115.382076	12.381939	-0.043126	1.626611
176.298986	1115.376615	12.386944	-0.043168	1.626626
176.374741	1115.350001	12.391949	-0.043186	1.626617
176.511703	1115.201728	12.396954	-0.043220	1.626530
176.491199	1114.895012	12.401959	-0.043214	1.626317
176.474913	1114.878895	12.406963	-0.043210	1.626304
176.423718	1114.907363	12.411968	-0.043198	1.626318
176.409427	1114.461680	12.416973	-0.043194	1.626010
176.379493	1114.449388	12.421978	-0.043186	1.625998
176.367849	1114.457522	12.426983	-0.043183	1.626003
176.316960	1114.428650	12.431987	-0.043171	1.625977
176.477074	1114.114341	12.436992	-0.043209	1.625779
176.421251	1114.110830	12.441997	-0.043196	1.625770
176.462166	1114.104917	12.447002	-0.043205	1.625771
176.339615	1113.899118	12.452007	-0.043175	1.625616
176.329261	1113.637961	12.457011	-0.043172	1.625435
176.409722	1113.651262	12.462016	-0.043192	1.625453
176.425461	1113.631284	12.467021	-0.043195	1.625441
176.285823	1113.317896	12.472026	-0.043161	1.625210
176.209843	1113.211577	12.477031	-0.043142	1.625128
176.278709	1113.185189	12.482035	-0.043159	1.625118
176.336309	1113.195406	12.487040	-0.043173	1.625131
176.094174	1113.220995	12.492045	-0.043114	1.625122
176.145491	1112.860557	12.497050	-0.043126	1.624880
176.220988	1112.743811	12.502055	-0.043144	1.624808
176.131638	1112.734887	12.507059	-0.043122	1.624792
176.180078	1112.750231	12.512064	-0.043134	1.624808
176.134354	1112.740762	12.517069	-0.043122	1.624796
176.092759	1112.749927	12.522074	-0.043112	1.624797
176.175680	1112.537934	12.527079	-0.043132	1.624661
176.012916	1112.326380	12.532083	-0.043092	1.624497
176.182545	1112.321451	12.537088	-0.043133	1.624513
176.187946	1112.307033	12.542093	-0.043134	1.624504
176.186708	1112.310281	12.547098	-0.043134	1.624506
176.317359	1112.293328	12.552103	-0.043166	1.624509
176.351256	1111.864337	12.557107	-0.043174	1.624217
176.501412	1111.792872	12.562112	-0.043210	1.624185
176.555517	1111.768677	12.567117	-0.043223	1.624174
176.584110	1111.495480	12.572122	-0.043230	1.623990
176.566347	1111.327970	12.577127	-0.043225	1.623873
176.422479	1111.337059	12.582131	-0.043190	1.623863
176.411828	1111.140250	12.587136	-0.043187	1.623726
176.360993	1110.896688	12.592141	-0.043174	1.623553
176.195008	1110.925061	12.597146	-0.043134	1.623554
176.180568	1110.933417	12.602151	-0.043130	1.623558
175.949259	1110.960670	12.607155	-0.043073	1.623550
175.970557	1110.968856	12.612160	-0.043078	1.623558
176.050191	1110.898953	12.617165	-0.043098	1.623519
176.002472	1110.500137	12.622170	-0.043086	1.623239
176.031562	1110.506593	12.627175	-0.043093	1.623247
176.133865	1110.471344	12.632179	-0.043117	1.623234
176.302540	1110.468359	12.637184	-0.043159	1.623251
176.329724	1110.454021	12.642189	-0.043165	1.623244
176.212189	1110.322425	12.647194	-0.043136	1.623140
176.448903	1109.958861	12.652199	-0.043193	1.622917
176.416483	1109.939979	12.657203	-0.043185	1.622900
176.474795	1109.959350	12.662208	-0.043200	1.622920
176.434803	1109.649481	12.667213	-0.043189	1.622702
176.298397	1109.516034	12.672218	-0.043156	1.622595
176.298168	1109.532725	12.677223	-0.043156	1.622606
176.216370	1109.525555	12.682227	-0.043136	1.622592
176.225616	1109.376460	12.687232	-0.043138	1.622490
176.071810	1109.095051	12.692237	-0.043100	1.622279
176.068601	1109.092720	12.697242	-0.043099	1.622277
175.984419	1109.122688	12.702247	-0.043078	1.622288
175.985624	1109.102625	12.707251	-0.043078	1.622275
176.024439	1109.112017	12.712256	-0.043088	1.622286
175.883424	1109.128602	12.717261	-0.043053	1.622281
176.064400	1109.100903	12.722266	-0.043097	1.622282
176.255335	1109.084276	12.727271	-0.043143	1.622292
176.207657	1108.750392	12.732275	-0.043131	1.622057
176.310721	1108.642234	12.737280	-0.043156	1.621994
176.261152	1108.647035	12.742285	-0.043144	1.621992
176.317907	1108.631946	12.747290	-0.043158	1.621988
176.212223	1108.609873	12.752295	-0.043132	1.621961
176.094716	1108.186819	12.757299	-0.043103	1.621656
176.113043	1108.207266	12.762304	-0.043107	1.621672
175.999444	1108.209168	12.767309	-0.043079	1.621660
176.029798	1108.196360	12.772314	-0.043087	1.621655
176.022025	1108.215182	12.777319	-0.043084	1.621667
176.086051	1108.184847	12.782323	-0.043100	1.621653
176.128259	1108.197986	12.787328	-0.043110	1.621667
176.171390	1108.061340	12.792333	-0.043120	1.621578
176.215048	1107.722411	12.797338	-0.043131	1.621349
176.271461	1107.725060	12.802343	-0.043144	1.621357
176.307537	1107.697715	12.807347	-0.043153	1.621343
176.504077	1107.676302	12.812352	-0.043201	1.621350
176.571100	1107.218458	12.817357	-0.043217	1.621042
176.530409	1107.222036	12.822362	-0.043207	1.621040
176.435811	1107.249848	12.827367	-0.043184	1.621048
176.417112	1106.919642	12.832371	-0.043179	1.620819
176.395608	1106.902634	12.837376	-0.043173	1.620804
176.353689	1106.903015	12.842381	-0.043163	1.620800
176.389137	1106.782423	12.847386	-0.043171	1.620721
176.418340	1106.419071	12.852391	-0.043178	1.620474
176.073819	1106.453122	12.857395	-0.043094	1.620458
176.089619	1106.463769	12.862400	-0.043097	1.620467
175.977401	1106.478151	12.867405	-0.043070	1.620464
175.932162	1106.477266	12.872410	-0.043059	1.620459
176.010853	1106.484643	12.877415	-0.043078	1.620473
176.038475	1106.463450	12.882419	-0.043084	1.620461
176.095516	1106.125729	12.887424	-0.043098	1.620235
176.163169	1105.980652	12.892429	-0.043114	1.620142
176.197507	1105.974218	12.897434	-0.043122	1.620142
176.277949	1105.977000	12.902439	-0.043142	1.620153
176.277562	1105.958583	12.907443	-0.043142	1.620140
176.294255	1105.757756	12.912448	-0.043146	1.620003
176.253110	1105.505042	12.917453	-0.043135	1.619824
176.120285	1105.527331	12.922458	-0.043103	1.619825
176.225796	1105.525325	12.927463	-0.043128	1.619835
176.228729	1105.505009	12.932467	-0.043129	1.619821
176.229290	1105.397442	12.937472	-0.043129	1.619747
176.169215	1105.093980	12.942477	-0.043114	1.619531
176.110273	1105.102137	12.947482	-0.043099	1.619530
176.174808	1105.099364	12.952487	-0.043115	1.619535
176.136756	1105.087799	12.957491	-0.043105	1.619523
176.242873	1105.087275	12.962496	-0.043131	1.619535
176.230800	1104.843687	12.967501	-0.043128	1.619365
176.281088	1104.593764	12.972506	-0.043140	1.619198
176.174113	1104.627897	12.977511	-0.043114	1.619210
176.172221	1104.608831	12.982515	-0.043113	1.619196
176.165788	1104.630804	12.987520	-0.043111	1.619211
176.161759	1104.587640	12.992525	-0.043110	1.619181
176.149783	1104.159397	12.997530	-0.043107	1.618884
176.188477	1104.172393	13.002535	-0.043116	1.618897
176.090323	1104.166829	13.007539	-0.043092	1.618882
176.109771	1104.182976	13.012544	-0.043097	1.618895
176.130883	1104.183007	13.017549	-0.043102	1.618898
176.041192	1104.184885	13.022554	-0.043080	1.618889
176.061216	1104.116290	13.027559	-0.043084	1.618844
175.971473	1103.740246	13.032563	-0.043062	1.618574
176.055453	1103.741523	13.037568	-0.043082	1.618584
176.002809	1103.742995	13.042573	-0.043069	1.618579
175.945349	1103.752723	13.047578	-0.043055	1.618580
176.022007	1103.752031	13.052583	-0.043074	1.618588
175.856075	1103.755308	13.057587	-0.043033	1.618571
176.011349	1103.743326	13.062592	-0.043071	1.618580
175.981227	1103.744505	13.067597	-0.043063	1.618578
176.095912	1103.715409	13.072602	-0.043091	1.618570
176.087977	1103.711145	13.077607	-0.043089	1.618567
176.235629	1103.243124	13.082611	-0.043125	1.618260
176.254756	1103.259768	13.087616	-0.043129	1.618274
176.230726	1103.253163	13.092621	-0.043123	1.618267
176.112578	1103.267853	13.097626	-0.043094	1.618263
176.218443	1103.268031	13.102631	-0.043120	1.618275
176.181635	1102.944532	13.107635	-0.043111	1.618048
176.233264	1102.782801	13.112640	-0.043123	1.617942
176.107308	1102.794474	13.117645	-0.043092	1.617936
176.179367	1102.779147	13.122650	-0.043109	1.617933
176.241691	1102.781474	13.127655	-0.043125	1.617942
175.959449	1102.812862	13.132659	-0.043056	1.617932
176.016460	1102.791856	13.137664	-0.043069	1.617923
176.101820	1102.337830	13.142669	-0.043090	1.617620
175.944113	1102.361718	13.147674	-0.043051	1.617618
175.898678	1102.383501	13.152679	-0.043040	1.617628
175.951153	1102.353515	13.157683	-0.043052	1.617613
175.985649	1102.364919	13.162688	-0.043061	1.617625
175.909407	1102.372977	13.167693	-0.043042	1.617622
175.909271	1102.371056	13.172698	-0.043042	1.617620
176.051160	1102.355147	13.177703	-0.043076	1.617625
176.053916	1102.337374	13.182707	-0.043077	1.617613
176.050961	1102.354461	13.187712	-0.043076	1.617625
176.147344	1102.185213	13.192717	-0.043099	1.617519
176.268248	1101.849604	13.197722	-0.043128	1.617301
176.223015	1101.873838	13.202727	-0.043117	1.617312
176.049544	1101.877700	13.207731	-0.043075	1.617295
176.009992	1101.898291	13.212736	-0.043065	1.617305
176.043812	1101.891713	13.217741	-0.043073	1.617304
176.127896	1101.870572	13.222746	-0.043094	1.617299
176.138756	1101.591917	13.227751	-0.043096	1.617108
175.968615	1101.462759	13.232755	-0.043054	1.616999
176.029024	1101.464486	13.237760	-0.043069	1.617007
176.021566	1101.461053	13.242765	-0.043067	1.617004
175.998160	1101.459555	13.247770	-0.043061	1.617000
176.028765	1101.470233	13.252775	-0.043068	1.617011
176.032007	1101.457135	13.257779	-0.043069	1.617002
176.117732	1101.462401	13.262784	-0.043090	1.617016
176.115910	1101.408536	13.267789	-0.043089	1.616978
176.037802	1100.989455	13.272794	-0.043069	1.616680
176.229747	1100.972794	13.277799	-0.043116	1.616690
175.972598	1100.991509	13.282803	-0.043053	1.616674
176.039549	1101.002332	13.287808	-0.043069	1.616689
175.860401	1101.029288	13.292813	-0.043026	1.616687
175.715719	1101.040200	13.297818	-0.042990	1.616678
175.614052	1101.068702	13.302823	-0.042965	1.616686
175.727062	1101.035138	13.307827	-0.042993	1.616676
175.862494	1101.029091	13.312832	-0.043026	1.616687
175.740287	1101.042198	13.317837	-0.042996	1.616682
175.731259	1101.032921	13.322842	-0.042993	1.616674
175.812565	1101.040488	13.327847	-0.043013	1.616689
175.841740	1101.020884	13.332851	-0.043020	1.616679
175.897173	1101.024101	13.337856	-0.043033	1.616687
176.147053	1100.984613	13.342861	-0.043094	1.616688
175.978990	1100.996192	13.347866	-0.043053	1.616677
176.170835	1100.982711	13.352871	-0.043100	1.616689
176.243519	1100.600244	13.357875	-0.043117	1.616433
176.247103	1100.517266	13.362880	-0.043118	1.616376
176.247749	1100.514541	13.367885	-0.043118	1.616374
176.243051	1100.509528	13.372890	-0.043117	1.616370
176.369934	1100.459908	13.377895	-0.043147	1.616350
176.267853	1100.055992	13.382899	-0.043122	1.616060
176.327864	1100.060712	13.387904	-0.043136	1.616070
176.240687	1100.073734	13.392909	-0.043115	1.616069
176.109181	1100.085207	13.397914	-0.043083	1.616062
176.048919	1100.114831	13.402919	-0.043068	1.616075
176.075613	1099.807812	13.407923	-0.043074	1.615866
176.001764	1099.747943	13.412928	-0.043056	1.615816
176.028816	1099.741118	13.417933	-0.043062	1.615815
175.978660	1099.741975	13.422938	-0.043050	1.615809
175.943669	1099.766100	13.427943	-0.043041	1.615822
175.797364	1099.769158	13.432947	-0.043005	1.615808
175.850467	1099.770263	13.437952	-0.043018	1.615814
175.798406	1099.777532	13.442957	-0.043005	1.615813
175.912864	1099.750737	13.447962	-0.043033	1.615808
175.935322	1099.764996	13.452967	-0.043039	1.615820
176.031194	1099.727467	13.457971	-0.043062	1.615805
176.117035	1099.730436	13.462976	-0.043083	1.615817
176.202569	1099.557258	13.467981	-0.043103	1.615707
176.249281	1099.211566	13.472986	-0.043114	1.615473
176.298552	1099.219169	13.477991	-0.043126	1.615484
176.265129	1099.212317	13.482995	-0.043118	1.615475
176.305033	1099.217841	13.488000	-0.043128	1.615483
176.350681	1098.874176	13.493005	-0.043138	1.615251
176.247884	1098.752013	13.498010	-0.043113	1.615155
176.124637	1098.793080	13.503015	-0.043083	1.615169
176.091622	1098.783454	13.508019	-0.043075	1.615159
176.109573	1098.792573	13.513024	-0.043079	1.615167
176.153691	1098.783855	13.518029	-0.043089	1.615166
176.046350	1098.376377	13.523034	-0.043063	1.614872
176.189559	1098.321616	13.528039	-0.043098	1.614850
176.139263	1098.312117	13.533043	-0.043085	1.614838
176.048418	1098.336808	13.538048	-0.043063	1.614845
176.000548	1098.341135	13.543053	-0.043051	1.614842
176.117329	1098.311928	13.548058	-0.043079	1.614835
176.111595	1098.326733	13.553063	-0.043078	1.614845
176.079141	1098.075237	13.558067	-0.043070	1.614667
176.007787	1097.908923	13.563072	-0.043052	1.614544
176.102108	1097.889718	13.568077	-0.043075	1.614541
175.860353	1097.918604	13.573082	-0.043016	1.614534
176.000126	1097.912941	13.578087	-0.043050	1.614545
176.004948	1097.901861	13.583091	-0.043051	1.614538
175.929868	1097.922387	13.588096	-0.043032	1.614544
175.928861	1097.932125	13.593101	-0.043032	1.614550
175.935899	1097.914587	13.598106	-0.043033	1.614539
176.150327	1097.896913	13.603111	-0.043086	1.614551
176.232307	1097.582469	13.608115	-0.043105	1.614343
176.251074	1097.402997	13.613120	-0.043110	1.614221
176.199559	1097.404313	13.618125	-0.043097	1.614216
176.164437	1097.408584	13.623130	-0.043088	1.614215
176.149266	1097.421094	13.628135	-0.043084	1.614222
176.125540	1097.405894	13.633139	-0.043078	1.614208
176.150400	1097.008814	13.638144	-0.043084	1.613936
176.143908	1096.968229	13.643149	-0.043082	1.613907
175.836468	1097.006992	13.648154	-0.043007	1.613899
175.938490	1097.003671	13.653159	-0.043032	1.613909
175.791804	1097.013823	13.658163	-0.042996	1.613899
175.877978	1097.012199	13.663168	-0.043017	1.613907
175.872016	1097.012592	13.668173	-0.043015	1.613907
175.799056	1097.014719	13.673178	-0.042997	1.613900
175.923127	1097.008686	13.678183	-0.043027	1.613910
175.806887	1097.012267	13.683187	-0.042999	1.613899
175.891310	1097.012058	13.688192	-0.043019	1.613909
175.912249	1097.010072	13.693197	-0.043024	1.613909
175.866848	1097.002717	13.698202	-0.043013	1.613899
176.045408	1096.988428	13.703207	-0.043057	1.613909
176.120802	1096.962397	13.708211	-0.043075	1.613900
176.071433	1096.550717	13.713216	-0.043062	1.613609
176.110071	1096.524623	13.718221	-0.043072	1.613596
176.098824	1096.512574	13.723226	-0.043069	1.613586
176.060666	1096.534263	13.728231	-0.043059	1.613597
175.929470	1096.538722	13.733235	-0.043027	1.613585
176.079649	1096.524795	13.738240	-0.043064	1.613592
176.205920	1096.507118	13.743245	-0.043094	1.613594
176.118760	1096.252612	13.748250	-0.043073	1.613408
176.233761	1096.062651	13.753255	-0.043101	1.613290
176.057074	1096.073896	13.758259	-0.043057	1.613277
176.237589	1096.050030	13.763264	-0.043101	1.613281
176.171209	1096.065292	13.768269	-0.043085	1.613284
176.142145	1096.052784	13.773274	-0.043078	1.613272
176.076695	1095.874609	13.778279	-0.043061	1.613141
175.936034	1095.614522	13.783283	-0.043027	1.612945
175.953939	1095.618895	13.788288	-0.043031	1.612950
175.898499	1095.631011	13.793293	-0.043017	1.612952
175.757263	1095.638028	13.798298	-0.042983	1.612941
175.755315	1095.658961	13.803303	-0.042982	1.612955
175.660228	1095.652323	13.808307	-0.042959	1.612940
175.831505	1095.636732	13.813312	-0.043000	1.612948
175.995979	1095.612560	13.818317	-0.043040	1.612950
176.000872	1095.601253	13.823322	-0.043041	1.612943
176.165212	1095.595594	13.828327	-0.043081	1.612958
176.090366	1095.590597	13.833331	-0.043063	1.612946
176.196028	1095.581481	13.838336	-0.043089	1.612951
176.125834	1095.545279	13.843341	-0.043071	1.612918
176.122292	1095.127694	13.848346	-0.043070	1.612629
176.104392	1095.148534	13.853351	-0.043066	1.612641
175.966288	1095.156395	13.858355	-0.043032	1.612631
175.884248	1095.180990	13.863360	-0.043011	1.612638
175.630025	1095.219844	13.868365	-0.042949	1.612636
175.739960	1095.186577	13.873370	-0.042976	1.612626
175.948152	1095.174622	13.878375	-0.043027	1.612641
175.791308	1095.183528	13.883379	-0.042988	1.612629
176.024997	1095.153864	13.888384	-0.043045	1.612635
175.945773	1095.171234	13.893389	-0.043026	1.612638
175.991970	1095.147969	13.898394	-0.043037	1.612627
176.145362	1095.147932	13.903399	-0.043074	1.612644
176.156759	1094.987213	13.908403	-0.043077	1.612534
176.226114	1094.661460	13.913408	-0.043093	1.612317
176.425995	1094.633955	13.918413	-0.043142	1.612320
176.324178	1094.635194	13.923418	-0.043117	1.612309
176.331404	1094.652360	13.928423	-0.043119	1.612322
176.157191	1094.251201	13.933427	-0.043076	1.612024
176.000033	1094.265127	13.938432	-0.043037	1.612016
176.029007	1094.269933	13.943437	-0.043044	1.612023
175.899419	1094.277534	13.948442	-0.043012	1.612013
175.891095	1094.300853	13.953447	-0.043010	1.612028
175.877601	1094.286032	13.958451	-0.043007	1.612016
175.964796	1094.279937	13.963456	-0.043028	1.612022
175.802077	1094.304014	13.968461	-0.042988	1.612020
175.916315	1094.267341	13.973466	-0.043016	1.612008
176.109995	1094.254372	13.978471	-0.043063	1.612021
176.049455	1094.252225	13.983475	-0.043048	1.612012
176.153368	1094.030422	13.988480	-0.043073	1.611870
176.166125	1093.775818	13.993485	-0.043076	1.611695
176.143730	1093.766291	13.998490	-0.043070	1.611686
176.068342	1093.803761	14.003495	-0.043052	1.611703
175.941265	1093.805772	14.008499	-0.043020	1.611690
176.135904	1093.772361	14.013504	-0.043068	1.611689
176.059249	1093.795167	14.018509	-0.043049	1.611696
175.917056	1093.801911	14.023514	-0.043014	1.611685
175.977379	1093.643851	14.028519	-0.043029	1.611582
175.930712	1093.360519	14.033523	-0.043017	1.611380
175.875964	1093.375226	14.038528	-0.043003	1.611384
175.967576	1093.367499	14.043533	-0.043026	1.611389
176.045987	1093.340762	14.048538	-0.043045	1.611380
176.004123	1093.366646	14.053543	-0.043034	1.611393
176.000575	1093.350425	14.058547	-0.043033	1.611381
176.126230	1093.335312	14.063552	-0.043064	1.611385
176.103293	1093.351108	14.068557	-0.043058	1.611393
176.012366	1093.348996	14.073562	-0.043036	1.611381
176.089571	1093.111604	14.078567	-0.043054	1.611225
175.877492	1092.924395	14.083571	-0.043002	1.611071
175.662387	1092.968112	14.088576	-0.042949	1.611077
175.662035	1092.972318	14.093581	-0.042949	1.611080
175.617505	1093.246411	14.098586	-0.042938	1.611265
175.721211	1093.409258	14.103591	-0.042964	1.611389
175.852193	1093.378177	14.108595	-0.042996	1.611383
175.926997	1093.156047	14.113600	-0.043014	1.611237
175.976561	1092.925011	14.118605	-0.043025	1.611083
176.087133	1092.892324	14.123610	-0.043052	1.611073
176.232826	1092.886534	14.128615	-0.043088	1.611085
176.222505	1092.868499	14.133619	-0.043085	1.611071
176.254751	1092.864203	14.138624	-0.043093	1.611072
176.336638	1092.716172	14.143629	-0.043112	1.610979
176.193525	1092.520160	14.148634	-0.043077	1.610826
176.240606	1092.528969	14.153639	-0.043089	1.610838
176.044645	1092.549728	14.158643	-0.043041	1.610830
175.921670	1092.566394	14.163648	-0.043010	1.610827
175.925911	1092.569845	14.168653	-0.043011	1.610830
175.744871	1092.585004	14.173658	-0.042967	1.610820
175.770661	1092.603386	14.178663	-0.042973	1.610836
175.677751	1092.607012	14.183667	-0.042950	1.610827
175.833027	1092.584106	14.188672	-0.042988	1.610829
175.913298	1092.576660	14.193677	-0.043008	1.610833
175.854729	1092.576679	14.198682	-0.042993	1.610826
175.964969	1092.569044	14.203687	-0.043020	1.610834
176.045352	1092.540410	14.208691	-0.043039	1.610823
176.147566	1092.105792	14.213696	-0.043064	1.610533
176.308488	1092.029270	14.218701	-0.043103	1.610498
176.193481	1092.027745	14.223706	-0.043075	1.610484
176.102196	1092.066232	14.228711	-0.043052	1.610500
176.089028	1092.055877	14.233715	-0.043049	1.610492
175.944467	1092.083969	14.238720	-0.043014	1.610494
175.882050	1092.099257	14.243725	-0.042998	1.610498
175.801751	1092.098341	14.248730	-0.042978	1.610488
175.750607	1092.126415	14.253735	-0.042966	1.610502
175.635512	1092.131209	14.258739	-0.042938	1.610492
175.804758	1092.110286	14.263744	-0.042979	1.610497
175.817251	1092.118686	14.268749	-0.042982	1.610504
175.838154	1092.094410	14.273754	-0.042987	1.610489
175.803170	1092.116455	14.278759	-0.042978	1.610500
175.820928	1092.102602	14.283763	-0.042982	1.610493
176.030818	1091.687772	14.288768	-0.043033	1.610229
176.068163	1091.615102	14.293773	-0.043042	1.610183
176.120824	1091.589896	14.298778	-0.043055	1.610171
176.110786	1091.605143	14.303783	-0.043052	1.610181
176.126062	1091.590348	14.308787	-0.043056	1.610172
176.061843	1091.610659	14.313792	-0.043040	1.610179
176.067411	1091.614566	14.318797	-0.043041	1.610182
175.984754	1091.607513	14.323802	-0.043021	1.610168
175.995382	1091.178190	14.328807	-0.043023	1.609871
175.883204	1091.168560	14.333811	-0.042995	1.609852
175.837777	1091.183985	14.338816	-0.042984	1.609857
175.771961	1091.204558	14.343821	-0.042968	1.609864
175.795657	1091.187933	14.348826	-0.042974	1.609855
175.851976	1091.199040	14.353831	-0.042987	1.609869
175.660473	1091.214131	14.358835	-0.042940	1.609857
175.769216	1091.199529	14.363840	-0.042967	1.609860
175.723348	1091.215477	14.368845	-0.042955	1.609865
175.724726	1091.198014	14.373850	-0.042956	1.609853
175.850034	1091.192172	14.378855	-0.042986	1.609864
175.856296	1091.180435	14.383859	-0.042987	1.609856
175.831032	1091.189851	14.388864	-0.042981	1.609860
175.865351	1091.189938	14.393869	-0.042989	1.609864
175.897101	1091.177619	14.398874	-0.042997	1.609859
176.069199	1091.160948	14.403879	-0.043039	1.609866
176.002984	1091.160879	14.408883	-0.043023	1.609859
176.007975	1091.160603	14.413888	-0.043024	1.609859
176.187926	1091.141968	14.418893	-0.043067	1.609867
176.149818	1091.132560	14.423898	-0.043058	1.609856
176.129100	1090.879040	14.428903	-0.043053	1.609677
175.973686	1090.742165	14.433907	-0.043014	1.609565
176.076880	1090.726897	14.438912	-0.043039	1.609566
175.866428	1090.770531	14.443917	-0.042988	1.609572
175.854979	1090.756076	14.448922	-0.042985	1.609561
175.928795	1090.768133	14.453927	-0.043003	1.609577
175.800817	1090.771228	14.458931	-0.042971	1.609565
175.943262	1090.749518	14.463936	-0.043006	1.609566
175.896491	1090.763588	14.468941	-0.042995	1.609570
175.701661	1090.779905	14.473946	-0.042947	1.609559
175.773814	1090.787059	14.478951	-0.042964	1.609573
175.755928	1090.775461	14.483955	-0.042960	1.609562
175.781342	1090.775658	14.488960	-0.042966	1.609565
175.688138	1090.794649	14.493965	-0.042943	1.609568
175.595318	1090.791074	14.498970	-0.042920	1.609555
175.769273	1090.785120	14.503975	-0.042962	1.609570
175.730862	1090.777115	14.508979	-0.042953	1.609560
175.864328	1090.756654	14.513984	-0.042985	1.609561
175.882725	1090.763629	14.518989	-0.042990	1.609568
175.912408	1090.741073	14.523994	-0.042997	1.609556
175.932334	1090.757699	14.528999	-0.043002	1.609570
176.027982	1090.728367	14.534003	-0.043025	1.609560
176.175280	1090.709686	14.539008	-0.043061	1.609564
176.207745	1090.481685	14.544013	-0.043068	1.609409
176.115742	1090.241286	14.549018	-0.043046	1.609232
176.132905	1090.253636	14.554023	-0.043050	1.609242
175.990982	1090.263525	14.559027	-0.043015	1.609233
175.935646	1090.274276	14.564032	-0.043001	1.609234
176.008902	1090.276294	14.569037	-0.043019	1.609244
175.855663	1090.277691	14.574042	-0.042981	1.609227
175.672337	1090.326998	14.579047	-0.042936	1.609241
175.575768	1090.332593	14.584051	-0.042913	1.609233
175.531800	1090.336978	14.589056	-0.042902	1.609231
175.555752	1090.349113	14.594061	-0.042908	1.609242
175.542334	1090.335660	14.599066	-0.042904	1.609231
175.762025	1090.324217	14.604071	-0.042958	1.609248
175.834312	1090.295347	14.609075	-0.042975	1.609237
175.876258	1090.285181	14.614080	-0.042985	1.609234
176.110200	1090.257675	14.619085	-0.043042	1.609242
176.109211	1090.233632	14.624090	-0.043042	1.609225
176.102557	1090.259341	14.629095	-0.043040	1.609242
176.125562	1090.250258	14.634099	-0.043046	1.609238
176.304023	1089.943223	14.639104	-0.043089	1.609045
176.248670	1089.780767	14.644109	-0.043075	1.608926
176.029009	1089.808820	14.649114	-0.043021	1.608921
175.958234	1089.835376	14.654119	-0.043004	1.608931
175.932534	1089.826192	14.659123	-0.042997	1.608922
175.751225	1089.851548	14.664128	-0.042953	1.608919
175.728597	1089.870876	14.669133	-0.042947	1.608929
175.636363	1089.868565	14.674138	-0.042925	1.608917
175.707901	1089.877834	14.679143	-0.042942	1.608932
175.571022	1089.890049	14.684147	-0.042908	1.608924
175.592126	1089.879030	14.689152	-0.042913	1.608919
175.763466	1089.858871	14.694157	-0.042955	1.608925
175.962971	1089.813394	14.699162	-0.043004	1.608916
176.026408	1089.820844	14.704167	-0.043019	1.608928
176.069593	1089.803502	14.709171	-0.043029	1.608921
176.216305	1089.776588	14.714176	-0.043065	1.608919
176.285370	1089.757472	14.719181	-0.043082	1.608913
176.198109	1089.327681	14.724186	-0.043060	1.608605
176.228601	1089.339411	14.729191	-0.043067	1.608617
175.994003	1089.368571	14.734195	-0.043010	1.608610
176.003453	1089.359017	14.739200	-0.043012	1.608604
176.087512	1089.357005	14.744205	-0.043033	1.608613
175.939485	1089.368355	14.749210	-0.042996	1.608603
175.864721	1089.396689	14.754215	-0.042978	1.608615
175.804878	1089.405932	14.759219	-0.042963	1.608614
175.796878	1089.403290	14.764224	-0.042961	1.608611
175.904132	1089.395896	14.769229	-0.042987	1.608618
175.971688	1089.363535	14.774234	-0.043003	1.608603
175.989310	1088.980249	14.779239	-0.043007	1.608339
175.996409	1088.917343	14.784243	-0.043009	1.608296
175.993339	1088.915692	14.789248	-0.043008	1.608295
176.027101	1088.921934	14.794253	-0.043016	1.608303
175.965271	1088.920486	14.799258	-0.043001	1.608295
175.905513	1088.941633	14.804263	-0.042986	1.608303
175.948030	1088.927101	14.809267	-0.042996	1.608297
175.818023	1088.951911	14.814272	-0.042965	1.608300
175.859037	1088.949768	14.819277	-0.042974	1.608303
175.744545	1088.956516	14.824282	-0.042946	1.608294
175.750823	1088.970418	14.829287	-0.042948	1.608305
175.740516	1088.968156	14.834291	-0.042945	1.608302
175.856169	1088.946115	14.839296	-0.042973	1.608300
175.843319	1088.956862	14.844301	-0.042970	1.608306
175.845531	1088.947373	14.849306	-0.042970	1.608299
176.004559	1088.935298	14.854311	-0.043009	1.608309
175.943418	1088.927217	14.859315	-0.042994	1.608296
176.033575	1088.915432	14.864320	-0.043016	1.608298
176.102046	1088.522745	14.869325	-0.043032	1.608033

176.232790	1088.401332	14.874330	-0.043064	1.607964
176.118958	1088.435402	14.879335	-0.043036	1.607975
176.104512	1088.249713	14.884339	-0.043032	1.607844
176.054636	1087.978154	14.889344	-0.043020	1.607650
176.081644	1087.841883	14.894349	-0.043026	1.607558
175.969301	1087.538161	14.899354	-0.042998	1.607334
176.063738	1087.268833	14.904359	-0.043021	1.607158
175.817556	1087.065356	14.909363	-0.042960	1.606988
175.743847	1086.681730	14.914368	-0.042942	1.606713
175.715534	1086.372243	14.919373	-0.042935	1.606495
175.699414	1086.027113	14.924378	-0.042930	1.606253
175.731495	1085.680404	14.929383	-0.042938	1.606016
175.641566	1085.327299	14.934387	-0.042915	1.605760
175.804179	1084.791360	14.939392	-0.042955	1.605405
175.806732	1084.282501	14.944397	-0.042955	1.605052
175.745480	1083.758440	14.949402	-0.042939	1.604680
175.935715	1083.115796	14.954407	-0.042985	1.604255
175.947567	1082.467424	14.959411	-0.042988	1.603805
176.052178	1081.764085	14.964416	-0.043012	1.603327
176.072502	1081.040967	14.969421	-0.043017	1.602825
176.051968	1080.217939	14.974426	-0.043011	1.602249
175.948602	1079.475784	14.979431	-0.042985	1.601720
175.937110	1078.698404	14.984435	-0.042982	1.601177
175.731216	1077.979000	14.989440	-0.042931	1.600651
175.618183	1077.166058	14.994445	-0.042902	1.600071
175.386313	1076.340552	14.999450	-0.042845	1.599468
175.343937	1075.517281	15.004455	-0.042834	1.598889
175.237665	1074.668856	15.009459	-0.042807	1.598284
175.229362	1073.762422	15.014464	-0.042804	1.597649
175.239084	1072.884638	15.019469	-0.042806	1.597037
175.258397	1071.921696	15.024474	-0.042810	1.596366
175.465164	1070.948584	15.029479	-0.042860	1.595709
175.373482	1069.912624	15.034483	-0.042836	1.594973
175.399390	1068.833709	15.039488	-0.042842	1.594220
175.519695	1067.682271	15.044493	-0.042870	1.593427
175.394581	1066.505043	15.049498	-0.042839	1.592588
175.394719	1065.366110	15.054503	-0.042838	1.591789
175.270819	1064.210835	15.059507	-0.042806	1.590964
175.208044	1063.020976	15.064512	-0.042790	1.590121
175.087496	1061.842399	15.069517	-0.042760	1.589280
174.857098	1060.619303	15.074522	-0.042702	1.588393
174.801958	1059.368004	15.079527	-0.042688	1.587507
174.760101	1058.121209	15.084531	-0.042677	1.586625
174.597453	1056.957795	15.089536	-0.042636	1.585787
174.466485	1055.723540	15.094541	-0.042603	1.584902
174.421947	1054.409953	15.099546	-0.042591	1.583971
174.357056	1053.099401	15.104551	-0.042574	1.583039
174.351540	1051.751731	15.109555	-0.042572	1.582088
174.395017	1050.421531	15.114560	-0.042581	1.581154
174.592257	1049.026483	15.119565	-0.042628	1.580191
174.500201	1047.523567	15.124570	-0.042605	1.579118
174.546644	1046.007384	15.129575	-0.042615	1.578051
174.637149	1044.454063	15.134579	-0.042636	1.576962
174.509138	1042.933335	15.139584	-0.042603	1.575870
174.399226	1041.374586	15.144589	-0.042575	1.574752
174.218763	1039.792792	15.149594	-0.042530	1.573609
174.293436	1038.146403	15.154599	-0.042547	1.572449
174.129572	1036.572367	15.159603	-0.042505	1.571311
173.755090	1035.033974	15.164608	-0.042413	1.570173
173.648926	1033.446370	15.169613	-0.042385	1.569031
173.532090	1031.803632	15.174618	-0.042355	1.567848
173.548124	1030.198596	15.179623	-0.042358	1.566706
173.448216	1028.628846	15.184627	-0.042332	1.565575
173.411241	1026.927995	15.189632	-0.042322	1.564357
173.466519	1025.191308	15.194637	-0.042334	1.563123
173.402318	1023.443071	15.199642	-0.042317	1.561866
173.451741	1021.766829	15.204647	-0.042328	1.560673
173.558416	1019.907511	15.209651	-0.042353	1.559355
173.523592	1018.025560	15.214656	-0.042343	1.558003
173.530356	1016.181859	15.219661	-0.042343	1.556681
173.481654	1014.280023	15.224666	-0.042329	1.555311
173.698650	1012.306558	15.229671	-0.042381	1.553919
173.446641	1010.305004	15.234675	-0.042318	1.552450
173.319910	1008.394482	15.239680	-0.042285	1.551060
173.338295	1006.412577	15.244685	-0.042288	1.549634
172.963565	1004.412286	15.249690	-0.042195	1.548147
172.909070	1002.467023	15.254695	-0.042180	1.546737
172.678074	1000.548223	15.259699	-0.042122	1.545323
172.462889	998.564721	15.264704	-0.042068	1.543863
172.261776	996.620262	15.269709	-0.042018	1.542432
171.977736	994.727693	15.274714	-0.041947	1.541026
171.926346	992.802816	15.279719	-0.041933	1.539625
171.769118	990.799548	15.284723	-0.041893	1.538152
171.688570	988.843214	15.289728	-0.041871	1.536721
171.607196	986.906674	15.294733	-0.041850	1.535303
171.513822	984.850023	15.299738	-0.041826	1.533795
171.464271	982.831358	15.304743	-0.041812	1.532318
171.629918	980.795124	15.309747	-0.041851	1.530854
171.603941	978.654336	15.314752	-0.041843	1.529288
171.544645	976.519616	15.319757	-0.041827	1.527721
171.499798	974.400470	15.324762	-0.041814	1.526166
171.488444	972.236114	15.329767	-0.041810	1.524580
171.363118	970.030315	15.334771	-0.041777	1.522948
171.244741	967.886360	15.339776	-0.041747	1.521360
171.049173	965.723423	15.344781	-0.041697	1.519748
170.976834	963.490596	15.349786	-0.041678	1.518097
170.943600	961.305165	15.354791	-0.041668	1.516484
170.692901	959.113484	15.359795	-0.041605	1.514839
170.512405	956.868474	15.364800	-0.041559	1.513160
170.424984	954.704177	15.369805	-0.041536	1.511551
170.361527	952.468743	15.374810	-0.041519	1.509891
170.306115	950.182152	15.379815	-0.041504	1.508191
170.412575	947.925458	15.384819	-0.041528	1.506533
170.194674	945.628632	15.389824	-0.041473	1.504802
170.307586	943.271040	15.394829	-0.041499	1.503065
170.142098	940.976674	15.399834	-0.041457	1.501339
170.116546	938.624106	15.404839	-0.041449	1.499585
170.107117	936.202072	15.409843	-0.041444	1.497778
169.965693	933.843700	15.414848	-0.041408	1.496001
169.768939	931.449268	15.419853	-0.041358	1.494188
169.645297	929.027944	15.424858	-0.041326	1.492361
169.578480	926.667326	15.429863	-0.041308	1.490585
169.258388	924.273671	15.434867	-0.041228	1.488750
169.143980	921.893830	15.439872	-0.041198	1.486949
168.986161	919.543140	15.444877	-0.041158	1.485162
168.826246	917.117108	15.449882	-0.041117	1.483316
168.784305	914.760122	15.454887	-0.041105	1.481535
168.797505	912.325086	15.459891	-0.041106	1.479700
168.812934	909.809858	15.464896	-0.041108	1.477802
168.864155	907.368736	15.469901	-0.041119	1.475963
168.856925	904.770362	15.474906	-0.041115	1.473995
168.824354	902.228932	15.479911	-0.041105	1.472063
168.665409	899.712698	15.484915	-0.041064	1.470133
168.588146	897.095261	15.489920	-0.041043	1.468133
168.546230	894.567838	15.494925	-0.041031	1.466203
168.347042	891.956069	15.499930	-0.040981	1.464187
168.200356	889.391369	15.504935	-0.040943	1.462210
167.885783	886.871185	15.509939	-0.040864	1.460243
167.792379	884.270423	15.514944	-0.040839	1.458240
167.822648	881.712061	15.519949	-0.040845	1.456283
167.464395	879.117778	15.524954	-0.040755	1.454245
167.342581	876.568796	15.529959	-0.040723	1.452270
167.182477	874.011404	15.534963	-0.040682	1.450281
166.981238	871.432407	15.539968	-0.040631	1.448267
166.790687	868.940351	15.544973	-0.040583	1.446319
166.586899	866.365969	15.549978	-0.040531	1.444303
166.664567	863.792973	15.554983	-0.040548	1.442322
166.595308	861.220992	15.559987	-0.040529	1.440319
166.572461	858.544979	15.564992	-0.040521	1.438240
166.557750	855.958166	15.569997	-0.040516	1.436227
166.305865	853.284249	15.575002	-0.040452	1.434113
166.395185	850.621249	15.580007	-0.040472	1.432049
166.218579	847.978186	15.585011	-0.040427	1.429963
166.052638	845.285537	15.590016	-0.040384	1.427836
166.103803	842.629914	15.595021	-0.040395	1.425764
166.027401	839.870264	15.600026	-0.040374	1.423590
165.972470	837.204549	15.605031	-0.040359	1.421489
165.812534	834.451704	15.610035	-0.040317	1.419303
165.672677	831.738737	15.615040	-0.040281	1.417147
165.684594	828.992226	15.620045	-0.040282	1.414982
165.343368	826.251141	15.625050	-0.040197	1.412771
165.454229	823.499289	15.630055	-0.040222	1.410608
165.299553	820.708885	15.635059	-0.040182	1.408376
165.033822	818.017339	15.640064	-0.040115	1.406203
165.020604	815.218911	15.645069	-0.040109	1.403977
164.651455	812.533617	15.650074	-0.040017	1.401788
164.577149	809.777628	15.655079	-0.039997	1.399580
164.429990	807.049119	15.660083	-0.039959	1.397381
164.216601	804.312012	15.665088	-0.039905	1.395162
164.170323	801.567654	15.670093	-0.039891	1.392956
163.849974	798.873791	15.675098	-0.039811	1.390750
163.870799	796.088369	15.680103	-0.039814	1.388514
163.693974	793.410339	15.685107	-0.039769	1.386333
163.648381	790.584709	15.690112	-0.039755	1.384048
163.624960	787.834659	15.695117	-0.039748	1.381823
163.474859	785.025936	15.700122	-0.039709	1.379530
163.468080	782.227362	15.705127	-0.039705	1.377261
163.471197	779.379421	15.710131	-0.039704	1.374950
163.403720	776.519911	15.715136	-0.039685	1.372615
163.382679	773.664905	15.720141	-0.039678	1.370287
163.237374	770.779145	15.725146	-0.039640	1.367912
163.201170	767.917129	15.730151	-0.039629	1.365567
163.006848	765.028426	15.735155	-0.039579	1.363175
162.836338	762.197227	15.740160	-0.039535	1.360828
162.656874	759.321096	15.745165	-0.039489	1.358440
162.338670	756.517613	15.750170	-0.039410	1.356087
162.233797	753.651588	15.755175	-0.039382	1.353709
162.189890	750.826116	15.760179	-0.039369	1.351369
161.946785	747.950493	15.765184	-0.039307	1.348954
161.736520	745.199734	15.770189	-0.039254	1.346644
161.527984	742.331386	15.775194	-0.039201	1.344232
161.565296	739.530249	15.780199	-0.039208	1.341908
161.422598	736.661071	15.785203	-0.039171	1.339497
161.191049	733.848498	15.790208	-0.039112	1.337115
161.122059	730.984320	15.795213	-0.039093	1.334710
161.002902	728.141819	15.800218	-0.039062	1.332311
160.958967	725.247026	15.805223	-0.039049	1.329875
160.756947	722.427757	15.810227	-0.038997	1.327475
160.468141	719.586454	15.815232	-0.038925	1.325039
160.395690	716.779840	15.820237	-0.038905	1.322660
160.323854	713.912154	15.825242	-0.038885	1.320225
160.181060	711.062122	15.830247	-0.038848	1.317790
160.185572	708.173880	15.835251	-0.038847	1.315340
160.015352	705.297882	15.840256	-0.038803	1.312870
159.968121	702.420548	15.845261	-0.038789	1.310412
159.863006	699.517575	15.850266	-0.038762	1.307919
159.786848	696.625681	15.855271	-0.038741	1.305435
159.833540	693.712196	15.860275	-0.038750	1.302946
159.520569	690.818654	15.865280	-0.038671	1.300415
159.605550	687.878807	15.870285	-0.038690	1.297900
159.451559	684.910709	15.875290	-0.038650	1.295319
159.312777	681.988826	15.880295	-0.038614	1.292776
159.043552	679.070394	15.885299	-0.038546	1.290210
158.985226	676.132810	15.890304	-0.038529	1.287655
158.672772	673.239757	15.895309	-0.038451	1.285095
158.354993	670.403204	15.900314	-0.038371	1.282577
158.139608	667.538579	15.905319	-0.038316	1.280047
158.061156	664.680640	15.910323	-0.038295	1.277538
157.881350	661.784516	15.915328	-0.038249	1.274974
157.697313	658.974256	15.920333	-0.038202	1.272481
157.480341	656.095654	15.925338	-0.038147	1.269917
157.522069	653.244881	15.930343	-0.038155	1.267413
157.469633	650.328094	15.935347	-0.038140	1.264831
157.342347	647.476384	15.940352	-0.038106	1.262290
157.298046	644.549256	15.945357	-0.038093	1.259689
157.247231	641.644888	15.950362	-0.038079	1.257102
157.164403	638.691722	15.955367	-0.038056	1.254462
157.199771	635.755164	15.960371	-0.038063	1.251849
156.997665	632.790125	15.965376	-0.038011	1.249168
157.049950	629.844667	15.970381	-0.038022	1.246539
156.786230	626.886591	15.975386	-0.037955	1.243843
156.648173	623.976215	15.980391	-0.037919	1.241204
156.523437	621.023442	15.985395	-0.037886	1.238523
156.155588	618.123890	15.990400	-0.037794	1.235845
156.062658	615.222145	15.995405	-0.037769	1.233204
155.853956	612.307723	16.000410	-0.037716	1.230527
155.631034	609.453405	16.005415	-0.037659	1.227896
155.498710	606.545701	16.010419	-0.037625	1.225226
155.293906	603.684478	16.015424	-0.037573	1.222581
155.041256	600.816269	16.020429	-0.037509	1.219915
154.984597	597.937356	16.025434	-0.037493	1.217266
154.835915	595.035257	16.030439	-0.037454	1.214575
154.805172	592.183370	16.035443	-0.037445	1.211944
154.807612	589.217892	16.040448	-0.037443	1.209207
154.742267	586.328964	16.045453	-0.037425	1.206524
154.633430	583.390864	16.050458	-0.037396	1.203781
154.482419	580.496759	16.055463	-0.037357	1.201067
154.494247	577.557027	16.060467	-0.037358	1.198331
154.154720	574.640143	16.065472	-0.037272	1.195551
153.991333	571.786331	16.070477	-0.037230	1.192853
153.827464	568.857843	16.075482	-0.037188	1.190079
153.656578	566.018477	16.080487	-0.037144	1.187382
153.452796	563.128418	16.085491	-0.037092	1.184624
153.055420	560.338479	16.090496	-0.036993	1.181922
152.997433	557.480524	16.095501	-0.036977	1.179207
152.779467	554.648713	16.100506	-0.036921	1.176484
152.648798	551.820843	16.105511	-0.036887	1.173772
152.585569	548.962745	16.110515	-0.036870	1.171037
152.655605	546.078729	16.115520	-0.036884	1.168294
152.680994	543.165185	16.120525	-0.036888	1.165508
152.535984	540.304859	16.125530	-0.036851	1.162738
152.428833	537.384411	16.130535	-0.036823	1.159909
152.467109	534.491567	16.135539	-0.036830	1.157125
152.332055	531.540720	16.140544	-0.036794	1.154249
152.193251	528.650657	16.145549	-0.036758	1.151423
152.020374	525.757868	16.150554	-0.036714	1.148582
151.788029	522.862105	16.155559	-0.036655	1.145720
151.563827	520.029157	16.160563	-0.036598	1.142914
151.283044	517.158018	16.165568	-0.036527	1.140053
151.196302	514.315241	16.170573	-0.036504	1.137248
150.903949	511.464898	16.175578	-0.036430	1.134392
150.712391	508.652429	16.180583	-0.036381	1.131583
150.599881	505.827927	16.185587	-0.036352	1.128770
150.336476	503.005618	16.190592	-0.036285	1.125925
150.201474	500.246946	16.195597	-0.036250	1.123160
150.078549	497.406096	16.200602	-0.036218	1.120307
149.928541	494.630612	16.205607	-0.036179	1.117508
149.872865	491.794910	16.210611	-0.036163	1.114658
149.588170	489.019789	16.215616	-0.036092	1.111821
149.414606	486.267520	16.220621	-0.036047	1.109019
149.253294	483.476196	16.225626	-0.036006	1.106173
149.146104	480.723996	16.230631	-0.035978	1.103369
149.087929	477.916823	16.235635	-0.035961	1.100511
148.932718	475.145818	16.240640	-0.035921	1.097665
148.747833	472.365927	16.245645	-0.035874	1.094797
148.644972	469.587643	16.250650	-0.035847	1.091938
148.409516	466.838491	16.255655	-0.035787	1.089076
148.340226	464.067251	16.260659	-0.035768	1.086216
148.222572	461.312392	16.265664	-0.035737	1.083356
148.191097	458.520251	16.270669	-0.035727	1.080465
148.099047	455.748979	16.275674	-0.035703	1.077578
147.906970	452.963896	16.280679	-0.035654	1.074649
147.825306	450.201531	16.285683	-0.035632	1.071757
147.461205	447.479247	16.290688	-0.035541	1.068844
147.508990	444.684465	16.295693	-0.035550	1.065927
147.341954	441.956481	16.300698	-0.035507	1.063031
147.219678	439.163949	16.305703	-0.035475	1.060067
146.963940	436.448247	16.310707	-0.035411	1.057151
146.751942	433.717094	16.315712	-0.035357	1.054218
146.438350	431.033946	16.320717	-0.035278	1.051309
146.054832	428.408581	16.325722	-0.035183	1.048439
145.858168	425.738635	16.330727	-0.035132	1.045550
145.627595	423.143937	16.335731	-0.035074	1.042727
145.262337	420.528550	16.340736	-0.034983	1.039848
145.108130	417.937790	16.345741	-0.034943	1.037029
145.018194	415.318309	16.350746	-0.034919	1.034184
144.808992	412.714103	16.355751	-0.034866	1.031324
144.676799	410.153724	16.360755	-0.034832	1.028519
144.682856	407.493328	16.365760	-0.034831	1.025625
144.785019	404.873237	16.370765	-0.034854	1.022786
144.584105	402.233727	16.375770	-0.034803	1.019857
144.618764	399.562308	16.380775	-0.034810	1.016932
144.299948	396.976617	16.385779	-0.034730	1.014021
144.205515	394.321123	16.390784	-0.034705	1.011071
144.143398	391.723725	16.395789	-0.034688	1.008182
143.935886	389.094352	16.400794	-0.034635	1.005220
143.697201	386.511999	16.405799	-0.034575	1.002296
143.559510	383.929857	16.410803	-0.034539	0.999384
143.294605	381.328791	16.415808	-0.034472	0.996415
143.085209	378.808642	16.420813	-0.034419	0.993541
142.824583	376.253506	16.425818	-0.034354	0.990607
142.495408	373.766991	16.430823	-0.034271	0.987729
142.272663	371.267977	16.435827	-0.034215	0.984850
142.050806	368.759106	16.440832	-0.034159	0.981951
141.682546	366.331579	16.445837	-0.034067	0.979106
141.412040	363.865297	16.450842	-0.033999	0.976229
141.515222	361.379165	16.455847	-0.034022	0.973400
141.277457	358.920132	16.460851	-0.033962	0.970521
141.062461	356.482367	16.465856	-0.033908	0.967663
141.084713	354.017301	16.470861	-0.033911	0.964816
140.969713	351.538338	16.475866	-0.033881	0.961915
140.906487	349.068294	16.480871	-0.033864	0.959026
140.809517	346.585486	16.485875	-0.033839	0.956107
140.763377	344.093089	16.490880	-0.033825	0.953178
140.628363	341.630993	16.495885	-0.033790	0.950257
140.368664	339.176316	16.500890	-0.033725	0.947308
140.172881	336.760563	16.505895	-0.033675	0.944410
140.120016	334.290857	16.510899	-0.033661	0.941470
139.770997	331.893052	16.515904	-0.033574	0.938541
139.460355	329.507781	16.520909	-0.033496	0.935627
139.210663	327.123749	16.525914	-0.033433	0.932718
138.905986	324.788209	16.530919	-0.033357	0.929846
138.697263	322.438580	16.535923	-0.033304	0.926970
138.278237	320.171015	16.540928	-0.033200	0.924137
138.154818	317.848151	16.545933	-0.033168	0.921295
137.887631	315.569426	16.550938	-0.033101	0.918465
137.849149	313.234947	16.555943	-0.033090	0.915610
137.578782	310.975152	16.560947	-0.033022	0.912785
137.363200	308.708488	16.565952	-0.032967	0.909955
137.259143	306.421591	16.570957	-0.032940	0.907117
137.116134	304.155319	16.575962	-0.032904	0.904286
136.861942	301.894745	16.580967	-0.032840	0.901428
136.686004	299.651152	16.585971	-0.032795	0.898600
136.408516	297.416542	16.590976	-0.032725	0.895751
136.305467	295.188619	16.595981	-0.032699	0.892941
136.115614	292.968737	16.600986	-0.032650	0.890113
135.829797	290.766517	16.605991	-0.032579	0.887275
135.592165	288.616414	16.610995	-0.032519	0.884505
135.434530	286.408967	16.616000	-0.032479	0.881673
135.403183	284.219945	16.621005	-0.032470	0.878885
135.155313	282.033848	16.626010	-0.032407	0.876041
134.940525	279.882281	16.631015	-0.032353	0.873239
134.799518	277.727743	16.636019	-0.032317	0.870442
134.599116	275.565874	16.641024	-0.032266	0.867612
134.683836	273.394347	16.646029	-0.032286	0.864829
134.406497	271.232529	16.651034	-0.032216	0.861962
134.273405	269.088712	16.656039	-0.032182	0.859144
134.032108	266.949224	16.661043	-0.032121	0.856296
133.782980	264.835476	16.666048	-0.032059	0.853470
133.544854	262.749041	16.671053	-0.031999	0.850674
133.209545	260.673360	16.676058	-0.031915	0.847858
132.985675	258.627783	16.681063	-0.031859	0.845100
132.794560	256.557583	16.686067	-0.031811	0.842309
132.341831	254.572901	16.691072	-0.031699	0.839556
132.113828	252.551651	16.696077	-0.031641	0.836803
131.846530	250.579317	16.701082	-0.031575	0.834095
131.508969	248.609177	16.706087	-0.031491	0.831364
131.342825	246.658013	16.711091	-0.031448	0.828694
131.146842	244.682841	16.716096	-0.031399	0.825974
131.018887	242.726180	16.721101	-0.031366	0.823288
130.726522	240.795625	16.726106	-0.031293	0.820587
130.687106	238.810677	16.731111	-0.031282	0.817867
130.419821	236.902988	16.736115	-0.031215	0.815185
130.423272	234.903763	16.741120	-0.031215	0.812439
130.228484	233.001992	16.746125	-0.031166	0.809766
130.148531	231.022956	16.751130	-0.031144	0.807008
130.015782	229.108381	16.756135	-0.031111	0.804316
129.694469	227.201622	16.761139	-0.031031	0.801575
129.339900	225.326587	16.766144	-0.030942	0.798861
129.132164	223.449224	16.771149	-0.030890	0.796174
128.665417	221.637299	16.776154	-0.030775	0.793500
128.345696	219.832013	16.781159	-0.030695	0.790866
127.954312	218.067064	16.786163	-0.030598	0.788261
127.625739	216.308933	16.791168	-0.030517	0.785675
127.475391	214.531783	16.796173	-0.030478	0.783100
127.259588	212.775329	16.801178	-0.030424	0.780529
127.142355	210.980216	16.806183	-0.030394	0.777921
126.962060	209.240771	16.811187	-0.030349	0.775367
127.018773	207.408862	16.816192	-0.030361	0.772736
127.063007	205.618295	16.821197	-0.030371	0.770152
126.869929	203.815003	16.826202	-0.030322	0.767475
126.737934	202.053727	16.831207	-0.030288	0.764868
126.589178	200.268478	16.836211	-0.030251	0.762212
126.423254	198.496105	16.841216	-0.030209	0.759560
126.203079	196.739290	16.846221	-0.030154	0.756907
125.817902	195.040325	16.851226	-0.030058	0.754284
125.466502	193.346375	16.856231	-0.029971	0.751669
125.019489	191.717489	16.861235	-0.029860	0.749114
124.749959	190.043624	16.866240	-0.029793	0.746534
124.562546	188.397545	16.871245	-0.029746	0.744010
124.146653	186.787739	16.876250	-0.029643	0.741467
123.966950	185.150798	16.881255	-0.029598	0.738942
123.871137	183.518399	16.886259	-0.029573	0.736439
123.651957	181.893448	16.891264	-0.029518	0.733904
123.677200	180.245606	16.896269	-0.029523	0.731395
123.451490	178.627924	16.901274	-0.029467	0.728851
123.463387	176.972828	16.906279	-0.029468	0.726310
123.404892	175.329149	16.911283	-0.029453	0.723757
123.226804	173.696199	16.916288	-0.029408	0.721177
123.032853	172.070443	16.921293	-0.029359	0.718593
122.772210	170.481538	16.926298	-0.029294	0.716038
122.448067	168.899914	16.931303	-0.029214	0.713466
122.160878	167.363416	16.936307	-0.029143	0.710967
121.690097	165.841193	16.941312	-0.029026	0.708426
121.396888	164.356579	16.946317	-0.028954	0.705990
121.009083	162.868423	16.951322	-0.028858	0.703510
120.568945	161.437089	16.956327	-0.028749	0.701096
120.318623	159.979252	16.961331	-0.028687	0.698690
120.009217	158.548163	16.966336	-0.028610	0.696300
119.928197	157.085260	16.971341	-0.028589	0.693921
119.804237	155.630620	16.976346	-0.028557	0.691534
119.738521	154.156959	16.981351	-0.028540	0.689125
119.537337	152.722080	16.986355	-0.028490	0.686729
119.393625	151.273233	16.991360	-0.028454	0.684320
119.406790	149.793365	16.996365	-0.028456	0.681901
119.326215	148.321485	17.001370	-0.028435	0.679457
119.198745	146.858668	17.006375	-0.028402	0.677004
119.189377	145.376027	17.011379	-0.028399	0.674547
118.995204	143.912767	17.016384	-0.028350	0.672054
118.829014	142.473148	17.021389	-0.028309	0.669600
118.425205	141.072052	17.026394	-0.028209	0.667125
118.291410	139.645581	17.031399	-0.028175	0.664686
117.974417	138.252255	17.036403	-0.028096	0.662234
117.637044	136.877930	17.041408	-0.028013	0.659799
117.536783	135.471580	17.046413	-0.027987	0.657377
117.106832	134.141615	17.051418	-0.027881	0.654969
116.748993	132.809264	17.056423	-0.027793	0.652572
116.494571	131.505731	17.061427	-0.027729	0.650249
116.264792	130.158596	17.066432	-0.027672	0.647851
116.279064	128.834282	17.071437	-0.027674	0.645565
115.977297	127.501891	17.076442	-0.027600	0.643151
115.866094	126.185326	17.081447	-0.027571	0.640819
115.807243	124.833299	17.086451	-0.027556	0.638435
115.639592	123.515330	17.091456	-0.027514	0.636064
115.649385	122.151921	17.096461	-0.027515	0.633665
115.520560	120.832471	17.101466	-0.027483	0.631287
115.390209	119.478605	17.106471	-0.027450	0.628839
115.180887	118.192483	17.111475	-0.027397	0.626474
114.973406	116.870874	17.116480	-0.027346	0.624038
114.664030	115.608418	17.121485	-0.027269	0.621664
114.212192	114.362681	17.126490	-0.027158	0.619260
113.927103	113.128188	17.131495	-0.027087	0.616926
113.649437	111.898014	17.136499	-0.027018	0.614594
113.267818	110.700349	17.141504	-0.026924	0.612276
112.987193	109.510018	17.146509	-0.026854	0.609997
112.810198	108.302111	17.151514	-0.026810	0.607715
112.712504	107.094783	17.156519	-0.026785	0.605453
112.519617	105.879877	17.161523	-0.026737	0.603135
112.373447	104.693435	17.166528	-0.026700	0.600878
112.373221	103.438922	17.171533	-0.026699	0.598537
112.288479	102.240380	17.176538	-0.026678	0.596262
112.148932	101.007426	17.181543	-0.026643	0.593893
112.066039	99.808020	17.186547	-0.026621	0.591598
111.765155	98.612062	17.191552	-0.026547	0.589222
111.270691	97.507483	17.196557	-0.026425	0.586939
110.894776	96.384325	17.201562	-0.026332	0.584655
110.578573	95.262330	17.206567	-0.026254	0.582386
110.291608	94.161792	17.211571	-0.026183	0.580161
109.975366	93.063854	17.216576	-0.026105	0.577921
109.903818	91.952410	17.221581	-0.026086	0.575738
109.695035	90.835057	17.226586	-0.026035	0.573484
109.568189	89.742213	17.231591	-0.026003	0.571300
109.547540	88.600763	17.236595	-0.025997	0.569052
109.461839	87.488445	17.241600	-0.025975	0.566828
109.557829	86.318923	17.246605	-0.025997	0.564551
109.463488	85.184241	17.251610	-0.025973	0.562261
109.407708	84.029843	17.256615	-0.025959	0.559937
109.301907	82.901891	17.261619	-0.025932	0.557637
109.063472	81.782506	17.266624	-0.025873	0.555294
108.725973	80.709858	17.271629	-0.025789	0.552996
108.356886	79.658802	17.276634	-0.025698	0.550720
108.002581	78.601964	17.281639	-0.025611	0.548428
107.584535	77.624683	17.286643	-0.025508	0.546265
107.164362	76.609691	17.291648	-0.025404	0.544014
106.931142	75.616317	17.296653	-0.025347	0.541874
106.666897	74.608515	17.301658	-0.025281	0.539682
106.648697	73.569243	17.306663	-0.025276	0.537515
106.552441	72.544008	17.311667	-0.025251	0.535338
106.526189	71.489723	17.316672	-0.025244	0.533118
106.628625	70.427677	17.321677	-0.025268	0.530926
106.573847	69.354612	17.326682	-0.025254	0.528637
106.553155	68.307088	17.331687	-0.025248	0.526406
106.561825	67.220499	17.336691	-0.025249	0.524095
106.438692	66.165975	17.341696	-0.025218	0.521787
106.091263	65.154087	17.346701	-0.025133	0.519467
105.956356	64.124923	17.351706	-0.025099	0.517189
105.383462	63.174432	17.356711	-0.024958	0.514886
105.008094	62.234021	17.361715	-0.024865	0.512679
104.550578	61.311330	17.366720	-0.024753	0.510466
104.029315	60.429273	17.371725	-0.024625	0.508306
103.640309	59.551423	17.376730	-0.024529	0.506203
103.286065	58.659443	17.381735	-0.024442	0.504074
103.127936	57.765185	17.386739	-0.024402	0.502016
102.934162	56.856242	17.391744	-0.024354	0.499901
102.756982	55.970511	17.396749	-0.024310	0.497837
102.658337	55.063591	17.401754	-0.024285	0.495750
102.752353	54.099756	17.406759	-0.024307	0.493611
102.847543	53.157619	17.411763	-0.024330	0.491512
102.691030	52.219169	17.416768	-0.024291	0.489301
102.703317	51.290218	17.421773	-0.024293	0.487177
102.656403	50.334710	17.426778	-0.024281	0.484956
102.545522	49.399452	17.431783	-0.024253	0.482742
102.536578	48.441901	17.436787	-0.024250	0.480513
102.096870	47.567784	17.441792	-0.024141	0.478273
101.784101	46.704163	17.446797	-0.024064	0.476104
101.644980	45.788966	17.451802	-0.024030	0.473884
101.414623	44.925343	17.456807	-0.023972	0.471734
100.907599	44.105375	17.461811	-0.023848	0.469549
100.463212	43.316495	17.466816	-0.023739	0.467457
100.275468	42.472811	17.471821	-0.023692	0.465345
100.024645	41.652528	17.476826	-0.023630	0.463250
99.728534	40.848599	17.481831	-0.023557	0.461163
99.611596	40.012182	17.486835	-0.023528	0.459073
99.561423	39.171866	17.491840	-0.023515	0.456996
99.340008	38.352171	17.496845	-0.023460	0.454877
99.313615	37.514863	17.501850	-0.023453	0.452799
99.303626	36.657977	17.506855	-0.023449	0.450671
99.357514	35.787875	17.511859	-0.023462	0.448531
99.156378	34.966594	17.516864	-0.023412	0.446379
99.070670	34.109759	17.521869	-0.023390	0.444183
98.715250	33.337273	17.526874	-0.023303	0.442056
98.295019	32.560895	17.531879	-0.023199	0.439878
98.111589	31.782355	17.536883	-0.023154	0.437800
97.619982	31.052335	17.541888	-0.023033	0.435684
97.364906	30.301199	17.546893	-0.022970	0.433621
96.776553	29.632780	17.551898	-0.022826	0.431594
96.348987	28.938401	17.556903	-0.022721	0.429572
96.183787	28.234708	17.561907	-0.022680	0.427650
95.852656	27.532679	17.566912	-0.022598	0.425639
95.819615	26.800119	17.571917	-0.022589	0.423690
95.691831	26.082440	17.576922	-0.022558	0.421724
95.722719	25.310302	17.581927	-0.022564	0.419685
95.623136	24.597878	17.586931	-0.022539	0.417728
95.313309	23.891758	17.591936	-0.022463	0.415669
95.180912	23.184669	17.596941	-0.022430	0.413690
94.862246	22.513002	17.601946	-0.022352	0.411699
94.454874	21.858312	17.606951	-0.022252	0.409698
94.021780	21.254177	17.611955	-0.022145	0.407811
93.381150	20.680031	17.616960	-0.021988	0.405887
92.782529	20.130772	17.621965	-0.021841	0.404045
92.233704	19.611453	17.626970	-0.021707	0.402305
91.743458	19.069940	17.631975	-0.021586	0.400528
91.339488	18.550235	17.636979	-0.021487	0.398851
91.062525	18.012505	17.641984	-0.021419	0.397186
90.718555	17.489692	17.646989	-0.021334	0.395519
90.423674	16.972398	17.651994	-0.021262	0.393888
90.126254	16.468336	17.656999	-0.021189	0.392287
90.111585	15.903273	17.662003	-0.021185	0.390662
89.771520	15.400433	17.667008	-0.021101	0.389027
89.554712	14.907607	17.672013	-0.021048	0.387483
89.276591	14.402618	17.677018	-0.020979	0.385863
88.996453	13.903216	17.682023	-0.020910	0.384252
88.778662	13.425566	17.687027	-0.020856	0.382733
88.303392	12.974454	17.692032	-0.020740	0.381138
87.824337	12.549787	17.697037	-0.020622	0.379612
87.571723	12.107981	17.702042	-0.020560	0.378160
87.169405	11.690034	17.707047	-0.020461	0.376686
86.566021	11.325336	17.712051	-0.020314	0.375248
86.105439	10.958762	17.717056	-0.020201	0.373883
85.794990	10.581101	17.722061	-0.020124	0.372567
85.346505	10.225596	17.727066	-0.020014	0.371233
84.863374	9.889715	17.732071	-0.019896	0.369932
84.578302	9.544048	17.737075	-0.019826	0.368714
84.049217	9.250715	17.742080	-0.019696	0.367507
83.673612	8.937865	17.747085	-0.019604	0.366328
83.402955	8.602710	17.752090	-0.019538	0.365139
83.057150	8.294415	17.757095	-0.019453	0.363984
82.896790	7.978539	17.762099	-0.019413	0.362914
82.654603	7.651942	17.767104	-0.019354	0.361757
82.390840	7.335216	17.772109	-0.019289	0.360615
81.862823	7.086916	17.777114	-0.019160	0.359521
81.379236	6.852846	17.782119	-0.019041	0.358495
80.899706	6.629794	17.787123	-0.018924	0.357504
80.336735	6.425954	17.792128	-0.018786	0.356518
79.587952	6.285643	17.797133	-0.018603	0.355615
78.789760	6.174468	17.802138	-0.018408	0.354772
78.059212	6.086733	17.807143	-0.018229	0.354042
78.054597	5.889622	17.812147	-0.018227	0.353415
77.588410	5.748613	17.817152	-0.018113	0.352678
77.422335	5.567052	17.822157	-0.018072	0.351997
76.846631	5.471472	17.827162	-0.017932	0.351333
76.522166	5.334469	17.832167	-0.017852	0.350693
76.467373	5.156457	17.837171	-0.017838	0.350089
76.424294	4.964524	17.842176	-0.017828	0.349447
76.485125	4.755488	17.847181	-0.017842	0.348815
76.394638	4.572219	17.852186	-0.017820	0.348168
76.099545	4.410361	17.857191	-0.017747	0.347461
75.812442	4.259133	17.862195	-0.017677	0.346791
75.332447	4.154850	17.867200	-0.017560	0.346150
74.992364	4.032020	17.872205	-0.017476	0.345536
74.794006	3.889693	17.877210	-0.017428	0.344947
74.215221	3.816936	17.882215	-0.017286	0.344342
73.953460	3.718755	17.887219	-0.017222	0.343855
73.550728	3.655081	17.892224	-0.017123	0.343390
73.266965	3.546642	17.897229	-0.017054	0.342854
73.099670	3.448382	17.902234	-0.017013	0.342426
72.972555	3.307187	17.907239	-0.016981	0.341882
72.933016	3.176705	17.912243	-0.016971	0.341428
72.780186	3.047621	17.917248	-0.016934	0.340906
72.824602	2.874122	17.922253	-0.016944	0.340363
72.624062	2.756098	17.927258	-0.016895	0.339845
72.579707	2.601547	17.932263	-0.016884	0.339306
72.573274	2.440757	17.937267	-0.016882	0.338770
72.265104	2.328810	17.942272	-0.016807	0.338200
72.225322	2.170286	17.947277	-0.016797	0.337648
72.157398	2.008723	17.952282	-0.016780	0.337067
71.835951	1.893347	17.957287	-0.016701	0.336473
71.284294	1.839508	17.962291	-0.016566	0.335934
70.928556	1.744681	17.967296	-0.016479	0.335384
70.720829	1.654185	17.972301	-0.016428	0.334945
70.537845	1.528886	17.977306	-0.016383	0.334405
70.019168	1.501732	17.982311	-0.016256	0.333973
69.851605	1.413329	17.987315	-0.016215	0.333566
69.470301	1.360178	17.992320	-0.016122	0.333136
69.377481	1.251637	17.997325	-0.016099	0.332709
69.190646	1.159904	18.002330	-0.016053	0.332276
69.025595	1.069359	18.007335	-0.016013	0.331861
68.791582	0.986234	18.012339	-0.015955	0.331425
68.667315	0.880096	18.017344	-0.015925	0.330983
68.282535	0.837821	18.022349	-0.015830	0.330585
67.923950	0.793518	18.027354	-0.015743	0.330196
67.633297	0.735777	18.032359	-0.015671	0.329806
67.607233	0.635337	18.037363	-0.015665	0.329447
67.428947	0.559363	18.042368	-0.015621	0.329069
67.275076	0.501708	18.047373	-0.015583	0.328769
67.094713	0.431038	18.052378	-0.015539	0.328408
67.009224	0.321274	18.057383	-0.015518	0.327975
66.894302	0.237366	18.062387	-0.015490	0.327611
66.646368	0.169823	18.067392	-0.015429	0.327213
66.569729	0.066961	18.072397	-0.015410	0.326809
66.283867	0.002342	18.077402	-0.015340	0.326395
66.149311	-0.086171	18.082407	-0.015307	0.326000
66.034364	-0.170006	18.087411	-0.015279	0.325634
65.819437	-0.254595	18.092416	-0.015226	0.325197
65.821953	-0.370560	18.097421	-0.015226	0.324799
65.690130	-0.459664	18.102426	-0.015194	0.324402
65.569095	-0.565024	18.107431	-0.015164	0.323955
65.513822	-0.665636	18.112435	-0.015150	0.323569
65.251914	-0.743872	18.117440	-0.015086	0.323120
65.149519	-0.860505	18.122445	-0.015061	0.322645
64.752107	-0.894623	18.127450	-0.014964	0.322255
64.256923	-0.920972	18.132455	-0.014843	0.321825
63.759755	-0.924449	18.137459	-0.014721	0.321473
63.425737	-0.952983	18.142464	-0.014639	0.321145
63.133902	-0.983786	18.147469	-0.014568	0.320837
62.889208	-1.018717	18.152474	-0.014508	0.320547
62.632734	-1.058814	18.157479	-0.014445	0.320231
62.687331	-1.140795	18.162483	-0.014458	0.319981
62.447319	-1.186475	18.167488	-0.014399	0.319656
62.334318	-1.246228	18.172493	-0.014371	0.319368
62.330099	-1.330435	18.177498	-0.014370	0.319069
62.275573	-1.399223	18.182503	-0.014357	0.318789
62.324557	-1.509584	18.187507	-0.014368	0.318435
62.249682	-1.614639	18.192512	-0.014350	0.318013
62.186360	-1.707386	18.197517	-0.014334	0.317642
62.156091	-1.810276	18.202522	-0.014327	0.317257
61.863554	-1.884731	18.207527	-0.014255	0.316791
61.720958	-1.966553	18.212531	-0.014220	0.316402
61.330837	-2.001962	18.217536	-0.014124	0.316005
61.061218	-2.054824	18.222541	-0.014058	0.315629
60.232884	-1.994047	18.227546	-0.013856	0.315268
59.707980	-1.968529	18.232551	-0.013728	0.314992
59.422727	-1.963995	18.237555	-0.013658	0.314809
59.010538	-1.933638	18.242560	-0.013557	0.314628
58.990663	-2.007947	18.247565	-0.013552	0.314349
58.931691	-2.040432	18.252570	-0.013537	0.314192
58.920401	-2.096804	18.257575	-0.013534	0.313983
58.757662	-2.118111	18.262579	-0.013494	0.313792
58.398206	-2.131538	18.267584	-0.013406	0.313492
58.459683	-2.200274	18.272589	-0.013421	0.313289
58.222941	-2.218497	18.277594	-0.013363	0.313057
58.017678	-2.248295	18.282599	-0.013313	0.312806
57.865765	-2.296158	18.287603	-0.013276	0.312527
57.652416	-2.321589	18.292608	-0.013223	0.312285
57.272272	-2.304150	18.297613	-0.013130	0.312080
56.995343	-2.307073	18.302618	-0.013063	0.311874
56.837696	-2.346897	18.307623	-0.013024	0.311619
57.038038	-2.430555	18.312627	-0.013073	0.311459
56.743846	-2.435790	18.317632	-0.013001	0.311232
56.798155	-2.532956	18.322637	-0.013014	0.310920
56.716498	-2.593112	18.327642	-0.012994	0.310645
56.246018	-2.578938	18.332647	-0.012878	0.310363
55.855924	-2.547748	18.337651	-0.012783	0.310198
55.519317	-2.539813	18.342656	-0.012701	0.309988
54.994848	-2.503455	18.347661	-0.012572	0.309747
53.774639	-2.284240	18.352666	-0.012274	0.309674
53.754657	-2.282192	18.357671	-0.012269	0.309666
53.225534	-2.175278	18.362675	-0.012140	0.309677
52.637811	-2.063121	18.367680	-0.011996	0.309665
52.598109	-2.009084	18.372685	-0.011986	0.309832
52.843385	-2.011823	18.377690	-0.012046	0.309996
52.609053	-1.967865	18.382695	-0.011989	0.309988
52.449814	-1.933468	18.387699	-0.011950	0.309999
52.587595	-1.963999	18.392704	-0.011983	0.309986
52.777749	-2.042271	18.397709	-0.012030	0.309838
52.542882	-2.041986	18.402714	-0.011972	0.309672
53.077905	-2.148881	18.407719	-0.012103	0.309664
53.433965	-2.279426	18.412723	-0.012189	0.309444
53.251078	-2.303129	18.417728	-0.012145	0.309228
52.944861	-2.295395	18.422733	-0.012070	0.309038
52.935058	-2.348831	18.427738	-0.012067	0.308837
52.688348	-2.374921	18.432743	-0.012007	0.308566
52.409930	-2.364993	18.437747	-0.011938	0.308403
51.885272	-2.326049	18.442752	-0.011810	0.308170
51.950199	-2.400581	18.447757	-0.011826	0.307945
51.325408	-2.300583	18.452762	-0.011673	0.307862
50.993077	-2.307801	18.457767	-0.011592	0.307598
50.697852	-2.258042	18.462771	-0.011520	0.307568
50.238465	-2.170665	18.467776	-0.011407	0.307557
50.090024	-2.195655	18.472781	-0.011371	0.307360
49.613630	-2.136142	18.477786	-0.011254	0.307235
49.855342	-2.187106	18.482791	-0.011313	0.307222
49.850179	-2.181622	18.487795	-0.011312	0.307238
49.305785	-2.104475	18.492800	-0.011179	0.307129
48.967362	-2.096001	18.497805	-0.011096	0.306917
48.896843	-2.080401	18.502810	-0.011079	0.306923
48.557562	-2.016908	18.507815	-0.010996	0.306912
48.450418	-1.991675	18.512819	-0.010969	0.306927
48.296305	-1.964038	18.517824	-0.010931	0.306917
48.578986	-2.019468	18.522829	-0.011000	0.306916
48.172464	-2.023742	18.527834	-0.010901	0.306609
48.125079	-2.016607	18.532839	-0.010889	0.306601
48.245169	-2.037017	18.537843	-0.010918	0.306612
48.207494	-2.103502	18.542848	-0.010909	0.306341
48.448394	-2.165894	18.547853	-0.010968	0.306285
48.336816	-2.230329	18.552858	-0.010940	0.305969
48.307664	-2.277893	18.557863	-0.010933	0.305773
48.046158	-2.270493	18.562867	-0.010869	0.305612
47.805861	-2.300405	18.567872	-0.010810	0.305329
47.988359	-2.396225	18.572877	-0.010854	0.305108
47.228770	-2.294004	18.577882	-0.010669	0.304935
46.275328	-2.168662	18.582887	-0.010436	0.304708
46.263504	-2.163037	18.587891	-0.010433	0.304720
45.861763	-2.098608	18.592896	-0.010334	0.304666
45.289976	-2.057491	18.597901	-0.010195	0.304404
45.093132	-2.017226	18.602906	-0.010146	0.304410
45.216735	-2.044941	18.607911	-0.010176	0.304397
45.143929	-2.026648	18.612915	-0.010159	0.304411
45.137382	-2.028198	18.617920	-0.010157	0.304400
45.142799	-2.059108	18.622925	-0.010158	0.304290
44.772030	-2.038780	18.627930	-0.010067	0.304096
44.960570	-2.077938	18.632935	-0.010113	0.304088
44.924068	-2.107157	18.637939	-0.010104	0.303953
44.211591	-1.996113	18.642944	-0.009930	0.303847
44.534687	-2.072811	18.647949	-0.010009	0.303797
44.021598	-2.047310	18.652954	-0.009883	0.303519
43.959718	-2.038246	18.657959	-0.009868	0.303507
43.956552	-2.068238	18.662963	-0.009867	0.303394
43.522117	-2.036978	18.667968	-0.009761	0.303194
43.873285	-2.128439	18.672973	-0.009846	0.303110
43.190095	-2.055986	18.677978	-0.009679	0.302882
43.306137	-2.082533	18.682983	-0.009708	0.302867
43.432020	-2.173006	18.687987	-0.009738	0.302623
43.063928	-2.120349	18.692992	-0.009648	0.302550
42.729339	-2.136379	18.697997	-0.009566	0.302247
42.504967	-2.090456	18.703002	-0.009511	0.302254
42.269403	-2.120771	18.708007	-0.009454	0.301969
42.167793	-2.107756	18.713011	-0.009429	0.301943
41.953870	-2.108292	18.718016	-0.009376	0.301785
41.460458	-2.053733	18.723021	-0.009255	0.301627
41.415193	-2.043358	18.728026	-0.009244	0.301633
41.398481	-2.096074	18.733031	-0.009240	0.301424
41.017691	-2.047708	18.738035	-0.009147	0.301325
40.808710	-2.008648	18.743040	-0.009096	0.301318
40.802536	-2.065170	18.748045	-0.009094	0.301102
40.369684	-2.009946	18.753050	-0.008988	0.300991
40.494893	-2.037572	18.758055	-0.009019	0.300980
40.207767	-2.033785	18.763059	-0.008948	0.300783
39.567330	-1.937891	18.768064	-0.008792	0.300672
39.789062	-1.981140	18.773069	-0.008846	0.300672
39.894745	-2.023364	18.778074	-0.008871	0.300592
39.387274	-1.988671	18.783079	-0.008747	0.300349
39.539676	-2.014236	18.788083	-0.008784	0.300365
39.321680	-2.031193	18.793088	-0.008731	0.300141
38.868726	-1.963585	18.798093	-0.008620	0.300062
38.715894	-1.931931	18.803098	-0.008583	0.300067
38.727713	-2.002668	18.808103	-0.008585	0.299811
38.411051	-1.958483	18.813107	-0.008508	0.299744
38.466039	-1.978099	18.818112	-0.008521	0.299710
38.416493	-2.044115	18.823117	-0.008509	0.299426
38.207742	-2.001968	18.828122	-0.008458	0.299430
37.979458	-2.037432	18.833127	-0.008402	0.299129
37.998355	-2.043502	18.838131	-0.008406	0.299120
37.645218	-2.033629	18.843136	-0.008320	0.298896
37.588226	-2.029302	18.848141	-0.008306	0.298870
37.527852	-2.082396	18.853146	-0.008291	0.298626
37.460542	-2.097750	18.858151	-0.008274	0.298518
37.263048	-2.136218	18.863155	-0.008226	0.298228
36.859184	-2.075257	18.868160	-0.008127	0.298159
36.660856	-2.104756	18.873165	-0.008079	0.297901
36.508831	-2.084721	18.878170	-0.008041	0.297863
36.036578	-2.062792	18.883175	-0.007926	0.297596
36.196582	-2.089436	18.888179	-0.007965	0.297614
35.702913	-2.073006	18.893184	-0.007844	0.297310
35.345870	-2.011362	18.898189	-0.007757	0.297278
35.023431	-1.946682	18.903194	-0.007678	0.297283
35.021616	-1.996683	18.908199	-0.007677	0.297092
34.270557	-1.881207	18.913203	-0.007494	0.296971
33.945188	-1.819187	18.918208	-0.007414	0.296964
34.038236	-1.836441	18.923213	-0.007437	0.296967
33.709311	-1.770327	18.928218	-0.007356	0.296973
33.498797	-1.732087	18.933223	-0.007305	0.296961
33.913287	-1.810588	18.938227	-0.007406	0.296971
34.266996	-1.893677	18.943232	-0.007492	0.296919
34.409950	-1.991998	18.948237	-0.007527	0.296653
34.488676	-2.052873	18.953242	-0.007546	0.296481
34.309763	-2.077723	18.958247	-0.007502	0.296254
34.197985	-2.119609	18.963251	-0.007474	0.296012
34.061686	-2.177101	18.968256	-0.007441	0.295692
33.947417	-2.213646	18.973261	-0.007413	0.295468
33.698782	-2.220476	18.978266	-0.007352	0.295256
33.380189	-2.226227	18.983271	-0.007274	0.294996
33.011884	-2.214778	18.988275	-0.007184	0.294764
32.530907	-2.171356	18.993280	-0.007066	0.294570
31.771483	-2.054420	18.998285	-0.006881	0.294447
31.257138	-1.951328	19.003290	-0.006755	0.294455
30.948279	-1.894058	19.008295	-0.006679	0.294441
30.611678	-1.825178	19.013299	-0.006597	0.294452
30.300980	-1.765364	19.018304	-0.006521	0.294447
30.301540	-1.765331	19.023309	-0.006521	0.294447
30.279892	-1.759351	19.028314	-0.006515	0.294453
30.250445	-1.755938	19.033319	-0.006508	0.294444
30.517722	-1.846301	19.038323	-0.006573	0.294299
30.358670	-1.856744	19.043328	-0.006534	0.294140
30.871927	-1.971782	19.048333	-0.006659	0.294085
30.754607	-1.993819	19.053338	-0.006631	0.293912
30.781502	-2.061296	19.058343	-0.006637	0.293675
30.578320	-2.068266	19.063347	-0.006587	0.293495
30.164556	-2.051553	19.068352	-0.006486	0.293248
30.101050	-2.103205	19.073357	-0.006470	0.293002
29.525267	-2.009491	19.078362	-0.006330	0.292928
29.178284	-2.019100	19.083367	-0.006245	0.292630
29.112403	-2.003758	19.088371	-0.006228	0.292639
28.649563	-1.985874	19.093376	-0.006115	0.292358
28.423141	-1.955855	19.098381	-0.006060	0.292302
28.526642	-1.981556	19.103386	-0.006085	0.292281
28.357924	-2.025226	19.108391	-0.006043	0.291986
28.314067	-2.014142	19.113395	-0.006033	0.291995
27.547963	-1.945895	19.118400	-0.005845	0.291679
27.395669	-1.915741	19.123405	-0.005808	0.291680
27.449320	-1.924575	19.128410	-0.005821	0.291686
27.329637	-1.964951	19.133415	-0.005792	0.291440
26.963847	-1.909485	19.138419	-0.005702	0.291376
26.988011	-1.915993	19.143424	-0.005708	0.291369
27.128028	-2.019852	19.148429	-0.005742	0.291074
26.894120	-1.981634	19.153434	-0.005685	0.291044
26.531441	-1.989243	19.158439	-0.005596	0.290740
26.357485	-1.958488	19.163443	-0.005553	0.290726
26.102381	-1.950389	19.168448	-0.005491	0.290564
25.659929	-1.904083	19.173453	-0.005383	0.290407
25.560340	-1.882331	19.178458	-0.005358	0.290415
25.654437	-1.933386	19.183463	-0.005381	0.290289
25.429578	-1.932201	19.188467	-0.005326	0.290122
25.561397	-1.972355	19.193472	-0.005358	0.290067
25.273561	-1.987875	19.198477	-0.005287	0.289788
25.247230	-1.991894	19.203482	-0.005281	0.289752
24.738054	-1.962888	19.208487	-0.005156	0.289476
24.876692	-1.992113	19.213491	-0.005190	0.289468
24.261508	-1.946848	19.218496	-0.005040	0.289175
24.302897	-1.955327	19.223501	-0.005050	0.289173
24.157864	-1.957392	19.228506	-0.005014	0.289054
23.736756	-1.903991	19.233511	-0.004911	0.288940
23.782101	-1.921729	19.238515	-0.004922	0.288905
23.151021	-1.871907	19.243520	-0.004768	0.288617
23.185682	-1.878837	19.248525	-0.004776	0.288616
23.112130	-1.863620	19.253530	-0.004758	0.288619
22.631870	-1.853156	19.258535	-0.004640	0.288292
22.765225	-1.876571	19.263539	-0.004673	0.288303
22.676356	-1.864576	19.268544	-0.004651	0.288281
22.657716	-1.939716	19.273549	-0.004646	0.287974
22.789315	-1.975188	19.278554	-0.004678	0.287936
22.453972	-1.976375	19.283559	-0.004596	0.287674
22.682527	-2.061642	19.288563	-0.004652	0.287516
22.208636	-2.010675	19.293568	-0.004536	0.287351
22.187845	-2.084518	19.298573	-0.004531	0.287047
21.953844	-2.069487	19.303578	-0.004473	0.286925
21.276153	-1.988512	19.308583	-0.004308	0.286721
21.318237	-2.030317	19.313587	-0.004318	0.286589
20.485271	-1.910775	19.318592	-0.004114	0.286417
20.389309	-1.892831	19.323597	-0.004091	0.286413
20.115478	-1.835893	19.328602	-0.004024	0.286425
19.602949	-1.797718	19.333607	-0.003898	0.286179
19.288089	-1.758810	19.338611	-0.003821	0.286089
19.174652	-1.737173	19.343616	-0.003793	0.286086
19.328859	-1.767648	19.348621	-0.003831	0.286085
19.471487	-1.792872	19.353626	-0.003866	0.286095
20.043067	-1.932638	19.358631	-0.004005	0.285987
19.959773	-1.970635	19.363635	-0.003985	0.285773
19.724679	-1.987528	19.368640	-0.003927	0.285525
19.611515	-2.002169	19.373645	-0.003899	0.285380
19.346194	-2.004436	19.378650	-0.003834	0.285166
19.045737	-2.008614	19.383655	-0.003761	0.284917
18.670285	-1.953372	19.388659	-0.003669	0.284843
18.388991	-1.969163	19.393664	-0.003600	0.284563
18.464825	-1.994768	19.398669	-0.003618	0.284520
17.987389	-1.968374	19.403674	-0.003501	0.284254
17.799874	-1.942931	19.408679	-0.003456	0.284209
18.193689	-2.059716	19.413683	-0.003552	0.284053
17.776193	-2.003047	19.418688	-0.003449	0.283952
17.543373	-2.037837	19.423693	-0.003392	0.283633
17.262780	-1.992544	19.428698	-0.003324	0.283594
16.871027	-1.985733	19.433703	-0.003228	0.283316
16.808576	-1.970804	19.438707	-0.003213	0.283326
16.084346	-1.900598	19.443712	-0.003035	0.283041
15.641110	-1.823399	19.448717	-0.002927	0.283001
15.321252	-1.757874	19.453722	-0.002849	0.283011
15.039248	-1.705297	19.458727	-0.002780	0.283000
14.848270	-1.664336	19.463731	-0.002733	0.283013
14.746564	-1.645948	19.468736	-0.002708	0.283006
15.098254	-1.716216	19.473741	-0.002794	0.283001
15.562484	-1.810620	19.478746	-0.002907	0.282988
15.482066	-1.866978	19.483751	-0.002887	0.282701
15.947119	-1.993800	19.488755	-0.003001	0.282560
15.612796	-1.993152	19.493760	-0.002919	0.282301
15.490890	-2.030198	19.498765	-0.002889	0.282058
15.579255	-2.122325	19.503770	-0.002910	0.281760
15.192711	-2.119085	19.508775	-0.002816	0.281470
14.674289	-2.072964	19.513779	-0.002689	0.281248
14.088305	-1.991105	19.518784	-0.002546	0.281115
14.094949	-2.059626	19.523789	-0.002547	0.280846
13.555978	-1.964565	19.528794	-0.002415	0.280802
13.053646	-1.924731	19.533799	-0.002292	0.280567
12.930598	-1.920023	19.538803	-0.002262	0.280488
12.856422	-1.906669	19.543808	-0.002244	0.280483
12.797854	-1.929658	19.548813	-0.002230	0.280345
12.100892	-1.830197	19.553818	-0.002059	0.280194
12.255378	-1.863133	19.558823	-0.002097	0.280183
12.265531	-1.868880	19.563827	-0.002099	0.280168
11.605254	-1.814331	19.568832	-0.001938	0.279866
11.485698	-1.792070	19.573837	-0.001908	0.279861
11.329274	-1.758621	19.578842	-0.001870	0.279871
11.254015	-1.747158	19.583847	-0.001851	0.279858
11.367232	-1.814938	19.588851	-0.001879	0.279675
10.958671	-1.764403	19.593856	-0.001779	0.279555
11.197996	-1.812890	19.598861	-0.001837	0.279549
11.117151	-1.862354	19.603866	-0.001817	0.279286
11.216598	-1.895908	19.608871	-0.001842	0.279229
11.216233	-1.948530	19.613875	-0.001841	0.279017
11.224848	-1.998896	19.618880	-0.001843	0.278820
10.871081	-1.981722	19.623885	-0.001757	0.278609
10.520680	-1.974454	19.628890	-0.001671	0.278361
10.405137	-2.007106	19.633895	-0.001643	0.278137
10.089819	-1.968534	19.638899	-0.001565	0.278042
9.872392	-1.999758	19.643904	-0.001512	0.277743
9.837163	-2.019121	19.648909	-0.001503	0.277637
9.123943	-1.932142	19.653914	-0.001329	0.277422
9.278602	-1.986763	19.658919	-0.001367	0.277323
8.988410	-1.985023	19.663923	-0.001296	0.277099
8.619443	-1.912177	19.668928	-0.001205	0.277100
8.283111	-1.923470	19.673933	-0.001123	0.276786
8.026919	-1.871385	19.678938	-0.001060	0.276793
7.850641	-1.839225	19.683943	-0.001017	0.276782
7.693222	-1.866587	19.688947	-0.000978	0.276545
7.318801	-1.809500	19.693952	-0.000887	0.276478
7.237803	-1.794900	19.698957	-0.000867	0.276472
7.149768	-1.775187	19.703962	-0.000845	0.276482
6.790167	-1.785774	19.708967	-0.000757	0.276151
6.794832	-1.786522	19.713971	-0.000758	0.276152
6.577541	-1.745174	19.718976	-0.000705	0.276146
6.569317	-1.774486	19.723981	-0.000703	0.276019
6.310855	-1.768608	19.728986	-0.000640	0.275836
6.494382	-1.807710	19.733991	-0.000684	0.275824
6.494064	-1.858401	19.738995	-0.000684	0.275617
6.484800	-1.881049	19.744000	-0.000682	0.275516
6.787362	-2.013077	19.749005	-0.000755	0.275220
6.498922	-2.012530	19.754010	-0.000685	0.274991
5.948245	-1.947086	19.759015	-0.000550	0.274816
6.008452	-2.014184	19.764019	-0.000565	0.274590
6.081039	-2.092326	19.769024	-0.000582	0.274328
5.797703	-2.081033	19.774029	-0.000513	0.274146
5.137223	-1.974182	19.779034	-0.000351	0.274052
4.807644	-1.992245	19.784039	-0.000271	0.273712
4.601726	-1.951702	19.789043	-0.000220	0.273712
3.534552	-1.818079	19.794048	0.000040	0.273399
3.288286	-1.770773	19.799053	0.000101	0.273395
3.318769	-1.773869	19.804058	0.000093	0.273406
3.335922	-1.781125	19.809063	0.000089	0.273390
3.442506	-1.799971	19.814067	0.000064	0.273398
3.149841	-1.797685	19.819072	0.000135	0.273170
2.975916	-1.786922	19.824077	0.000178	0.273074
3.104423	-1.809632	19.829082	0.000147	0.273084
2.935436	-1.844477	19.834087	0.000188	0.272804
2.959867	-1.853628	19.839091	0.000182	0.272785
2.748375	-1.879862	19.844096	0.000234	0.272506
2.864624	-1.922902	19.849101	0.000206	0.272422
2.483217	-1.913792	19.854106	0.000299	0.272150
2.375748	-1.919940	19.859111	0.000325	0.272037
2.045724	-1.904080	19.864115	0.000406	0.271835
1.852412	-1.895135	19.869120	0.000454	0.271714
