Sun Feb 26 13:24:49 2017

Number of Points = 3604
Depth (nm)	Load (µN)	Time (s)	Depth (V)	Load (V)
1.576494	0.096612	0.000000	0.000045	0.277968

1.651396	0.092961	0.005005	0.000027	0.278012
1.606341	0.103826	0.010010	0.000038	0.278019
1.612325	0.028769	0.015014	0.000037	0.277720
1.736672	0.004251	0.020019	0.000007	0.277719
1.720756	0.005079	0.025024	0.000011	0.277709
1.659179	0.017383	0.030029	0.000026	0.277709
1.780194	-0.010641	0.035034	-0.000003	0.277691
1.817690	-0.096730	0.040038	-0.000012	0.277371
1.894487	-0.108455	0.045043	-0.000030	0.277384
1.939542	-0.173555	0.050048	-0.000041	0.277156
1.827277	-0.173184	0.055053	-0.000013	0.277067
1.927241	-0.256095	0.060058	-0.000037	0.276810
1.838973	-0.269805	0.065062	-0.000016	0.276683
1.788044	-0.313000	0.070067	-0.000003	0.276466
1.764357	-0.364938	0.075072	0.000003	0.276235
1.699840	-0.394887	0.080077	0.000019	0.276061
1.610009	-0.437574	0.085082	0.000041	0.275815
1.555362	-0.488249	0.090086	0.000055	0.275564
1.820078	-0.589344	0.095091	-0.000009	0.275363
1.645451	-0.619050	0.100096	0.000034	0.275101
1.652037	-0.687452	0.105101	0.000032	0.274826
1.704000	-0.764616	0.110106	0.000020	0.274552
1.773680	-0.859020	0.115110	0.000003	0.274221
1.865320	-0.936649	0.120115	-0.000019	0.273976
1.774229	-1.008787	0.125120	0.000004	0.273606
1.616130	-1.061967	0.130125	0.000043	0.273259
1.688657	-1.159035	0.135130	0.000025	0.272918
1.473535	-1.204607	0.140134	0.000078	0.272555
1.254429	-1.243188	0.145139	0.000132	0.272218
1.207054	-1.315257	0.150144	0.000144	0.271882
1.034492	-1.360688	0.155149	0.000186	0.271553
0.881588	-1.411180	0.160154	0.000224	0.271219
0.816018	-1.479109	0.165158	0.000240	0.270883
0.732919	-1.539374	0.170163	0.000261	0.270565
0.762318	-1.623967	0.175168	0.000254	0.270237
0.610781	-1.684511	0.180173	0.000292	0.269861
0.712461	-1.785430	0.185178	0.000267	0.269523
0.752990	-1.874869	0.190182	0.000257	0.269183
0.845549	-1.971830	0.195187	0.000235	0.268853
0.859601	-2.079981	0.200192	0.000232	0.268412
0.772142	-2.169726	0.205197	0.000254	0.267963
0.960469	-2.301425	0.210202	0.000208	0.267565
0.969035	-2.430998	0.215206	0.000206	0.267027
0.903221	-2.520642	0.220211	0.000223	0.266595
0.788964	-2.625909	0.225216	0.000251	0.266056
-1.553253	-2.266086	0.230221	0.000823	0.265631
-5.215025	-1.506392	0.235226	0.001718	0.265799
-5.025263	-1.509081	0.240230	0.001672	0.265944
-3.822299	-1.685863	0.245235	0.001378	0.266195
-5.002722	-1.407475	0.250240	0.001667	0.266390
-4.133735	-1.546616	0.255245	0.001455	0.266522
-3.610915	-1.645971	0.260250	0.001327	0.266536
-3.876996	-1.597375	0.265254	0.001392	0.266519
-3.500080	-1.668466	0.270259	0.001301	0.266531
-2.897923	-1.787391	0.275264	0.001154	0.266527
-2.457361	-1.894561	0.280269	0.001047	0.266440
-2.765465	-1.891753	0.285274	0.001122	0.266195
-2.415789	-2.008392	0.290278	0.001037	0.265992
-2.698819	-1.985266	0.295283	0.001106	0.265854
-3.060803	-1.984463	0.300288	0.001195	0.265556
-2.815945	-2.063459	0.305293	0.001136	0.265425
-3.107025	-2.043250	0.310298	0.001207	0.265267
-2.983731	-2.141038	0.315302	0.001177	0.264955
-3.402775	-2.090094	0.320307	0.001280	0.264821
-4.215598	-1.976089	0.325312	0.001479	0.264626
-3.696880	-2.085338	0.330317	0.001352	0.264594
-4.394683	-2.013475	0.335322	0.001523	0.264316
-4.755322	-1.945116	0.340326	0.001611	0.264305
-4.774552	-1.939057	0.345331	0.001616	0.264313
-5.375955	-1.821690	0.350336	0.001763	0.264309
-5.966145	-1.705686	0.355341	0.001908	0.264308
-6.504749	-1.597119	0.360346	0.002040	0.264319
-6.532212	-1.524090	0.365350	0.002046	0.264605
-6.466248	-1.531042	0.370355	0.002031	0.264630
-6.480643	-1.528533	0.375360	0.002034	0.264627
-6.006682	-1.550164	0.380365	0.001919	0.264930
-6.017831	-1.546711	0.385370	0.001922	0.264934
-5.931573	-1.586768	0.390374	0.001901	0.264835
-5.896215	-1.642073	0.395379	0.001893	0.264629
-5.510637	-1.718971	0.400384	0.001799	0.264624
-4.815650	-1.871354	0.405389	0.001629	0.264556
-4.751047	-1.939763	0.410394	0.001614	0.264318
-4.265479	-2.090391	0.415398	0.001496	0.264083
-4.420308	-2.136039	0.420403	0.001534	0.263758
-5.024742	-2.092301	0.425408	0.001682	0.263438
-5.066646	-2.140255	0.430413	0.001692	0.263197
-5.601942	-2.069877	0.435418	0.001823	0.263048
-6.077604	-2.037252	0.440422	0.001940	0.262787
-6.155488	-2.033035	0.445427	0.001959	0.262739
-7.231734	-1.885467	0.450432	0.002222	0.262464
-7.405419	-1.852281	0.455437	0.002265	0.262459
-7.943808	-1.726577	0.460442	0.002397	0.262544
-7.760902	-1.704904	0.465446	0.002352	0.262789
-7.904190	-1.673812	0.470451	0.002387	0.262801
-8.290210	-1.599307	0.475456	0.002482	0.262794
-8.060665	-1.645451	0.480461	0.002426	0.262789
-7.806879	-1.692162	0.485466	0.002364	0.262801
-7.785836	-1.699346	0.490470	0.002359	0.262787
-7.482652	-1.784834	0.495475	0.002286	0.262676
-7.947245	-1.743165	0.500480	0.002399	0.262462
-7.638467	-1.805350	0.505485	0.002324	0.262455
-7.791750	-1.772589	0.510490	0.002362	0.262466
-8.243786	-1.752809	0.515494	0.002473	0.262169
-8.488697	-1.707841	0.520499	0.002533	0.262155
-8.999343	-1.607657	0.525504	0.002658	0.262153
-8.755340	-1.656722	0.530509	0.002598	0.262147
-8.554166	-1.693538	0.535514	0.002550	0.262158
-8.494592	-1.708470	0.540518	0.002535	0.262143
-7.967449	-1.842525	0.545523	0.002407	0.262012
-8.314087	-1.814473	0.550528	0.002492	0.261839
-7.804101	-1.958238	0.555533	0.002368	0.261652
-7.929345	-1.964086	0.560538	0.002398	0.261520
-8.194655	-1.986706	0.565542	0.002464	0.261198
-8.015996	-2.061628	0.570547	0.002420	0.261026
-8.546759	-1.989864	0.575552	0.002550	0.260885
-8.477677	-2.076983	0.580557	0.002534	0.260567
-8.699358	-2.057040	0.585562	0.002588	0.260464
-9.849221	-1.876842	0.590566	0.002869	0.260266
-9.761856	-1.891644	0.595571	0.002848	0.260275
-10.074733	-1.829929	0.600576	0.002925	0.260275
-10.729050	-1.702867	0.605581	0.003085	0.260268
-11.221221	-1.604016	0.610586	0.003205	0.260276
-11.453861	-1.560844	0.615590	0.003262	0.260264
-11.302530	-1.522189	0.620595	0.003225	0.260558
-11.483839	-1.483926	0.625600	0.003270	0.260568
-11.248733	-1.531663	0.630605	0.003213	0.260561
-11.372572	-1.503700	0.635610	0.003243	0.260575
-11.508386	-1.480954	0.640614	0.003277	0.260558
-10.885567	-1.599640	0.645619	0.003125	0.260573
-10.577170	-1.660003	0.650624	0.003050	0.260573
-10.165171	-1.749744	0.655629	0.002950	0.260534
-10.095414	-1.821883	0.660634	0.002933	0.260281
-9.507310	-1.985789	0.665638	0.002790	0.260072
-9.464310	-2.057582	0.670643	0.002779	0.259797
-9.970745	-2.030406	0.675648	0.002903	0.259484
-9.926280	-2.092611	0.680653	0.002893	0.259251
-10.058113	-2.108717	0.685658	0.002925	0.259068
-10.924912	-2.011389	0.690662	0.003137	0.258750
-11.508464	-1.896245	0.695667	0.003280	0.258751
-12.411566	-1.790852	0.700672	0.003501	0.258437
-12.417983	-1.778019	0.705677	0.003503	0.258487
-12.940902	-1.621791	0.710682	0.003631	0.258718
-13.180111	-1.566393	0.715686	0.003689	0.258753
-12.986560	-1.603623	0.720691	0.003642	0.258756
-13.542434	-1.494343	0.725696	0.003778	0.258755
-13.654562	-1.465219	0.730701	0.003806	0.258785
-12.972333	-1.526477	0.735706	0.003640	0.259100
-12.878469	-1.603845	0.740710	0.003617	0.258843
-12.880729	-1.622724	0.745715	0.003618	0.258759
-12.761860	-1.645679	0.750720	0.003589	0.258759
-12.161173	-1.768985	0.755725	0.003443	0.258736
-12.325778	-1.802868	0.760730	0.003483	0.258447
-12.361332	-1.812519	0.765734	0.003492	0.258374
-12.120831	-1.917188	0.770739	0.003434	0.258124
-11.978935	-1.995765	0.775744	0.003399	0.257902
-12.487984	-1.946045	0.780749	0.003524	0.257682
-13.103519	-1.867013	0.785754	0.003674	0.257498
-13.166723	-1.880572	0.790758	0.003690	0.257384
-13.810297	-1.799709	0.795763	0.003848	0.257184
-14.381002	-1.687783	0.800768	0.003987	0.257182
-14.421164	-1.681427	0.805773	0.003997	0.257174
-14.475779	-1.668039	0.810778	0.004011	0.257185
-14.711435	-1.624509	0.815782	0.004069	0.257171
-14.500581	-1.664713	0.820787	0.004018	0.257176
-14.033845	-1.755919	0.825792	0.003904	0.257177
-13.514711	-1.911365	0.830797	0.003777	0.256943
-14.123293	-1.808670	0.835802	0.003926	0.256868
-14.578017	-1.767337	0.840806	0.004038	0.256657
-14.754819	-1.753597	0.845811	0.004081	0.256564
-15.090730	-1.687062	0.850816	0.004163	0.256565
-15.379312	-1.632215	0.855821	0.004234	0.256556
-15.771711	-1.551521	0.860826	0.004330	0.256571
-15.554604	-1.596408	0.865830	0.004277	0.256560
-15.448774	-1.615884	0.870835	0.004252	0.256565
-16.080690	-1.491294	0.875840	0.004406	0.256566
-16.021425	-1.504630	0.880845	0.004392	0.256558
-15.494977	-1.604746	0.885850	0.004264	0.256571
-15.087548	-1.717727	0.890854	0.004165	0.256426
-14.908720	-1.796802	0.895859	0.004121	0.256233
-14.551189	-1.914671	0.900864	0.004034	0.256024
-14.670919	-1.944107	0.905869	0.004064	0.255790
-14.977879	-1.928188	0.910874	0.004139	0.255594
-15.249841	-1.943347	0.915878	0.004206	0.255291
-15.557910	-1.898507	0.920883	0.004281	0.255221
-16.393558	-1.789920	0.925888	0.004486	0.254975
-16.366481	-1.797764	0.930893	0.004479	0.254963
-16.685283	-1.732437	0.935898	0.004557	0.254974
-17.192097	-1.634991	0.940902	0.004681	0.254963
-17.365350	-1.598857	0.945907	0.004724	0.254972
-17.946538	-1.484030	0.950912	0.004866	0.254973
-18.094618	-1.456717	0.955917	0.004903	0.254964
-17.930649	-1.486219	0.960922	0.004863	0.254975
-17.615347	-1.550804	0.965926	0.004786	0.254963
-17.323354	-1.606254	0.970931	0.004715	0.254971
-17.302921	-1.609535	0.975936	0.004710	0.254973
-16.785029	-1.726505	0.980941	0.004584	0.254905
-16.657571	-1.804848	0.985946	0.004553	0.254669
-16.481121	-1.884086	0.990950	0.004511	0.254472
-16.595836	-1.898405	0.995955	0.004539	0.254308
-16.739959	-1.937089	1.000960	0.004574	0.254011

-17.563698	-1.826177	1.010957	0.004776	0.253784
-17.661873	-1.871945	1.020954	0.004801	0.253494
-18.094055	-1.792475	1.030950	0.004907	0.253467
-18.898412	-1.601046	1.040947	0.005104	0.253613
-18.871524	-1.552857	1.050944	0.005098	0.253848
-19.121992	-1.433351	1.060941	0.005159	0.254157
-18.831391	-1.438795	1.070938	0.005089	0.254383
-18.394193	-1.460287	1.080934	0.004982	0.254666
-17.313559	-1.672904	1.090931	0.004719	0.254663
-16.871899	-1.806798	1.100928	0.004612	0.254453
-16.344581	-1.958604	1.110925	0.004484	0.254239
-16.149777	-2.076765	1.120922	0.004437	0.253884
-16.913459	-2.011719	1.130918	0.004624	0.253506
-17.659062	-1.873845	1.140915	0.004806	0.253465
-18.799087	-1.604326	1.150912	0.005085	0.253664
-18.928909	-1.484191	1.160909	0.005117	0.254081
-19.050973	-1.376051	1.170906	0.005148	0.254451
-18.355737	-1.425286	1.180902	0.004978	0.254835
-17.949838	-1.444636	1.190899	0.004880	0.255099
-16.846619	-1.656197	1.200896	0.004611	0.255120
-16.487869	-1.760868	1.210893	0.004524	0.254968
-15.894819	-1.929172	1.220890	0.004380	0.254738
-15.697382	-2.044504	1.230886	0.004332	0.254399
-16.140248	-2.019372	1.240883	0.004441	0.254124
-16.592403	-1.961507	1.250880	0.004552	0.253985
-17.508701	-1.768470	1.260877	0.004776	0.254040
-18.334807	-1.565150	1.270874	0.004978	0.254219
-18.891365	-1.351085	1.280870	0.005114	0.254679
-18.304339	-1.349760	1.290867	0.004972	0.255191
-17.750942	-1.377882	1.300864	0.004837	0.255544
-16.758701	-1.560931	1.310861	0.004595	0.255595
-15.613114	-1.785322	1.320858	0.004316	0.255597
-15.246547	-1.928934	1.330854	0.004227	0.255280
-15.697060	-1.910801	1.340851	0.004338	0.254968
-16.366758	-1.807984	1.350848	0.004502	0.254839
-16.576726	-1.737177	1.360845	0.004553	0.254968
-16.579217	-1.735566	1.370842	0.004555	0.254971
-16.301759	-1.789784	1.380838	0.004487	0.254970
-16.610468	-1.730369	1.390835	0.004563	0.254963
-16.920860	-1.630171	1.400832	0.004639	0.255133
-16.993005	-1.579298	1.410829	0.004658	0.255293
-17.070177	-1.496013	1.420826	0.004677	0.255591
-16.776571	-1.493230	1.430822	0.004606	0.255854
-16.357131	-1.562819	1.440819	0.004504	0.255909
-15.884451	-1.655275	1.450816	0.004389	0.255909
-15.239421	-1.780638	1.460813	0.004232	0.255914
-15.072399	-1.866935	1.470810	0.004192	0.255677
-15.020891	-1.906280	1.480806	0.004180	0.255547
-15.060816	-1.955167	1.490803	0.004190	0.255295
-15.452713	-1.905248	1.500800	0.004286	0.255174
-16.173555	-1.740655	1.510797	0.004463	0.255273
-16.875216	-1.573383	1.520794	0.004635	0.255400
-17.058849	-1.452101	1.530790	0.004680	0.255773
-16.759599	-1.419171	1.540787	0.004607	0.256173
-15.860451	-1.515565	1.550784	0.004388	0.256524
-15.303665	-1.614564	1.560781	0.004253	0.256567
-14.852284	-1.754066	1.570778	0.004143	0.256343
-14.694545	-1.810574	1.580774	0.004105	0.256230
-14.891711	-1.800033	1.590771	0.004154	0.256104
-15.427399	-1.685550	1.600768	0.004285	0.256143
-14.981182	-1.784669	1.610765	0.004177	0.256091
-14.774710	-1.863453	1.620762	0.004127	0.255921
-14.966833	-1.826529	1.630758	0.004174	0.255916
-15.041806	-1.811157	1.640755	0.004193	0.255917
-15.233807	-1.773001	1.650752	0.004241	0.255917
-15.392946	-1.715583	1.660749	0.004280	0.256029
-15.215606	-1.704002	1.670746	0.004237	0.256231
-15.680124	-1.587065	1.680742	0.004351	0.256341
-15.990373	-1.455253	1.690739	0.004427	0.256650
-15.759486	-1.425857	1.700736	0.004371	0.256975
-14.870430	-1.552701	1.710733	0.004155	0.257182
-14.106443	-1.702753	1.720730	0.003969	0.257181
-13.471958	-1.893847	1.730726	0.003814	0.256889
-12.866249	-2.093732	1.740723	0.003667	0.256534
-13.694690	-2.000323	1.750720	0.003870	0.256228
-14.329582	-1.936278	1.760717	0.004026	0.255960
-14.853246	-1.785625	1.770714	0.004154	0.256167
-15.886816	-1.534692	1.780710	0.004407	0.256374
-16.064692	-1.388390	1.790707	0.004451	0.256860
-15.676626	-1.356599	1.800704	0.004356	0.257330
-14.577634	-1.536001	1.810701	0.004089	0.257488
-13.855202	-1.657227	1.820698	0.003913	0.257577
-13.227910	-1.801116	1.830694	0.003760	0.257485
-13.254203	-1.861721	1.840691	0.003767	0.257196
-13.644285	-1.790160	1.850688	0.003863	0.257172
-13.723950	-1.801916	1.860685	0.003883	0.257050
-13.907468	-1.787729	1.870682	0.003928	0.256953
-13.404371	-1.895884	1.880678	0.003806	0.256911
-13.247793	-1.937980	1.890675	0.003768	0.256859
-13.932197	-1.803231	1.900672	0.003936	0.256858
-14.587113	-1.662350	1.910669	0.004096	0.256910
-14.969599	-1.508233	1.920666	0.004190	0.257252
-14.992891	-1.415169	1.930662	0.004196	0.257637
-14.826370	-1.359918	1.940659	0.004156	0.258018
-14.098176	-1.422828	1.950656	0.003979	0.258365
-12.987998	-1.623409	1.960653	0.003708	0.258440
-12.022976	-1.891078	1.970650	0.003473	0.258099
-11.851630	-2.005292	1.980646	0.003432	0.257747
-11.921477	-2.081836	1.990643	0.003449	0.257351
-12.401436	-2.057598	2.000640	0.003567	0.257043
-12.931371	-1.994265	2.010637	0.003697	0.256863
-14.188376	-1.722022	2.020634	0.004005	0.256971
-14.891029	-1.497800	2.030630	0.004177	0.257345
-15.196087	-1.295579	2.040627	0.004252	0.257963
-14.914149	-1.220560	2.050624	0.004183	0.258529
-13.680055	-1.364706	2.060621	0.003882	0.258954
-12.104430	-1.660497	2.070618	0.003498	0.259012
-11.028884	-1.965102	2.080614	0.003236	0.258606
-10.794990	-2.134051	2.090611	0.003180	0.258070
-11.720802	-2.050952	2.100608	0.003406	0.257637
-12.529706	-1.925394	2.110605	0.003604	0.257490
-13.260330	-1.777436	2.120602	0.003783	0.257507
-13.774476	-1.600063	2.130598	0.003909	0.257838
-13.750839	-1.532965	2.140595	0.003904	0.258148
-13.961526	-1.403732	2.150592	0.003956	0.258528
-13.410273	-1.427614	2.160589	0.003822	0.258893
-12.631152	-1.533824	2.170586	0.003632	0.259094
-11.794564	-1.698157	2.180582	0.003428	0.259093
-11.155594	-1.883893	2.190579	0.003273	0.258830
-10.692272	-2.052816	2.200576	0.003160	0.258491
-11.346738	-2.010149	2.210573	0.003321	0.258115
-12.073758	-1.865970	2.220570	0.003499	0.258119
-12.453998	-1.790878	2.230566	0.003592	0.258118
-12.876423	-1.686926	2.240563	0.003696	0.258207
-13.232644	-1.545969	2.250560	0.003783	0.258514
-13.097008	-1.487830	2.260557	0.003751	0.258880
-12.694933	-1.506809	2.270554	0.003653	0.259139
-12.524046	-1.498249	2.280550	0.003612	0.259319
-12.041423	-1.552822	2.290547	0.003494	0.259492
-11.137381	-1.761716	2.300544	0.003274	0.259355
-10.645495	-1.885228	2.310541	0.003154	0.259237
-10.525330	-1.956709	2.320538	0.003126	0.259028
-10.655813	-1.992787	2.330534	0.003158	0.258758
-11.429687	-1.912396	2.340531	0.003348	0.258445
-12.306247	-1.683369	2.350528	0.003562	0.258690
-12.306060	-1.618033	2.360525	0.003563	0.258971
-11.881913	-1.671342	2.370522	0.003460	0.259100
-11.923839	-1.626754	2.380518	0.003470	0.259255
-11.722168	-1.651763	2.390515	0.003422	0.259317
-11.650227	-1.617891	2.400512	0.003405	0.259523
-11.012982	-1.717114	2.410509	0.003249	0.259634
-11.366703	-1.646855	2.420506	0.003336	0.259635
-11.855258	-1.551113	2.430502	0.003456	0.259632
-11.238143	-1.601565	2.440499	0.003306	0.259936
-10.133839	-1.858914	2.450496	0.003037	0.259760
-9.752480	-1.996148	2.460493	0.002944	0.259489
-9.741982	-2.060934	2.470490	0.002942	0.259216
-10.530679	-1.934061	2.480486	0.003135	0.259092
-11.182760	-1.805561	2.490483	0.003295	0.259092
-12.031046	-1.600402	2.500480	0.003503	0.259256
-11.789094	-1.572970	2.510477	0.003444	0.259579
-12.681248	-1.300663	2.520474	0.003663	0.259996
-11.637060	-1.398399	2.530470	0.003408	0.260458
-10.622598	-1.573011	2.540467	0.003161	0.260563
-9.812118	-1.732301	2.550464	0.002963	0.260561
-9.045440	-1.938918	2.560461	0.002777	0.260318
-8.356907	-2.181839	2.570458	0.002609	0.259852
-8.563749	-2.264849	2.580454	0.002660	0.259315
-10.719712	-1.876604	2.590451	0.003187	0.259160
-11.382192	-1.704578	2.600448	0.003350	0.259339
-12.185075	-1.444021	2.610445	0.003546	0.259782
-11.792673	-1.395961	2.620442	0.003451	0.260320
-10.653404	-1.562362	2.630438	0.003173	0.260567
-10.049992	-1.627080	2.640435	0.003026	0.260797
-9.832001	-1.723587	2.650432	0.002974	0.260564
-10.128571	-1.616035	2.660429	0.003046	0.260774
-9.705343	-1.716976	2.670426	0.002944	0.260696
-9.151087	-1.855519	2.680422	0.002809	0.260567
-9.006394	-1.905026	2.690419	0.002774	0.260474
-8.213923	-2.130808	2.700416	0.002581	0.260170
-8.612068	-2.149391	2.710413	0.002679	0.259750
-9.538011	-1.993331	2.720410	0.002906	0.259636
-10.670186	-1.747683	2.730406	0.003183	0.259734
-11.612614	-1.461054	2.740403	0.003413	0.260170
-11.837348	-1.267405	2.750400	0.003468	0.260813
-11.804744	-1.124911	2.760397	0.003461	0.261451
-10.382838	-1.274573	2.770394	0.003114	0.262006
-7.950108	-1.752896	2.780390	0.002521	0.262004
-5.978505	-2.298126	2.790387	0.002040	0.261325
-6.402896	-2.408730	2.800384	0.002144	0.260488
-8.051511	-2.223030	2.810381	0.002547	0.259890
-9.433395	-1.952337	2.820378	0.002885	0.259884
-11.091778	-1.580786	2.830374	0.003291	0.260079
-11.088234	-1.433729	2.840371	0.003290	0.260714
-10.873526	-1.354696	2.850368	0.003238	0.261234
-10.550951	-1.306444	2.860365	0.003160	0.261711
-9.534579	-1.412558	2.870362	0.002912	0.262111
-7.519483	-1.836759	2.880358	0.002421	0.261989
-6.847270	-2.056462	2.890355	0.002257	0.261611
-6.992989	-2.166765	2.900352	0.002293	0.261013
-7.674612	-2.107812	2.910349	0.002460	0.260688
-8.822155	-1.911277	2.920346	0.002741	0.260561
-9.450495	-1.749802	2.930342	0.002895	0.260723
-10.312902	-1.500745	2.940339	0.003106	0.261063
-9.236201	-1.607453	2.950336	0.002844	0.261512
-9.147201	-1.579104	2.960333	0.002822	0.261707
-8.317783	-1.713069	2.970330	0.002620	0.261830
-8.333117	-1.709480	2.980326	0.002625	0.261831
-7.788867	-1.829277	2.990323	0.002492	0.261774
-8.294272	-1.743942	3.000320	0.002616	0.261712
-8.218650	-1.750570	3.010317	0.002598	0.261745
-7.596587	-1.897486	3.020314	0.002447	0.261638
-7.527563	-1.934739	3.030310	0.002431	0.261534
-8.183997	-1.805631	3.040307	0.002592	0.261533
-8.298958	-1.781920	3.050304	0.002620	0.261536
-8.783698	-1.650759	3.060301	0.002739	0.261688
-8.923634	-1.569995	3.070298	0.002774	0.261915
-8.555025	-1.587290	3.080294	0.002684	0.262149
-7.742497	-1.678778	3.090291	0.002486	0.262439
-7.341121	-1.824842	3.100288	0.002389	0.262150
-6.980218	-1.896550	3.110285	0.002301	0.262145
-6.530003	-2.043836	3.120282	0.002192	0.261891
-6.387464	-2.142640	3.130278	0.002158	0.261586
-7.417100	-1.952283	3.140275	0.002410	0.261532
-8.641347	-1.707063	3.150272	0.002709	0.261550
-9.159614	-1.513967	3.160269	0.002836	0.261940
-9.297497	-1.371448	3.170266	0.002870	0.262432
-8.849874	-1.336953	3.180262	0.002761	0.262954
-8.055820	-1.413146	3.190259	0.002568	0.263293
-6.380790	-1.732850	3.200256	0.002159	0.263331
-5.289834	-2.034613	3.210253	0.001894	0.262957
-4.817603	-2.271221	3.220250	0.001779	0.262340
-5.600809	-2.229069	3.230246	0.001971	0.261860
-6.461331	-2.135611	3.240243	0.002181	0.261533
-7.695750	-1.891322	3.250240	0.002483	0.261539
-8.211333	-1.715594	3.260237	0.002610	0.261856
-8.719007	-1.517181	3.270234	0.002734	0.262277
-8.832472	-1.363481	3.280230	0.002762	0.262837
-8.540210	-1.307384	3.290227	0.002691	0.263320
-8.178448	-1.256561	3.300224	0.002604	0.263837
-6.606631	-1.510907	3.310221	0.002220	0.264067
-4.843106	-1.912698	3.320218	0.001790	0.263831
-3.874825	-2.257244	3.330214	0.001554	0.263172
-3.840382	-2.430227	3.340211	0.001547	0.262460
-4.584810	-2.435494	3.350208	0.001729	0.261809
-6.192689	-2.182513	3.360205	0.002122	0.261537
-7.932059	-1.811570	3.370202	0.002547	0.261660
-9.020908	-1.453095	3.380198	0.002814	0.262277
-9.421209	-1.183973	3.390195	0.002912	0.263089
-8.332292	-1.212740	3.400192	0.002646	0.263877
-7.087942	-1.368536	3.410189	0.002343	0.264253
-5.322925	-1.702326	3.420186	0.001912	0.264306
-4.537616	-1.925230	3.430182	0.001721	0.264013
-4.245555	-2.085391	3.440179	0.001651	0.263574
-4.356128	-2.177977	3.450176	0.001678	0.263085
-4.812909	-2.170806	3.460173	0.001790	0.262730
-6.146176	-1.965202	3.470170	0.002116	0.262487
-6.813242	-1.761180	3.480166	0.002280	0.262797
-7.410124	-1.565114	3.490163	0.002426	0.263131
-7.445319	-1.447727	3.500160	0.002435	0.263601
-6.494165	-1.532133	3.510157	0.002203	0.264035
-5.361062	-1.746153	3.520154	0.001927	0.264070
-4.895118	-1.846008	3.530150	0.001814	0.264033
-4.885915	-1.919880	3.540147	0.001812	0.263725
-5.014010	-1.895685	3.550144	0.001844	0.263719
-5.694330	-1.792429	3.560141	0.002011	0.263587
-6.372869	-1.619042	3.570138	0.002177	0.263756
-6.049348	-1.609150	3.580134	0.002098	0.264067
-5.210866	-1.774297	3.590131	0.001894	0.264063
-4.255700	-1.960796	3.600128	0.001661	0.264067
-3.748403	-2.151414	3.610125	0.001538	0.263678
-4.051283	-2.168498	3.620122	0.001613	0.263350
-5.213956	-2.000555	3.630118	0.001897	0.263090
-5.676098	-1.836936	3.640115	0.002010	0.263398
-6.147930	-1.703550	3.650112	0.002126	0.263570
-6.873945	-1.458654	3.660109	0.002304	0.264003
-7.909811	-1.107217	3.670106	0.002557	0.264629
-6.585725	-1.191436	3.680102	0.002234	0.265373
-4.676601	-1.521986	3.690099	0.001769	0.265560
-2.587001	-1.987031	3.700096	0.001259	0.265328
-1.843379	-2.295679	3.710093	0.001078	0.264638
-1.628172	-2.506012	3.720090	0.001026	0.263922
-2.130816	-2.592003	3.730086	0.001150	0.263134
-3.963519	-2.311359	3.740083	0.001598	0.262792
-5.884436	-1.925342	3.750080	0.002067	0.262827
-8.499298	-1.243053	3.760077	0.002706	0.263543
-9.386358	-0.785132	3.770074	0.002923	0.264747
-7.626452	-0.837807	3.780070	0.002494	0.265985
-3.931446	-1.439501	3.790067	0.001592	0.266508
-1.960468	-1.933500	3.800064	0.001111	0.266057
-1.391173	-2.209310	3.810061	0.000973	0.265362
-1.025809	-2.457667	3.820058	0.000884	0.264613
-1.643837	-2.517321	3.830054	0.001036	0.263841
-4.283252	-2.091978	3.840051	0.001681	0.263442
-6.398471	-1.566242	3.850048	0.002198	0.263909
-6.761427	-1.331653	3.860045	0.002287	0.264600
-6.506633	-1.205738	3.870042	0.002225	0.265344
-4.478621	-1.479312	3.880038	0.001730	0.265871
-3.020298	-1.763613	3.890035	0.001375	0.265879
-1.820354	-2.094634	3.900032	0.001082	0.265474
-2.183480	-2.123776	3.910029	0.001172	0.265047
-2.393092	-2.170265	3.920026	0.001223	0.264674
-3.219464	-2.084001	3.930022	0.001426	0.264349
-5.161836	-1.649021	3.940019	0.001901	0.264573
-5.377068	-1.475840	3.950016	0.001954	0.265126
-4.836946	-1.480500	3.960013	0.001822	0.265554
-3.947863	-1.577063	3.970010	0.001605	0.265882
-3.071105	-1.749450	3.980006	0.001392	0.265880
-1.858128	-2.022698	3.990003	0.001096	0.265731
-1.402552	-2.216141	4.000000	0.000986	0.265290
-2.396158	-2.105518	4.009997	0.001229	0.264930
-3.412194	-1.904201	4.019994	0.001477	0.264935
-4.169428	-1.730733	4.029990	0.001663	0.265037
-4.105124	-1.665570	4.039987	0.001648	0.265365
-4.483760	-1.510315	4.049984	0.001741	0.265705
-3.661350	-1.585192	4.059981	0.001540	0.266069
-2.890338	-1.706821	4.069978	0.001352	0.266194
-2.065718	-1.898377	4.079974	0.001152	0.266067
-1.638517	-2.035685	4.089971	0.001048	0.265840
-1.642936	-2.110354	4.099968	0.001050	0.265520
-1.962518	-2.108870	4.109965	0.001128	0.265258
-3.391590	-1.826900	4.119962	0.001478	0.265261
-3.475386	-1.742831	4.129958	0.001499	0.265545
-4.315479	-1.497211	4.139955	0.001704	0.265884
-3.584622	-1.537757	4.149952	0.001526	0.266317
-2.100657	-1.779418	4.159949	0.001164	0.266526
-1.397227	-1.982913	4.169946	0.000993	0.266249
-1.186975	-2.084833	4.179942	0.000942	0.265991
-1.526007	-2.090172	4.189939	0.001026	0.265686
-2.407288	-1.946682	4.199936	0.001241	0.265558
-3.495528	-1.667018	4.209933	0.001508	0.265835
-3.494807	-1.566879	4.219930	0.001508	0.266256
-3.120249	-1.558773	4.229926	0.001417	0.266599
-2.179537	-1.689198	4.239923	0.001188	0.266826
-1.573041	-1.808773	4.249920	0.001040	0.266823
-1.105412	-1.958627	4.259917	0.000927	0.266577
-0.784033	-2.074167	4.269914	0.000849	0.266354
-0.803135	-2.145696	4.279910	0.000854	0.266035
-1.450100	-2.055320	4.289907	0.001012	0.265878
-2.387436	-1.870873	4.299904	0.001242	0.265877
-2.950946	-1.685046	4.309901	0.001380	0.266192
-2.902514	-1.601997	4.319898	0.001369	0.266581
-2.231141	-1.674217	4.329894	0.001205	0.266830
-2.053731	-1.653137	4.339891	0.001162	0.267064
-1.606325	-1.722632	4.349888	0.001054	0.267139
-0.880654	-1.864831	4.359885	0.000877	0.267139
-0.920148	-1.922526	4.369882	0.000887	0.266862
-0.846586	-1.945349	4.379878	0.000870	0.266825
-0.981711	-1.918863	4.389875	0.000903	0.266823
-1.056524	-1.939837	4.399872	0.000922	0.266671
-1.157714	-1.954281	4.409869	0.000947	0.266525
-1.211025	-1.884390	4.419866	0.000961	0.266773
-1.518126	-1.810875	4.429862	0.001036	0.266827
-2.013898	-1.683400	4.439859	0.001158	0.266952
-1.488114	-1.740773	4.449856	0.001030	0.267143
-1.394217	-1.707081	4.459853	0.001008	0.267360
-1.355667	-1.691725	4.469850	0.000999	0.267455
-1.643743	-1.593646	4.479846	0.001069	0.267627
-1.499800	-1.566483	4.489843	0.001035	0.267858
-1.209323	-1.570666	4.499840	0.000964	0.268077
-1.048745	-1.601189	4.509837	0.000926	0.268080
-0.637967	-1.659041	4.519834	0.000826	0.268174
-0.107900	-1.785194	4.529830	0.000697	0.268080
0.027345	-1.812409	4.539827	0.000664	0.268076
-0.073903	-1.829400	4.549824	0.000690	0.267919
-0.717446	-1.694739	4.559821	0.000847	0.267952
-0.625604	-1.682176	4.569818	0.000826	0.268078
-0.774683	-1.651547	4.579814	0.000862	0.268082
-0.779986	-1.617901	4.589811	0.000864	0.268217
-0.879296	-1.553842	4.599808	0.000889	0.268401
-0.818471	-1.510218	4.609805	0.000875	0.268632
-0.649035	-1.522540	4.619802	0.000834	0.268718
-0.203377	-1.544540	4.629798	0.000725	0.268990
-0.063073	-1.556739	4.639795	0.000692	0.269052
-0.048622	-1.558620	4.649792	0.000689	0.269054
-0.149444	-1.538689	4.659789	0.000714	0.269053
-0.436909	-1.480598	4.669786	0.000785	0.269058
-0.607190	-1.396738	4.679782	0.000827	0.269266
-0.631379	-1.345279	4.689779	0.000833	0.269459
-0.492226	-1.323470	4.699776	0.000800	0.269662
-0.019704	-1.359649	4.709773	0.000685	0.269896
0.309938	-1.423136	4.719770	0.000605	0.269900
0.533604	-1.466377	4.729766	0.000551	0.269901
0.659381	-1.491207	4.739763	0.000520	0.269899
0.095227	-1.380613	4.749760	0.000659	0.269896
-0.087245	-1.301554	4.759757	0.000704	0.270074
-0.171477	-1.238699	4.769754	0.000725	0.270264
-0.257448	-1.158540	4.779750	0.000746	0.270525
-0.240811	-1.093812	4.789747	0.000743	0.270806
-0.002880	-1.078853	4.799744	0.000685	0.271059
0.165424	-1.076779	4.809741	0.000644	0.271203
0.320946	-1.037354	4.819738	0.000607	0.271491
0.321461	-1.013366	4.829734	0.000607	0.271589
0.389578	-0.978040	4.839731	0.000591	0.271788
0.226955	-0.903364	4.849728	0.000631	0.271963
0.233737	-0.852666	4.859725	0.000630	0.272176
0.404801	-0.827604	4.869722	0.000589	0.272416
0.755902	-0.842641	4.879718	0.000504	0.272636
0.959899	-0.855902	4.889715	0.000454	0.272745
0.916784	-0.848056	4.899712	0.000465	0.272741
0.795910	-0.783624	4.909709	0.000496	0.272906
0.562998	-0.701021	4.919706	0.000553	0.273056
0.279827	-0.566746	4.929702	0.000623	0.273377
0.022074	-0.419885	4.939699	0.000686	0.273771
0.300891	-0.391375	4.949696	0.000618	0.274110
0.589060	-0.386468	4.959693	0.000548	0.274360
1.125849	-0.443118	4.969690	0.000418	0.274558
1.430727	-0.481009	4.979686	0.000344	0.274646
1.573469	-0.455017	4.989683	0.000310	0.274865
1.470797	-0.434939	4.999680	0.000335	0.274863
1.141676	-0.359317	5.009677	0.000416	0.274906
0.736565	-0.201455	5.019674	0.000515	0.275224
0.233430	-0.007159	5.029670	0.000639	0.275611
0.000000	0.126458	5.039667	0.000696	0.275967

0.160162	0.167335	5.044672	0.000657	0.276260
0.363994	0.199457	5.049677	0.000608	0.276552
0.655316	0.201587	5.054682	0.000537	0.276792
0.852259	0.233704	5.059686	0.000489	0.277078
1.005534	0.270712	5.064691	0.000452	0.277349
1.396568	0.262433	5.069696	0.000356	0.277626
1.446076	0.305492	5.074701	0.000345	0.277838
1.659542	0.317428	5.079706	0.000293	0.278055
2.085271	0.304858	5.084710	0.000189	0.278341
1.933198	0.389683	5.089715	0.000226	0.278561
1.864121	0.472299	5.094720	0.000243	0.278838
1.709292	0.568606	5.099725	0.000281	0.279103
1.373833	0.709808	5.104730	0.000364	0.279405
1.431011	0.805876	5.109734	0.000350	0.279834
1.161352	0.970023	5.114739	0.000416	0.280279
1.240432	1.075271	5.119744	0.000397	0.280762
1.314893	1.186107	5.124749	0.000379	0.281262
1.312149	1.319566	5.129754	0.000380	0.281791
1.512927	1.410543	5.134758	0.000331	0.282309
1.728726	1.499332	5.139763	0.000278	0.282829
1.933507	1.597375	5.144768	0.000228	0.283377
2.211612	1.668164	5.149773	0.000161	0.283872
2.567101	1.712063	5.154778	0.000074	0.284321
2.946493	1.750969	5.159782	-0.000019	0.284767
3.015462	1.859446	5.164787	-0.000035	0.285247
3.133671	1.949782	5.169792	-0.000064	0.285693
3.133172	2.081029	5.174797	-0.000064	0.286207
2.847641	2.266349	5.179802	0.000006	0.286712
2.691861	2.447026	5.184806	0.000045	0.287298
2.379071	2.667777	5.189811	0.000121	0.287919
2.091926	2.907296	5.194816	0.000191	0.288632
1.728983	3.154074	5.199821	0.000280	0.289312
1.552380	3.396319	5.204826	0.000323	0.290116
1.548940	3.628643	5.209830	0.000324	0.291010
1.426096	3.883817	5.214835	0.000354	0.291899
1.559735	4.098996	5.219840	0.000322	0.292825
1.608477	4.332843	5.224845	0.000310	0.293756
1.835948	4.518197	5.229850	0.000255	0.294633
2.303740	4.670195	5.234854	0.000140	0.295559
2.693705	4.823940	5.239859	0.000045	0.296432
3.006897	4.989511	5.244864	-0.000031	0.297289
3.278145	5.165944	5.249869	-0.000097	0.298154
3.499251	5.334338	5.254874	-0.000151	0.298950
3.806470	5.481926	5.259878	-0.000226	0.299729
3.638759	5.734295	5.264883	-0.000185	0.300549
3.626651	5.972828	5.269888	-0.000182	0.301428
3.597309	6.217047	5.274893	-0.000175	0.302314
3.332549	6.522071	5.279898	-0.000110	0.303252
3.131359	6.824568	5.284902	-0.000061	0.304223
2.980689	7.124170	5.289907	-0.000024	0.305217
2.882469	7.447470	5.294912	0.000000	0.306332
2.865729	7.749715	5.299917	0.000004	0.307425
2.877397	8.064111	5.304922	0.000002	0.308578
3.544345	8.220744	5.309926	-0.000161	0.309621
4.002493	8.422443	5.314931	-0.000273	0.310675
4.423001	8.630037	5.319936	-0.000376	0.311721
4.586869	8.876730	5.324941	-0.000416	0.312723
4.782112	9.117314	5.329946	-0.000463	0.313721
5.108088	9.323554	5.334950	-0.000543	0.314686
5.059162	9.611238	5.339955	-0.000531	0.315675
5.173420	9.878875	5.344960	-0.000559	0.316704
5.072732	10.193376	5.349965	-0.000534	0.317746
4.950746	10.519267	5.354970	-0.000504	0.318810
4.701468	10.877418	5.359974	-0.000443	0.319896
4.472681	11.258593	5.364979	-0.000387	0.321073
4.511019	11.606092	5.369984	-0.000397	0.322311
4.268230	12.017225	5.374989	-0.000337	0.323574
4.200575	12.391454	5.379994	-0.000321	0.324823
4.400766	12.743323	5.384998	-0.000370	0.326171
4.459725	13.113340	5.390003	-0.000384	0.327480
4.694306	13.454607	5.395008	-0.000441	0.328804
5.155451	13.736190	5.400013	-0.000554	0.330071
5.474645	14.049624	5.405018	-0.000632	0.331346
5.962962	14.330531	5.410022	-0.000751	0.332619
6.121197	14.654040	5.415027	-0.000790	0.333812
6.638145	14.904650	5.420032	-0.000916	0.334993
6.964052	15.197709	5.425037	-0.000996	0.336186
6.937961	15.549669	5.430042	-0.000989	0.337341
6.853782	15.931267	5.435046	-0.000969	0.338553
6.682026	16.323914	5.440051	-0.000927	0.339740
6.596450	16.734962	5.445056	-0.000906	0.341039
6.303792	17.196274	5.450061	-0.000834	0.342365
6.231484	17.634335	5.455066	-0.000817	0.343751
6.134996	18.080776	5.460070	-0.000793	0.345144
5.987378	18.563836	5.465075	-0.000757	0.346617
6.039457	19.020470	5.470080	-0.000770	0.348124
6.166255	19.444227	5.475085	-0.000801	0.349567
6.408514	19.864561	5.480090	-0.000860	0.351065
6.478752	20.329771	5.485094	-0.000878	0.352592
6.731707	20.741133	5.490099	-0.000939	0.354055
7.009894	21.155427	5.495104	-0.001007	0.355538
7.192107	21.592482	5.500109	-0.001052	0.357026
7.304769	22.039716	5.505114	-0.001080	0.358498
7.561479	22.456315	5.510118	-0.001142	0.359955
7.595004	22.926590	5.515123	-0.001151	0.361438
7.527910	23.436531	5.520128	-0.001134	0.362977
7.536104	23.917190	5.525133	-0.001136	0.364464
7.538170	24.426181	5.530138	-0.001137	0.366029
7.559246	24.950953	5.535142	-0.001142	0.367646
7.543270	25.455932	5.540147	-0.001138	0.369175
7.734279	25.956218	5.545152	-0.001185	0.370805
7.785444	26.490033	5.550157	-0.001198	0.372446
7.807304	27.021981	5.555162	-0.001203	0.374058
8.123505	27.512997	5.560166	-0.001281	0.375713
8.328893	28.020566	5.565171	-0.001331	0.377345
8.537466	28.522511	5.570176	-0.001382	0.378955
8.903021	28.996681	5.575181	-0.001471	0.380567
9.036785	29.519728	5.580186	-0.001504	0.382182
9.710961	29.925247	5.585190	-0.001669	0.383756
9.673999	30.459524	5.590195	-0.001660	0.385294
9.755140	30.993870	5.595200	-0.001680	0.386892
9.852081	31.514263	5.600205	-0.001704	0.388453
9.800452	32.069439	5.605210	-0.001691	0.390024
9.914504	32.622387	5.610214	-0.001719	0.391675
9.742945	33.227586	5.615219	-0.001677	0.393309
9.707132	33.820180	5.620224	-0.001669	0.394975
9.671210	34.441837	5.625229	-0.001660	0.396717
9.490947	35.087265	5.630234	-0.001616	0.398439
9.641698	35.691935	5.635238	-0.001653	0.400221
9.778248	36.307664	5.640243	-0.001687	0.402017
9.961138	36.910581	5.645248	-0.001732	0.403795
10.282173	37.488536	5.650253	-0.001810	0.405571
10.611768	38.070871	5.655258	-0.001891	0.407356
10.841655	38.640432	5.660262	-0.001947	0.409045
10.948221	39.253449	5.665267	-0.001973	0.410779
11.129472	39.872517	5.670272	-0.002018	0.412563
11.370587	40.448218	5.675277	-0.002077	0.414253
11.571222	41.061976	5.680282	-0.002126	0.416017
11.708808	41.686406	5.685286	-0.002160	0.417770
11.489892	42.366337	5.690291	-0.002107	0.419477
11.508425	43.052694	5.695296	-0.002111	0.421318
11.376169	43.770157	5.700301	-0.002079	0.423156
11.492664	44.442090	5.705306	-0.002108	0.424994
11.482669	45.169534	5.710310	-0.002106	0.426904
11.491750	45.874231	5.715315	-0.002108	0.428757
11.534022	46.606964	5.720320	-0.002119	0.430691
11.588621	47.347160	5.725325	-0.002132	0.432642
11.638908	48.071733	5.730330	-0.002145	0.434543
11.663439	48.844364	5.735334	-0.002151	0.436545
11.873535	49.565999	5.740339	-0.002203	0.438500
12.059731	50.305085	5.745344	-0.002249	0.440480
12.143876	51.073686	5.750349	-0.002269	0.442474
12.218929	51.832847	5.755354	-0.002288	0.444432
12.544266	52.574630	5.760358	-0.002368	0.446460
12.602688	53.342344	5.765363	-0.002382	0.448413
12.949063	54.065973	5.770368	-0.002467	0.450388
13.149365	54.829998	5.775373	-0.002516	0.452384
13.301283	55.580240	5.780378	-0.002554	0.454313
13.343731	56.388102	5.785382	-0.002565	0.456324
13.331060	57.196899	5.790387	-0.002562	0.458302
13.498939	57.990707	5.795392	-0.002603	0.460321
13.903826	58.746642	5.800397	-0.002702	0.462350
13.988076	59.540246	5.805402	-0.002723	0.464312
14.380944	60.302203	5.810406	-0.002819	0.466333
14.478367	61.090121	5.815411	-0.002844	0.468270
14.697235	61.871231	5.820416	-0.002897	0.470239
15.004736	62.647840	5.825421	-0.002973	0.472230
15.168094	63.422281	5.830426	-0.003013	0.474141
15.521977	64.194799	5.835430	-0.003100	0.476128
15.656935	64.977632	5.840435	-0.003133	0.478030
15.760289	65.784115	5.845440	-0.003158	0.479966
15.847859	66.619575	5.850445	-0.003180	0.481954
15.755526	67.470498	5.855450	-0.003158	0.483889
15.855230	68.330683	5.860454	-0.003183	0.485923
15.869224	69.194828	5.865459	-0.003186	0.487920
15.764567	70.096070	5.870464	-0.003161	0.489941
15.769245	71.014403	5.875469	-0.003163	0.492042
15.862516	71.902732	5.880474	-0.003186	0.494104
15.794262	72.867019	5.885478	-0.003170	0.496258
15.733859	73.814587	5.890483	-0.003155	0.498369
15.936024	74.744929	5.895488	-0.003205	0.500547
15.969893	75.711597	5.900493	-0.003214	0.502723
16.098680	76.661916	5.905498	-0.003246	0.504895
16.584525	77.562313	5.910502	-0.003365	0.507100
16.859469	78.452251	5.915507	-0.003432	0.509182
17.081287	79.390382	5.920512	-0.003487	0.511339
17.372701	80.287414	5.925517	-0.003558	0.513427
17.600416	81.213813	5.930522	-0.003615	0.515543
17.743814	82.155244	5.935526	-0.003650	0.517648
17.724182	83.124300	5.940531	-0.003646	0.519735
17.791477	84.116974	5.945536	-0.003662	0.521901
17.648819	85.143682	5.950541	-0.003628	0.524044
17.639218	86.184645	5.955546	-0.003626	0.526264
17.629622	87.212607	5.960550	-0.003624	0.528446
17.443728	88.318764	5.965555	-0.003579	0.530713
17.570115	89.378111	5.970560	-0.003611	0.532999
17.727484	90.445783	5.975565	-0.003650	0.535305
17.827198	91.517165	5.980570	-0.003675	0.537586
18.000611	92.598575	5.985574	-0.003717	0.539907
18.395437	93.626983	5.990579	-0.003814	0.542198
18.958351	94.610746	5.995584	-0.003952	0.544454
19.138084	95.668550	6.000589	-0.003997	0.546700
19.308750	96.694184	6.005594	-0.004039	0.548868
19.703539	97.723348	6.010598	-0.004136	0.551123
20.141057	98.687536	6.015603	-0.004243	0.553253
20.299224	99.733939	6.020608	-0.004282	0.555433
20.259435	100.819038	6.025613	-0.004273	0.557604
20.682593	101.814278	6.030618	-0.004377	0.559767
20.849290	102.875174	6.035622	-0.004418	0.561953
20.664051	103.992947	6.040627	-0.004373	0.564108
20.729877	105.111995	6.045632	-0.004390	0.566354
20.733499	106.214835	6.050637	-0.004391	0.568535
20.800842	107.352785	6.055642	-0.004408	0.570801
21.064035	108.448722	6.060646	-0.004473	0.573050
21.161785	109.587253	6.065651	-0.004498	0.575311
21.445683	110.687961	6.070656	-0.004568	0.577560
21.792028	111.775547	6.075661	-0.004653	0.579798
21.974406	112.890757	6.080666	-0.004698	0.582019
22.234087	113.998929	6.085670	-0.004762	0.584247
22.176601	115.176315	6.090675	-0.004748	0.586481
22.443404	116.276762	6.095680	-0.004814	0.588680
22.686893	117.417837	6.100685	-0.004874	0.590939
22.778572	118.546339	6.105690	-0.004897	0.593111
22.588904	119.794562	6.110694	-0.004851	0.595398
22.640350	120.989353	6.115699	-0.004864	0.597663
22.766591	122.189513	6.120704	-0.004896	0.599956
22.938772	123.396514	6.125709	-0.004938	0.602270
23.087892	124.603934	6.130714	-0.004975	0.604568
23.401988	125.788057	6.135718	-0.005053	0.606873
23.465243	127.002000	6.140723	-0.005069	0.609135
23.731237	128.210572	6.145728	-0.005134	0.611450
23.990572	129.397616	6.150733	-0.005198	0.613715
24.198644	130.621518	6.155738	-0.005250	0.616020
24.506777	131.793997	6.160742	-0.005326	0.618259
24.746163	132.999440	6.165747	-0.005385	0.620525
24.880607	134.219320	6.170752	-0.005418	0.622772
24.987548	135.468990	6.175757	-0.005445	0.625056
24.931581	136.728883	6.180762	-0.005432	0.627293
25.154101	137.976046	6.185766	-0.005487	0.629595
25.104014	139.279016	6.190771	-0.005475	0.631895
25.155950	140.569020	6.195776	-0.005489	0.634198
25.288772	141.885479	6.200781	-0.005522	0.636567
25.518267	143.146336	6.205786	-0.005578	0.638862
25.876831	144.429198	6.210790	-0.005667	0.641230
25.998345	145.706749	6.215795	-0.005697	0.643501
26.318999	146.998693	6.220800	-0.005776	0.645856
26.684035	148.214513	6.225805	-0.005866	0.648085
26.995197	149.471337	6.230810	-0.005942	0.650359
27.412263	150.691280	6.235814	-0.006045	0.652597
27.565748	151.959795	6.240819	-0.006083	0.654824
27.611591	153.254475	6.245824	-0.006095	0.657052
27.791306	154.535676	6.250829	-0.006139	0.659294
27.890550	155.839479	6.255834	-0.006164	0.661540
28.008140	157.155955	6.260838	-0.006194	0.663807
28.070143	158.497227	6.265843	-0.006210	0.666089
28.225663	159.799476	6.270848	-0.006248	0.668328
28.263926	161.177144	6.275853	-0.006258	0.670647
28.308526	162.515014	6.280858	-0.006270	0.672895
28.554388	163.875801	6.285862	-0.006331	0.675237
28.668496	165.227767	6.290867	-0.006359	0.677515
28.937713	166.577820	6.295872	-0.006426	0.679831
29.364989	167.876708	6.300877	-0.006531	0.682105
29.687305	169.195236	6.305882	-0.006610	0.684370
29.940321	170.513974	6.310886	-0.006673	0.686607
30.179095	171.815446	6.315891	-0.006732	0.688803
30.617765	173.100283	6.320896	-0.006840	0.691028
30.837837	174.396935	6.325901	-0.006894	0.693197
30.963672	175.736970	6.330906	-0.006925	0.695400
31.311515	177.010494	6.335910	-0.007011	0.697558
31.382334	178.359511	6.340915	-0.007029	0.699745
31.513778	179.696718	6.345920	-0.007062	0.701924
31.497703	181.086452	6.350925	-0.007059	0.704136
31.507358	182.469191	6.355930	-0.007062	0.706338
31.270414	183.936986	6.360934	-0.007005	0.708592
31.289997	185.385044	6.365939	-0.007010	0.710886
31.426128	186.813458	6.370944	-0.007044	0.713176
31.700222	188.256079	6.375949	-0.007112	0.715523
31.771939	189.688950	6.380954	-0.007130	0.717786
31.960687	191.167664	6.385958	-0.007177	0.720149
32.255614	192.573746	6.390963	-0.007250	0.722422
32.553561	194.014402	6.395968	-0.007323	0.724743
32.919090	195.396348	6.400973	-0.007413	0.726985
33.137210	196.814768	6.405978	-0.007467	0.729234
33.465465	198.219676	6.410982	-0.007548	0.731487
33.597935	199.648826	6.415987	-0.007581	0.733713
33.853932	201.067018	6.420992	-0.007645	0.735951
33.948600	202.509688	6.425997	-0.007669	0.738173
33.876665	204.009417	6.431002	-0.007652	0.740427
34.021543	205.486866	6.436006	-0.007688	0.742702
34.075886	207.007075	6.441011	-0.007702	0.745010
34.149810	208.490496	6.446016	-0.007721	0.747260
34.429899	210.003596	6.451021	-0.007790	0.749607
34.523367	211.491814	6.456026	-0.007814	0.751856
34.769905	213.001426	6.461030	-0.007875	0.754173
35.009841	214.486410	6.466035	-0.007934	0.756446
35.351196	215.953151	6.471040	-0.008018	0.758712
35.835907	217.393291	6.476045	-0.008138	0.760973
36.201787	218.810301	6.481050	-0.008228	0.763160
36.543816	220.253933	6.486054	-0.008312	0.765373
36.758566	221.657854	6.491059	-0.008365	0.767487
36.892873	223.134192	6.496064	-0.008399	0.769678
37.077903	224.581555	6.501069	-0.008445	0.771834
37.030124	226.092292	6.506074	-0.008434	0.774012
37.091391	227.618932	6.511078	-0.008450	0.776237
36.978721	229.176482	6.516083	-0.008423	0.778453
36.906396	230.774604	6.521088	-0.008406	0.780731
36.838555	232.392468	6.526093	-0.008391	0.783033
36.785187	234.040351	6.531098	-0.008378	0.785374
37.141983	235.592915	6.536102	-0.008467	0.787684
37.353146	237.205354	6.541107	-0.008519	0.790032
37.777321	238.720121	6.546112	-0.008623	0.792293
38.346133	240.249042	6.551117	-0.008763	0.794605
38.772080	241.709213	6.556122	-0.008868	0.796776
39.377318	243.165553	6.561126	-0.009017	0.798984
39.895080	244.581945	6.566131	-0.009144	0.801106
40.216824	246.013592	6.571136	-0.009223	0.803192
40.564919	247.443716	6.576141	-0.009309	0.805277
40.594290	248.873892	6.581146	-0.009317	0.807273
40.724163	250.387616	6.586150	-0.009350	0.809406
40.729167	251.873537	6.591155	-0.009352	0.811463
40.534414	253.456254	6.596160	-0.009305	0.813596
40.175854	255.120183	6.601165	-0.009218	0.815792
40.067641	256.749128	6.606170	-0.009193	0.818000
39.930195	258.469640	6.611174	-0.009160	0.820319
39.710777	260.208291	6.616179	-0.009107	0.822635
39.854192	261.936237	6.621184	-0.009143	0.825023
39.986179	263.629224	6.626189	-0.009177	0.827354
40.330635	265.321763	6.631194	-0.009262	0.829732
40.835262	266.929748	6.636198	-0.009386	0.832030
41.228742	268.577850	6.641203	-0.009483	0.834348
41.828552	270.110296	6.646208	-0.009630	0.836556
42.362410	271.666116	6.651213	-0.009761	0.838772
42.667913	273.215935	6.656218	-0.009837	0.840918
43.037585	274.753812	6.661222	-0.009928	0.843058
43.216500	276.323725	6.666227	-0.009973	0.845187
43.427623	277.851819	6.671232	-0.010025	0.847264
43.658086	279.437263	6.676237	-0.010082	0.849416
43.713837	280.997250	6.681242	-0.010097	0.851486
43.750422	282.640974	6.686246	-0.010107	0.853657
43.716776	284.279709	6.691251	-0.010099	0.855797
43.889024	285.897616	6.696256	-0.010142	0.857956
43.955317	287.582010	6.701261	-0.010159	0.860170
44.052804	289.224937	6.706266	-0.010184	0.862333
44.145573	290.936130	6.711270	-0.010208	0.864577
44.354727	292.557127	6.716275	-0.010260	0.866727
44.847174	294.182429	6.721280	-0.010381	0.868945
45.393426	295.722316	6.726285	-0.010515	0.871061
45.599523	297.326867	6.731290	-0.010566	0.873173
45.980963	298.906662	6.736294	-0.010660	0.875291
46.294803	300.441657	6.741299	-0.010738	0.877329
46.520333	302.029156	6.746304	-0.010794	0.879409
46.652539	303.614956	6.751309	-0.010827	0.881459
46.538110	305.276218	6.756314	-0.010800	0.883542
46.654231	306.907506	6.761318	-0.010829	0.885637
46.770042	308.536164	6.766323	-0.010858	0.887723
46.611412	310.278917	6.771328	-0.010821	0.889883
46.648885	311.983942	6.776333	-0.010831	0.892037
46.601900	313.756923	6.781338	-0.010820	0.894251
46.875490	315.440635	6.786342	-0.010888	0.896423
47.089232	317.183390	6.791347	-0.010941	0.898649
47.217285	318.911804	6.796352	-0.010973	0.900832
47.572201	320.625828	6.801357	-0.011061	0.903045
47.808623	322.324240	6.806362	-0.011120	0.905205
48.333319	323.955776	6.811366	-0.011249	0.907344
48.635252	325.629081	6.816371	-0.011324	0.909478
49.161408	327.182332	6.821376	-0.011453	0.911511
49.594635	328.786129	6.826381	-0.011560	0.913580
49.657801	330.407985	6.831386	-0.011576	0.915582
50.015369	331.997319	6.836390	-0.011664	0.917607
49.909979	333.692429	6.841395	-0.011639	0.919651
49.828199	335.374208	6.846400	-0.011620	0.921680
49.711334	337.154705	6.851405	-0.011593	0.923816
49.609739	338.887929	6.856410	-0.011569	0.925893
49.613293	340.701485	6.861414	-0.011571	0.928086
49.501449	342.543041	6.866419	-0.011545	0.930283
49.616829	344.365256	6.871424	-0.011574	0.932501
49.851143	346.190746	6.876429	-0.011632	0.934745
50.110603	347.968052	6.881434	-0.011697	0.936931
50.614174	349.744821	6.886438	-0.011821	0.939166
51.030405	351.447042	6.891443	-0.011923	0.941287
51.369821	353.188175	6.896448	-0.012007	0.943433
52.071718	354.797883	6.901453	-0.012179	0.945498
52.364274	356.444888	6.906458	-0.012252	0.947513
52.857484	358.073121	6.911462	-0.012373	0.949545
53.045466	359.690445	6.916467	-0.012420	0.951493
53.501612	361.294813	6.921472	-0.012532	0.953480
53.716076	362.898072	6.926477	-0.012586	0.955409
53.628264	364.554940	6.931482	-0.012565	0.957331
53.577116	366.296074	6.936486	-0.012554	0.959356
53.638005	367.984315	6.941491	-0.012569	0.961339
53.580860	369.759697	6.946496	-0.012556	0.963394
53.529109	371.519620	6.951501	-0.012545	0.965428
53.356652	373.358909	6.956506	-0.012504	0.967524
53.438337	375.203803	6.961510	-0.012525	0.969676
53.422779	377.049341	6.966515	-0.012522	0.971803
53.568686	378.927599	6.971520	-0.012559	0.973998
53.711033	380.768137	6.976525	-0.012594	0.976143
53.778583	382.666984	6.981530	-0.012612	0.978335
54.117278	384.519519	6.986534	-0.012696	0.980526
54.497460	386.349398	6.991539	-0.012790	0.982696
54.969889	388.119674	6.996544	-0.012906	0.984812
55.315054	389.887843	7.001549	-0.012991	0.986894
55.553688	391.689329	7.006554	-0.013051	0.988987
55.915438	393.403936	7.011558	-0.013140	0.991004
56.004160	395.217070	7.016563	-0.013163	0.993070
56.147016	396.995053	7.021568	-0.013199	0.995104
56.169529	398.832028	7.026573	-0.013205	0.997175
56.248929	400.681119	7.031578	-0.013226	0.999268
56.474224	402.496034	7.036582	-0.013282	1.001347
56.525378	404.384640	7.041587	-0.013295	1.003469
56.661185	406.185944	7.046592	-0.013330	1.005506
56.905583	408.056694	7.051597	-0.013390	1.007639
57.050640	409.904204	7.056602	-0.013427	1.009721
57.443546	411.714423	7.061606	-0.013524	1.011808
57.650143	413.563258	7.066611	-0.013575	1.013896
58.090252	415.308734	7.071616	-0.013684	1.015912
58.573477	417.072633	7.076621	-0.013803	1.017954
58.721940	418.846527	7.081626	-0.013840	1.019934
58.924740	420.634648	7.086630	-0.013891	1.021938
59.066017	422.444827	7.091635	-0.013926	1.023949
59.050154	424.228799	7.096640	-0.013923	1.025896
59.173135	426.091497	7.101645	-0.013954	1.027953
59.290292	427.911060	7.106650	-0.013984	1.029958
59.289149	429.801540	7.111654	-0.013985	1.032012
59.164233	431.742586	7.116659	-0.013956	1.034092
59.317503	433.629163	7.121664	-0.013994	1.036165
59.575690	435.563314	7.126669	-0.014058	1.038305
59.717366	437.443620	7.131674	-0.014094	1.040360
60.216794	439.311357	7.136678	-0.014217	1.042469
60.552520	441.146796	7.141683	-0.014300	1.044505
60.853933	442.940438	7.146688	-0.014375	1.046487
61.308669	444.774651	7.151693	-0.014487	1.048538
61.350011	446.569022	7.156698	-0.014498	1.050461
61.591533	448.425905	7.161702	-0.014558	1.052487
61.639188	450.293788	7.166707	-0.014571	1.054483
61.784384	452.122935	7.171712	-0.014607	1.056453
61.948695	454.037810	7.176717	-0.014648	1.058513
61.991688	455.889901	7.181722	-0.014660	1.060480
62.051694	457.845807	7.186726	-0.014676	1.062556
62.129555	459.758768	7.191731	-0.014696	1.064586
62.215338	461.694177	7.196736	-0.014718	1.066637
62.310542	463.680987	7.201741	-0.014742	1.068740
62.451271	465.595855	7.206746	-0.014778	1.070773
62.743338	467.560540	7.211750	-0.014850	1.072882
62.902355	469.490405	7.216755	-0.014890	1.074926
63.089042	471.435993	7.221760	-0.014937	1.076987
63.318368	473.408282	7.226765	-0.014994	1.079080
63.336349	475.374645	7.231770	-0.015000	1.081123
63.533930	477.377849	7.236774	-0.015049	1.083234
63.769168	479.282472	7.241779	-0.015108	1.085247
63.952667	481.280988	7.246784	-0.015154	1.087342
64.049585	483.276911	7.251789	-0.015179	1.089415
64.278765	485.241103	7.256794	-0.015236	1.091476
64.634425	487.220891	7.261798	-0.015324	1.093572
64.882024	489.132957	7.266803	-0.015385	1.095575
65.029623	491.132518	7.271808	-0.015422	1.097645
65.350684	493.060155	7.276813	-0.015502	1.099670
65.609179	495.006784	7.281818	-0.015566	1.101699
65.947159	496.923365	7.286822	-0.015650	1.103709
66.074906	498.821722	7.291827	-0.015682	1.105657
66.238801	500.781888	7.296832	-0.015723	1.107672
66.540029	502.686576	7.301837	-0.015798	1.109652
66.583386	504.649064	7.306842	-0.015810	1.111639
66.930613	506.567750	7.311846	-0.015896	1.113634
66.777504	508.560477	7.316851	-0.015860	1.115609
66.776592	510.590486	7.321856	-0.015860	1.117645
67.045688	512.587469	7.326861	-0.015927	1.119694
67.141445	514.604812	7.331866	-0.015952	1.121728
67.333457	516.624931	7.336870	-0.016000	1.123778
67.536397	518.594371	7.341875	-0.016051	1.125776
67.782132	520.619128	7.346880	-0.016112	1.127833
68.006403	522.596319	7.351885	-0.016168	1.129835
68.024246	524.648000	7.356890	-0.016173	1.131871
68.288814	526.667184	7.361894	-0.016239	1.133914
68.423211	528.685662	7.366899	-0.016273	1.135931
68.707526	530.723565	7.371904	-0.016344	1.137989
69.035246	532.690875	7.376909	-0.016425	1.139982
69.203002	534.715587	7.381914	-0.016467	1.141999
69.534718	536.686749	7.386918	-0.016549	1.143990
69.730718	538.645120	7.391923	-0.016598	1.145940
70.148782	540.601764	7.396928	-0.016702	1.147925
70.388422	542.511258	7.401933	-0.016761	1.149829
70.334598	544.532344	7.406938	-0.016749	1.151786
70.456933	546.538251	7.411942	-0.016780	1.153757
70.532978	548.550914	7.416947	-0.016800	1.155722
70.719303	550.580146	7.421952	-0.016847	1.157720
70.738687	552.623493	7.426957	-0.016853	1.159698
70.836371	554.699456	7.431962	-0.016878	1.161719
70.891148	556.784369	7.436966	-0.016892	1.163737
70.954668	558.863147	7.441971	-0.016909	1.165747
71.051537	561.001378	7.446976	-0.016934	1.167816
71.226693	563.086973	7.451981	-0.016978	1.169845
71.283365	565.260285	7.456986	-0.016993	1.171933
71.653666	567.348065	7.461990	-0.017085	1.173991
72.041623	569.409207	7.466995	-0.017181	1.176022
72.262430	571.501650	7.472000	-0.017236	1.178051
72.556923	573.554876	7.477005	-0.017309	1.180051
72.766645	575.636734	7.482010	-0.017362	1.182061
72.973039	577.673318	7.487014	-0.017413	1.184024
73.211486	579.717121	7.492019	-0.017473	1.185996
73.212535	581.844009	7.497024	-0.017474	1.188003
73.510315	583.875434	7.502029	-0.017548	1.189967
73.709756	585.967169	7.507034	-0.017598	1.191968
73.896974	588.036488	7.512038	-0.017645	1.193942
73.970620	590.129403	7.517043	-0.017664	1.195916
74.137581	592.264525	7.522048	-0.017706	1.197942
74.472612	594.313295	7.527053	-0.017789	1.199912
74.525035	596.443946	7.532058	-0.017803	1.201907
74.900486	598.482038	7.537062	-0.017896	1.203867
75.094433	600.545643	7.542067	-0.017945	1.205818
75.255432	602.647512	7.547072	-0.017985	1.207795
75.501523	604.702699	7.552077	-0.018047	1.209740
75.492028	606.845794	7.557082	-0.018046	1.211721
75.722218	608.929797	7.562086	-0.018103	1.213683
75.729242	611.080404	7.567091	-0.018106	1.215667
75.884102	613.230122	7.572096	-0.018145	1.217671
76.038405	615.382441	7.577101	-0.018184	1.219674
76.174086	617.551901	7.582106	-0.018219	1.221687
76.299902	619.715155	7.587110	-0.018251	1.223689
76.477659	621.879837	7.592115	-0.018295	1.225697
76.559138	624.077188	7.597120	-0.018317	1.227716
76.692477	626.260728	7.602125	-0.018350	1.229728
77.074408	628.429400	7.607130	-0.018445	1.231763
77.244388	630.582013	7.612134	-0.018488	1.233746
77.524663	632.729133	7.617139	-0.018557	1.235739
77.817771	634.896615	7.622144	-0.018630	1.237749
78.012374	637.025031	7.627149	-0.018679	1.239704
78.192864	639.187085	7.632154	-0.018725	1.241684
78.560527	641.270619	7.637158	-0.018816	1.243621
78.924263	643.348522	7.642163	-0.018906	1.245549
79.147924	645.453088	7.647168	-0.018962	1.247475
79.400204	647.506894	7.652173	-0.019024	1.249357
79.549186	649.621375	7.657178	-0.019062	1.251274
79.628553	651.741806	7.662182	-0.019083	1.253183
79.751085	653.868784	7.667187	-0.019114	1.255102
79.899427	656.016394	7.672192	-0.019151	1.257040
80.025314	658.151786	7.677197	-0.019183	1.258960
79.915914	660.380487	7.682202	-0.019158	1.260924
80.109449	662.577479	7.687206	-0.019206	1.262904
80.154982	664.764074	7.692211	-0.019219	1.264848
80.175433	667.041925	7.697216	-0.019225	1.266866
80.453957	669.236928	7.702221	-0.019295	1.268848
80.601579	671.486603	7.707226	-0.019332	1.270855
80.752970	673.741179	7.712230	-0.019370	1.272863
81.110661	675.913893	7.717235	-0.019459	1.274829
81.321530	678.161234	7.722240	-0.019512	1.276834
81.742249	680.314458	7.727245	-0.019616	1.278786
81.973129	682.490972	7.732250	-0.019674	1.280726
82.201409	684.662217	7.737254	-0.019731	1.282658
82.437820	686.790176	7.742259	-0.019790	1.284550
82.503211	688.999925	7.747264	-0.019807	1.286485
82.546652	691.221114	7.752269	-0.019819	1.288423
82.671238	693.438569	7.757274	-0.019851	1.290368
82.767962	695.712786	7.762278	-0.019876	1.292355
82.974969	697.914927	7.767283	-0.019927	1.294292
83.024448	700.193428	7.772288	-0.019941	1.296270
83.185883	702.492662	7.777293	-0.019982	1.298279
83.507041	704.715603	7.782298	-0.020061	1.300243
83.774438	706.966003	7.787302	-0.020128	1.302220
84.201437	709.051627	7.792307	-0.020234	1.304076
84.265696	711.300390	7.797312	-0.020251	1.306015
84.644146	713.476584	7.802317	-0.020344	1.307936
84.842276	715.634898	7.807322	-0.020394	1.309812
85.018140	717.861822	7.812326	-0.020438	1.311740
85.186974	720.015672	7.817331	-0.020481	1.313603
85.277102	722.242557	7.822336	-0.020504	1.315513
85.426793	724.491572	7.827341	-0.020542	1.317448
85.387414	726.736322	7.832346	-0.020534	1.319348
85.274430	729.097573	7.837350	-0.020508	1.321333
85.347891	731.386900	7.842355	-0.020527	1.323283
85.305507	733.772786	7.847360	-0.020518	1.325293
85.454514	736.167856	7.852365	-0.020556	1.327337
85.585165	738.527999	7.857370	-0.020589	1.329346
85.900504	740.916108	7.862374	-0.020668	1.331402
86.065769	743.262582	7.867379	-0.020709	1.333398
86.323827	745.607887	7.872384	-0.020774	1.335403
86.784327	747.948340	7.877389	-0.020888	1.337431
86.967367	750.237945	7.882394	-0.020934	1.339373
87.343520	752.539906	7.887398	-0.021027	1.341350
87.574367	754.791612	7.892403	-0.021085	1.343262
87.770337	757.066474	7.897408	-0.021134	1.345185
87.990826	759.368570	7.902413	-0.021189	1.347131
88.148408	761.610359	7.907418	-0.021229	1.349016
88.437123	763.898631	7.912422	-0.021301	1.350955
88.544283	766.197556	7.917427	-0.021329	1.352874
88.619882	768.484308	7.922432	-0.021348	1.354776
88.908898	770.816836	7.927437	-0.021420	1.356743
88.961306	773.085432	7.932442	-0.021435	1.358621
89.041911	775.463643	7.937446	-0.021456	1.360591
89.431239	777.757904	7.942451	-0.021552	1.362533
89.499559	780.042058	7.947456	-0.021570	1.364418
89.680846	782.418007	7.952461	-0.021616	1.366392
89.998522	784.653987	7.957466	-0.021695	1.368267
90.066618	787.022400	7.962470	-0.021713	1.370213
90.191287	789.383061	7.967475	-0.021745	1.372158
90.437114	791.661943	7.972480	-0.021806	1.374051
90.509772	794.068254	7.977485	-0.021825	1.376020
90.608584	796.415869	7.982490	-0.021851	1.377942
90.671605	798.842261	7.987494	-0.021868	1.379921
90.823968	801.259017	7.992499	-0.021906	1.381901
90.968785	803.611909	7.997504	-0.021943	1.383826
91.088150	806.091178	8.002509	-0.021974	1.385847
91.254050	808.464861	8.007514	-0.022016	1.387786
91.454896	810.891510	8.012518	-0.022066	1.389770
91.765457	813.324695	8.017523	-0.022144	1.391771
91.937663	815.666630	8.022528	-0.022187	1.393678
92.253363	818.081863	8.027533	-0.022266	1.395660
92.531134	820.436638	8.032538	-0.022335	1.397585
92.849242	822.778641	8.037542	-0.022414	1.399504
93.211913	825.130565	8.042547	-0.022504	1.401433
93.339843	827.368759	8.047552	-0.022537	1.403238
93.626055	829.731743	8.052557	-0.022608	1.405160
93.790937	832.047133	8.057562	-0.022650	1.407026
93.713179	834.410731	8.062566	-0.022632	1.408894
93.776789	836.852681	8.067571	-0.022649	1.410842
93.787044	839.247110	8.072576	-0.022653	1.412742
93.785741	841.752690	8.077581	-0.022654	1.414725
93.829759	844.239582	8.082586	-0.022667	1.416697
94.004666	846.710654	8.087590	-0.022711	1.418672
94.077487	849.272290	8.092595	-0.022730	1.420701
94.230839	851.714686	8.097600	-0.022769	1.422645
94.415485	854.273127	8.102605	-0.022816	1.424681
94.692889	856.763100	8.107610	-0.022885	1.426673
95.203759	859.164869	8.112614	-0.023011	1.428625
95.635482	861.592045	8.117619	-0.023118	1.430583
95.744675	863.974623	8.122624	-0.023146	1.432461
96.213225	866.346298	8.127629	-0.023262	1.434375
96.368774	868.750600	8.132634	-0.023302	1.436270
96.641475	871.075733	8.137638	-0.023370	1.438117
96.849507	873.482280	8.142643	-0.023422	1.440017
97.057591	875.813844	8.147648	-0.023474	1.441855
97.079002	878.196235	8.152653	-0.023481	1.443706
96.985621	880.692610	8.157658	-0.023460	1.445628
97.049003	883.135450	8.162662	-0.023476	1.447526
97.090148	885.662937	8.167667	-0.023488	1.449484
97.093169	888.199343	8.172672	-0.023490	1.451442
97.343287	890.688562	8.177677	-0.023553	1.453393
97.540949	893.242115	8.182682	-0.023603	1.455384
97.748577	895.739615	8.187686	-0.023655	1.457330
98.093866	898.238886	8.192691	-0.023741	1.459293
98.350959	900.724248	8.197696	-0.023805	1.461232
98.622303	903.143646	8.202701	-0.023873	1.463119
99.102175	905.568224	8.207706	-0.023992	1.465034
99.307458	907.950312	8.212710	-0.024043	1.466879
99.682673	910.310716	8.217715	-0.024136	1.468728
99.693276	912.746979	8.222720	-0.024140	1.470584
99.971839	915.112728	8.227725	-0.024210	1.472419
99.970591	917.551185	8.232730	-0.024211	1.474271
100.064919	920.028802	8.237734	-0.024236	1.476163
100.047199	922.503464	8.242739	-0.024233	1.478035
100.069194	925.051114	8.247744	-0.024240	1.479966
100.195234	927.568982	8.252749	-0.024272	1.481885
100.450794	930.047545	8.257754	-0.024336	1.483788
100.455147	932.637359	8.262758	-0.024338	1.485740
100.833044	935.123019	8.267763	-0.024432	1.487659
101.003260	937.657512	8.272768	-0.024475	1.489586
101.334861	940.158933	8.277773	-0.024558	1.491506
101.543696	942.618810	8.282778	-0.024610	1.493377
101.892949	945.109037	8.287782	-0.024697	1.495286
102.180394	947.551601	8.292787	-0.024769	1.497149
102.397692	949.982793	8.297792	-0.024824	1.498993
102.750260	952.431725	8.302797	-0.024911	1.500864
102.827778	954.774651	8.307802	-0.024932	1.502619
103.001021	957.251328	8.312806	-0.024975	1.504484
103.150964	959.712999	8.317811	-0.025013	1.506333
103.279671	962.130408	8.322816	-0.025046	1.508144
103.354461	964.663678	8.327821	-0.025066	1.510031
103.423341	967.141874	8.332826	-0.025084	1.511875
103.443633	969.684498	8.337830	-0.025091	1.513758
103.621788	972.269528	8.342835	-0.025136	1.515690
103.726744	974.763942	8.347840	-0.025163	1.517544
103.788465	977.409436	8.352845	-0.025180	1.519501
104.053036	979.944108	8.357850	-0.025246	1.521399
104.254018	982.471878	8.362854	-0.025297	1.523281
104.734452	985.007493	8.367859	-0.025416	1.525202
104.856184	987.492818	8.372864	-0.025447	1.527039
105.118160	990.024022	8.377869	-0.025512	1.528925
105.367628	992.544735	8.382874	-0.025575	1.530799
105.573565	994.978198	8.387878	-0.025627	1.532602
105.848635	997.507066	8.392883	-0.025695	1.534480
106.111877	999.956020	8.397888	-0.025761	1.536297
106.231162	1002.452404	8.402893	-0.025792	1.538128
106.489301	1004.950308	8.407898	-0.025856	1.539976
106.620656	1007.398263	8.412902	-0.025890	1.541769
106.677565	1009.913002	8.417907	-0.025905	1.543600
106.757005	1012.469246	8.422912	-0.025926	1.545461
106.976060	1014.937106	8.427917	-0.025981	1.547273
107.066830	1017.514032	8.432922	-0.026005	1.549147
107.243837	1020.057671	8.437926	-0.026050	1.551004
107.485955	1022.558698	8.442931	-0.026111	1.552836
107.612310	1025.123024	8.447936	-0.026143	1.554698
107.846642	1027.668811	8.452941	-0.026202	1.556557
107.903887	1030.236519	8.457946	-0.026217	1.558408
108.314738	1032.776818	8.462950	-0.026319	1.560280
108.541977	1035.217440	8.467955	-0.026376	1.562056
108.675414	1037.756132	8.472960	-0.026410	1.563889
109.083788	1040.262253	8.477965	-0.026512	1.565729
109.252691	1042.692009	8.482970	-0.026554	1.567484
109.385073	1045.232847	8.487974	-0.026588	1.569312
109.489412	1047.767970	8.492979	-0.026615	1.571131
109.686222	1050.240047	8.497984	-0.026665	1.572913
109.892025	1052.792158	8.502989	-0.026717	1.574752
110.000517	1055.313062	8.507994	-0.026745	1.576554
110.076595	1057.865153	8.512998	-0.026765	1.578373
110.117575	1060.513329	8.518003	-0.026776	1.580254
110.254829	1062.985189	8.523008	-0.026811	1.582019
110.499980	1065.621240	8.528013	-0.026873	1.583911
110.652609	1068.216737	8.533018	-0.026912	1.585761
110.862374	1070.751834	8.538022	-0.026965	1.587572
111.089706	1073.373931	8.543027	-0.027022	1.589445
111.291052	1075.906903	8.548032	-0.027072	1.591251
111.402994	1078.497793	8.553037	-0.027101	1.593084
111.654186	1081.116156	8.558042	-0.027164	1.594951
111.921275	1083.625881	8.563047	-0.027231	1.596741
112.262191	1086.192377	8.568051	-0.027316	1.598577
112.452922	1088.733512	8.573056	-0.027364	1.600376
112.615523	1091.212225	8.578061	-0.027405	1.602127
112.608122	1093.834230	8.583066	-0.027405	1.603956
112.727977	1096.423295	8.588071	-0.027436	1.605774
113.130169	1098.954591	8.593075	-0.027536	1.607582
113.085234	1101.576673	8.598080	-0.027526	1.609401
113.312645	1104.171388	8.603085	-0.027584	1.611229
113.348264	1106.788665	8.608090	-0.027594	1.613049
113.628320	1109.415693	8.613095	-0.027664	1.614902
113.852646	1111.989997	8.618099	-0.027720	1.616710
114.062017	1114.595453	8.623104	-0.027773	1.618535
114.409881	1117.185988	8.628109	-0.027860	1.620364
114.616707	1119.695133	8.633114	-0.027912	1.622118
114.691039	1122.312356	8.638119	-0.027931	1.623930
115.039049	1124.863041	8.643123	-0.028018	1.625726
115.190909	1127.365376	8.648128	-0.028057	1.627464
115.362840	1129.976284	8.653133	-0.028100	1.629276
115.505558	1132.526417	8.658138	-0.028137	1.631042
115.678153	1135.073571	8.663143	-0.028180	1.632807
115.886074	1137.686660	8.668147	-0.028233	1.634620
115.977901	1140.243554	8.673152	-0.028257	1.636379
116.108716	1142.867283	8.678157	-0.028290	1.638186
116.346576	1145.487036	8.683162	-0.028350	1.640000
116.420173	1147.992872	8.688167	-0.028369	1.641716
116.694271	1150.653567	8.693171	-0.028438	1.643558
116.837046	1153.259722	8.698176	-0.028474	1.645347
117.053530	1155.832405	8.703181	-0.028529	1.647119
117.411400	1158.421991	8.708186	-0.028618	1.648916
117.619471	1160.976894	8.713191	-0.028670	1.650671
117.907688	1163.498734	8.718195	-0.028742	1.652410
118.039224	1166.059610	8.723200	-0.028776	1.654157
118.385095	1168.604169	8.728205	-0.028862	1.655915
118.660982	1171.082156	8.733210	-0.028931	1.657618
118.764609	1173.642115	8.738215	-0.028958	1.659355
118.933775	1176.132273	8.743219	-0.029001	1.661051
118.981598	1178.668585	8.748224	-0.029014	1.662764
119.061032	1181.295792	8.753229	-0.029035	1.664538
119.222687	1183.818341	8.758234	-0.029076	1.666250
119.288770	1186.450246	8.763239	-0.029094	1.668023
119.310799	1189.158279	8.768243	-0.029101	1.669840
119.579876	1191.674439	8.773248	-0.029168	1.671554
119.746074	1194.365416	8.778253	-0.029210	1.673371
119.804709	1197.056166	8.783258	-0.029226	1.675175
119.826024	1199.707409	8.788263	-0.029233	1.676946
120.093529	1202.431873	8.793267	-0.029300	1.678791
120.328814	1205.034440	8.798272	-0.029359	1.680549
120.551323	1207.684599	8.803277	-0.029415	1.682336
120.783178	1210.378686	8.808282	-0.029473	1.684150
120.863006	1213.010813	8.813287	-0.029494	1.685906
121.101958	1215.687943	8.818291	-0.029554	1.687706
121.407146	1218.354528	8.823296	-0.029631	1.689505
121.773344	1220.894803	8.828301	-0.029722	1.691225
121.939065	1223.540169	8.833306	-0.029764	1.692991
122.061332	1226.199350	8.838311	-0.029795	1.694759
122.429485	1228.740185	8.843315	-0.029887	1.696474
122.564676	1231.366119	8.848320	-0.029921	1.698218
122.740907	1233.998654	8.853325	-0.029966	1.699970
122.923408	1236.523696	8.858330	-0.030012	1.701649
123.169039	1239.142218	8.863335	-0.030074	1.703395
123.390586	1241.728091	8.868339	-0.030129	1.705115
123.333779	1244.326893	8.873344	-0.030117	1.706813
123.526141	1246.994045	8.878349	-0.030166	1.708579
123.771515	1249.614958	8.883354	-0.030227	1.710320
123.828016	1252.225552	8.888359	-0.030243	1.712032
124.082414	1254.891602	8.893363	-0.030306	1.713799
124.269525	1257.503462	8.898368	-0.030354	1.715521
124.460350	1260.132753	8.903373	-0.030402	1.717254
124.596145	1262.822008	8.908378	-0.030437	1.719019
124.720799	1265.408480	8.913383	-0.030469	1.720713
125.018151	1268.043826	8.918387	-0.030543	1.722456
125.166831	1270.716930	8.923392	-0.030581	1.724206
125.241137	1273.329230	8.928397	-0.030601	1.725907
125.480150	1276.023304	8.933402	-0.030661	1.727676
125.642602	1278.708253	8.938407	-0.030702	1.729430
126.031938	1281.263003	8.943411	-0.030799	1.731121
126.135982	1283.923519	8.948416	-0.030826	1.732849
126.299329	1286.602727	8.953421	-0.030867	1.734594
126.506381	1289.213031	8.958426	-0.030919	1.736297
126.785053	1291.838615	8.963431	-0.030989	1.738015
127.006631	1294.486139	8.968435	-0.031045	1.739740
127.119606	1297.010394	8.973440	-0.031074	1.741374
127.269321	1299.712263	8.978445	-0.031112	1.743123
127.474330	1302.338474	8.983450	-0.031164	1.744827
127.673953	1304.921356	8.988455	-0.031214	1.746502
127.788914	1307.621453	8.993459	-0.031244	1.748241
127.926835	1310.266166	8.998464	-0.031279	1.749946
128.224586	1312.863782	9.003469	-0.031354	1.751635
128.441388	1315.530146	9.008474	-0.031408	1.753358
128.367468	1318.195126	9.013479	-0.031392	1.755049
128.492574	1320.911436	9.018483	-0.031424	1.756792
128.676199	1323.610202	9.023488	-0.031471	1.758527
128.923732	1326.278268	9.028493	-0.031533	1.760247
129.063961	1328.943057	9.033498	-0.031569	1.761953
129.270113	1331.667303	9.038503	-0.031621	1.763701
129.587320	1334.309547	9.043507	-0.031700	1.765407
129.859653	1336.942263	9.048512	-0.031768	1.767101
129.916652	1339.649981	9.053517	-0.031783	1.768819
130.176222	1342.277583	9.058522	-0.031848	1.770505
130.268245	1344.938796	9.063527	-0.031873	1.772194
130.553465	1347.668322	9.068531	-0.031944	1.773943
130.795228	1350.253756	9.073536	-0.032005	1.775596
130.928179	1352.949806	9.078541	-0.032039	1.777306
131.025314	1355.658830	9.083546	-0.032064	1.779019
131.200653	1358.237412	9.088551	-0.032108	1.780656
131.423830	1360.966945	9.093555	-0.032165	1.782391
131.470906	1363.684937	9.098560	-0.032178	1.784099
131.667061	1366.310909	9.103565	-0.032227	1.785763
131.913884	1369.034529	9.108570	-0.032289	1.787492
132.004822	1371.756759	9.113575	-0.032313	1.789202
132.242174	1374.389978	9.118579	-0.032373	1.790870
132.309532	1377.150385	9.123584	-0.032391	1.792599
132.783681	1379.828923	9.128589	-0.032508	1.794315
133.084272	1382.421404	9.133594	-0.032583	1.795959
133.303366	1385.058173	9.138599	-0.032639	1.797621
133.688814	1387.673021	9.143603	-0.032734	1.799283
133.697803	1390.195927	9.148608	-0.032738	1.800851
133.982949	1392.847399	9.153613	-0.032809	1.802524
134.232794	1395.451745	9.158618	-0.032872	1.804162
134.323887	1397.968762	9.163623	-0.032896	1.805730
134.491930	1400.664032	9.168627	-0.032938	1.807414
134.455801	1403.333735	9.173632	-0.032931	1.809061
134.513123	1405.947098	9.178637	-0.032947	1.810681
134.503755	1408.755373	9.183642	-0.032946	1.812413
134.590656	1411.513394	9.188647	-0.032969	1.814122
134.776086	1414.257743	9.193651	-0.033016	1.815830
135.018495	1417.012903	9.198656	-0.033077	1.817548
135.213710	1419.794060	9.203661	-0.033127	1.819277
135.522219	1422.406546	9.208666	-0.033203	1.820910
135.816143	1425.125777	9.213671	-0.033277	1.822607
136.109983	1427.822425	9.218675	-0.033350	1.824288
136.378057	1430.395345	9.223680	-0.033417	1.825889
136.686208	1433.072607	9.228685	-0.033494	1.827557
137.022573	1435.676781	9.233690	-0.033578	1.829181
137.326856	1438.139024	9.238695	-0.033654	1.830713
137.546450	1440.761559	9.243699	-0.033709	1.832335
137.687952	1443.338344	9.248704	-0.033745	1.833919
137.731259	1445.893324	9.253709	-0.033757	1.835480
137.998094	1448.511213	9.258714	-0.033824	1.837099
138.081743	1451.140962	9.263719	-0.033846	1.838706
138.218129	1453.664693	9.268723	-0.033881	1.840252
138.318569	1456.311598	9.273728	-0.033907	1.841868
138.327430	1459.030035	9.278733	-0.033911	1.843518
138.403196	1461.675950	9.283738	-0.033931	1.845129
138.515697	1464.387667	9.288743	-0.033960	1.846781
138.727574	1467.178995	9.293747	-0.034014	1.848490
138.846113	1469.805407	9.298752	-0.034044	1.850088
139.011065	1472.554228	9.303757	-0.034086	1.851763
139.206831	1475.348745	9.308762	-0.034136	1.853468
139.403341	1478.000184	9.313767	-0.034186	1.855084
139.670122	1480.753687	9.318771	-0.034252	1.856767
140.024870	1483.442316	9.323776	-0.034341	1.858417
140.339893	1486.008080	9.328781	-0.034419	1.859989
140.572818	1488.653393	9.333786	-0.034478	1.861599
140.770301	1491.285925	9.338791	-0.034528	1.863197
141.190402	1493.844829	9.343795	-0.034632	1.864770
141.178537	1496.436794	9.348800	-0.034631	1.866322
141.375480	1499.086690	9.353805	-0.034680	1.867926
141.503907	1501.700809	9.358810	-0.034713	1.869501
141.479157	1504.343664	9.363815	-0.034709	1.871078
141.708703	1507.048842	9.368819	-0.034767	1.872714
141.853348	1509.705515	9.373824	-0.034804	1.874312
141.868398	1512.400209	9.378829	-0.034809	1.875920
142.101576	1515.137183	9.383834	-0.034867	1.877571
142.189614	1517.840445	9.388839	-0.034891	1.879187
142.448996	1520.494794	9.393843	-0.034956	1.880789
142.587040	1523.235117	9.398848	-0.034991	1.882429
142.955801	1525.910728	9.403853	-0.035083	1.884050
143.157348	1528.553294	9.408858	-0.035134	1.885635
143.616082	1531.177309	9.413863	-0.035247	1.887231
143.874151	1533.799280	9.418867	-0.035312	1.888806
143.968738	1536.340831	9.423872	-0.035337	1.890318
144.270507	1538.960601	9.428877	-0.035412	1.891893
144.464213	1541.597941	9.433882	-0.035461	1.893468
144.441488	1544.151709	9.438887	-0.035457	1.894972
144.550028	1546.866180	9.443891	-0.035485	1.896582
144.579584	1549.570538	9.448896	-0.035494	1.898178
144.683792	1552.195318	9.453901	-0.035521	1.899732
144.738418	1554.929349	9.458906	-0.035536	1.901344
144.892239	1557.681842	9.463911	-0.035575	1.902975
144.953637	1560.456003	9.468915	-0.035592	1.904609
145.255236	1563.193151	9.473920	-0.035667	1.906241
145.695677	1565.908343	9.478925	-0.035777	1.907871
146.030279	1568.514705	9.483930	-0.035860	1.909426
146.141000	1571.151652	9.488935	-0.035889	1.910979
146.541609	1573.822755	9.493939	-0.035988	1.912575
146.881577	1576.378857	9.498944	-0.036073	1.914098
147.116519	1578.927454	9.503949	-0.036132	1.915606
147.392617	1581.521747	9.508954	-0.036201	1.917143
147.480422	1584.071163	9.513959	-0.036224	1.918636
147.588006	1586.602454	9.518963	-0.036251	1.920119
147.696953	1589.234841	9.523968	-0.036280	1.921660
147.620928	1591.934179	9.528973	-0.036263	1.923223
147.576796	1594.602680	9.533978	-0.036254	1.924769
147.599959	1597.374096	9.538983	-0.036261	1.926379
147.691982	1600.221285	9.543987	-0.036285	1.928038
147.890547	1602.911074	9.548992	-0.036335	1.929613
148.110582	1605.708622	9.553997	-0.036391	1.931252
148.380360	1608.516564	9.559002	-0.036458	1.932899
148.507703	1611.229086	9.564007	-0.036491	1.934478
148.920730	1613.969087	9.569011	-0.036594	1.936095
149.245283	1616.670294	9.574016	-0.036675	1.937681
149.443296	1619.302740	9.579021	-0.036725	1.939216
149.812829	1621.932361	9.584026	-0.036817	1.940762
150.006888	1624.558035	9.589031	-0.036866	1.942290
150.376679	1627.153957	9.594035	-0.036958	1.943815
150.419580	1629.700666	9.599040	-0.036970	1.945282
150.491288	1632.396504	9.604045	-0.036989	1.946836
150.702486	1635.070781	9.609050	-0.037042	1.948388
150.701992	1637.638151	9.614055	-0.037043	1.949859
150.849962	1640.377322	9.619059	-0.037081	1.951441
150.884500	1643.136687	9.624064	-0.037091	1.953023
150.975670	1645.806342	9.629069	-0.037115	1.954558
151.040043	1648.638951	9.634074	-0.037133	1.956182
151.256895	1651.425897	9.639079	-0.037187	1.957791
151.567058	1654.087505	9.644083	-0.037265	1.959336
151.751740	1656.810693	9.649088	-0.037312	1.960904
151.985681	1659.570221	9.654093	-0.037371	1.962495
152.358603	1662.225891	9.659098	-0.037463	1.964038
152.544173	1664.866684	9.664103	-0.037510	1.965555
152.784675	1667.587469	9.669107	-0.037571	1.967122
153.037612	1670.220090	9.674112	-0.037634	1.968637
153.214030	1672.815456	9.679117	-0.037679	1.970125
153.505371	1675.509916	9.684122	-0.037752	1.971676
153.702664	1678.146010	9.689127	-0.037801	1.973186
153.883138	1680.729821	9.694131	-0.037847	1.974663
154.044449	1683.388565	9.699136	-0.037888	1.976181
154.216777	1686.041141	9.704141	-0.037932	1.977694
154.503450	1688.575830	9.709146	-0.038003	1.979149
154.403123	1691.234950	9.714151	-0.037980	1.980641
154.652174	1693.957967	9.719155	-0.038043	1.982197
154.831978	1696.587212	9.724160	-0.038088	1.983694
154.869991	1699.249846	9.729165	-0.038099	1.985196
155.035310	1701.999362	9.734170	-0.038141	1.986756
155.270236	1704.681150	9.739175	-0.038201	1.988283
155.379094	1707.323491	9.744179	-0.038229	1.989776
155.605205	1710.056948	9.749184	-0.038286	1.991329
156.012840	1712.742353	9.754189	-0.038387	1.992868
156.216396	1715.329120	9.759194	-0.038438	1.994334
156.273268	1718.011803	9.764199	-0.038454	1.995841
156.678338	1720.679672	9.769203	-0.038554	1.997367
156.904422	1723.194863	9.774208	-0.038611	1.998792
157.080052	1725.765947	9.779213	-0.038656	2.000243
157.224457	1728.453979	9.784218	-0.038692	2.001755
157.374959	1731.059781	9.789223	-0.038731	2.003221
157.461640	1733.663110	9.794227	-0.038754	2.004679
157.518737	1736.364612	9.799232	-0.038769	2.006189
157.624476	1739.105123	9.804237	-0.038797	2.007723
157.829722	1741.735571	9.809242	-0.038848	2.009203
157.779802	1744.496450	9.814247	-0.038838	2.010733
157.860562	1747.327297	9.819251	-0.038859	2.012312
158.068124	1750.064294	9.824256	-0.038912	2.013847
158.288991	1752.819246	9.829261	-0.038967	2.015393
158.477050	1755.641446	9.834266	-0.039015	2.016971
158.653358	1758.361000	9.839271	-0.039060	2.018491
159.074003	1761.048910	9.844275	-0.039164	2.020012
159.378991	1763.735947	9.849280	-0.039240	2.021522
159.526446	1766.425279	9.854285	-0.039278	2.023019
159.804830	1769.036863	9.859290	-0.039348	2.024483
160.063769	1771.706446	9.864295	-0.039413	2.025976
160.406723	1774.344950	9.869299	-0.039498	2.027457
160.478216	1776.880685	9.874304	-0.039517	2.028860
160.577685	1779.549198	9.879309	-0.039543	2.030336
160.710790	1782.260818	9.884314	-0.039577	2.031838
160.696719	1784.928664	9.889319	-0.039575	2.033303
160.904425	1787.629848	9.894323	-0.039628	2.034803
161.001463	1790.375783	9.899328	-0.039653	2.036317
161.254801	1793.097281	9.904333	-0.039717	2.037830
161.423567	1795.722188	9.909338	-0.039759	2.039281
161.737722	1798.415064	9.914343	-0.039838	2.040780
162.190062	1801.085844	9.919347	-0.039950	2.042277
162.385695	1803.636810	9.924352	-0.039999	2.043687
162.756807	1806.197239	9.929357	-0.040092	2.045115
163.013705	1808.775381	9.934362	-0.040156	2.046543
163.129077	1811.337066	9.939367	-0.040186	2.047950
163.397797	1813.807798	9.944371	-0.040253	2.049318
163.473699	1816.423966	9.949376	-0.040273	2.050749
163.582775	1819.011988	9.954381	-0.040301	2.052166
163.670278	1821.641653	9.959386	-0.040324	2.053604
163.701196	1824.244521	9.964391	-0.040333	2.055021
163.599391	1827.014187	9.969395	-0.040310	2.056518
163.724711	1829.735816	9.974400	-0.040342	2.058006
163.817782	1832.403902	9.979405	-0.040367	2.059460
164.218646	1835.179990	9.984410	-0.040466	2.060996
164.402374	1837.873959	9.989415	-0.040513	2.062470
164.736814	1840.474264	9.994419	-0.040596	2.063903
165.004000	1843.153597	9.999424	-0.040663	2.065373
165.221067	1845.786880	10.004429	-0.040718	2.066814
165.448864	1848.410408	10.009434	-0.040775	2.068248
165.679185	1850.965744	10.014439	-0.040833	2.069645
165.869259	1853.609350	10.019443	-0.040881	2.071086
166.116984	1856.245774	10.024448	-0.040943	2.072526
166.363159	1858.724601	10.029453	-0.041005	2.073880
166.511508	1861.394780	10.034458	-0.041043	2.075329
166.523180	1864.001225	10.039463	-0.041047	2.076732
166.730306	1866.586050	10.044467	-0.041099	2.078138

167.041670	1868.998613	10.049472	-0.041177	2.079457
167.112858	1871.526233	10.054477	-0.041196	2.080820
167.266035	1874.035758	10.059482	-0.041235	2.082178
167.359915	1876.373352	10.064487	-0.041259	2.083438
167.581431	1878.773858	10.069491	-0.041314	2.084742
167.718879	1881.144661	10.074496	-0.041349	2.086022
167.877971	1883.473628	10.079501	-0.041390	2.087280
168.061008	1885.666077	10.084506	-0.041436	2.088467
168.106415	1887.895909	10.089511	-0.041448	2.089662
168.369578	1890.128124	10.094515	-0.041514	2.090874
168.385918	1892.329574	10.099520	-0.041519	2.092051
168.459143	1894.478304	10.104525	-0.041538	2.093203
168.793697	1896.556825	10.109530	-0.041621	2.094337
168.880096	1898.620566	10.114535	-0.041643	2.095444
169.258504	1900.616710	10.119539	-0.041737	2.096536
169.476070	1902.572123	10.124544	-0.041791	2.097593
169.665856	1904.285776	10.129549	-0.041839	2.098519
169.916638	1906.122516	10.134554	-0.041901	2.099515
170.067347	1907.886173	10.139559	-0.041939	2.100464
170.260425	1909.634998	10.144563	-0.041987	2.101408
170.320384	1911.363395	10.149568	-0.042002	2.102331
170.447189	1912.929110	10.154573	-0.042034	2.103172
170.451530	1914.590327	10.159578	-0.042036	2.104054
170.342883	1916.290771	10.164583	-0.042011	2.104948
170.514861	1917.972820	10.169587	-0.042054	2.105853
170.605710	1919.651991	10.174592	-0.042077	2.106750
170.704960	1921.242623	10.179597	-0.042102	2.107600
170.912484	1922.671065	10.184602	-0.042153	2.108372
171.057295	1924.213814	10.189607	-0.042190	2.109200
171.226136	1925.721376	10.194611	-0.042232	2.110011
171.238296	1927.188951	10.199616	-0.042235	2.110788
171.535823	1928.589924	10.204621	-0.042309	2.111551
171.674055	1930.029408	10.209626	-0.042343	2.112322
171.873236	1931.233164	10.214631	-0.042393	2.112973
172.213987	1932.452357	10.219635	-0.042476	2.113643
172.281365	1933.649652	10.224640	-0.042493	2.114280
172.286587	1934.883214	10.229645	-0.042495	2.114932
172.352879	1936.107430	10.234650	-0.042512	2.115583
172.201050	1937.297457	10.239655	-0.042476	2.116199
172.294774	1938.535445	10.244659	-0.042499	2.116859
172.342187	1939.770832	10.249664	-0.042511	2.117514
172.527122	1940.733930	10.254669	-0.042557	2.118036
172.555837	1941.914285	10.259674	-0.042565	2.118660
172.591250	1943.025917	10.264679	-0.042574	2.119248
172.901792	1944.142105	10.269683	-0.042650	2.119859
172.999668	1945.160290	10.274688	-0.042674	2.120403
173.122602	1946.109129	10.279693	-0.042705	2.120911
173.390523	1947.165196	10.284698	-0.042771	2.121487
173.576648	1947.945245	10.289703	-0.042817	2.121911
173.847702	1948.860482	10.294707	-0.042883	2.122412
173.741799	1949.570060	10.299712	-0.042858	2.122778
173.840825	1950.374050	10.304717	-0.042882	2.123208
173.970855	1951.175667	10.309722	-0.042914	2.123639
173.842949	1951.895540	10.314727	-0.042883	2.124008
173.975523	1952.776712	10.319731	-0.042916	2.124481
173.809566	1953.599298	10.324736	-0.042876	2.124901
173.660352	1954.400092	10.329741	-0.042840	2.125310
173.592455	1955.367111	10.334746	-0.042823	2.125813
173.576051	1956.157749	10.339751	-0.042820	2.126227
173.656770	1957.123205	10.344755	-0.042840	2.126740
173.725672	1957.908849	10.349760	-0.042857	2.127158
173.848321	1958.783536	10.354765	-0.042887	2.127626
173.961103	1959.446793	10.359770	-0.042915	2.127982
174.103121	1960.114429	10.364775	-0.042950	2.128342
174.279490	1960.867577	10.369779	-0.042993	2.128750
174.455398	1961.559630	10.374784	-0.043036	2.129126
174.557638	1962.181389	10.379789	-0.043062	2.129459
174.831192	1962.720166	10.384794	-0.043129	2.129762
174.977200	1963.244318	10.389799	-0.043164	2.130047
175.084610	1963.794169	10.394803	-0.043191	2.130343
175.061015	1964.303642	10.399808	-0.043185	2.130608
175.033129	1964.767600	10.404813	-0.043178	2.130849
175.121084	1965.265553	10.409818	-0.043200	2.131117
174.993474	1965.759577	10.414823	-0.043169	2.131366
174.980335	1966.288399	10.419827	-0.043166	2.131642
174.984551	1966.811896	10.424832	-0.043167	2.131916
174.888467	1967.398586	10.429837	-0.043144	2.132217
175.021456	1967.991977	10.434842	-0.043176	2.132537
174.939536	1968.400347	10.439847	-0.043156	2.132745
175.230253	1968.827946	10.444851	-0.043227	2.132990
175.329022	1969.204437	10.449856	-0.043251	2.133194
175.465636	1969.638941	10.454861	-0.043285	2.133431
175.394440	1970.132494	10.459866	-0.043267	2.133684
175.514621	1970.374881	10.464871	-0.043297	2.133820
175.639194	1970.830889	10.469875	-0.043327	2.134067
175.672727	1971.155181	10.474880	-0.043335	2.134239
175.616664	1971.418536	10.479885	-0.043322	2.134373
175.660818	1971.932394	10.484890	-0.043333	2.134645
175.599320	1972.107613	10.489895	-0.043317	2.134732
175.601837	1972.673009	10.494899	-0.043318	2.135028
175.455596	1972.992556	10.499904	-0.043282	2.135184
175.650777	1973.228307	10.504909	-0.043330	2.135321
175.706615	1973.778397	10.509914	-0.043344	2.135613
175.748355	1973.872179	10.514919	-0.043354	2.135665
175.890812	1974.412430	10.519923	-0.043389	2.135958
176.039542	1974.376410	10.524928	-0.043425	2.135950
176.180409	1974.886500	10.529933	-0.043459	2.136226
176.012636	1975.033877	10.534938	-0.043418	2.136291
176.169163	1975.125205	10.539943	-0.043456	2.136350
176.362342	1975.545098	10.544947	-0.043503	2.136584
176.358032	1975.545548	10.549952	-0.043502	2.136583
176.341875	1975.538381	10.554957	-0.043498	2.136578
176.452961	1975.977184	10.559962	-0.043525	2.136816
176.393669	1976.148977	10.564967	-0.043510	2.136901
176.238910	1976.180456	10.569971	-0.043472	2.136906
176.250807	1976.330726	10.574976	-0.043475	2.136985
176.034127	1976.805821	10.579981	-0.043422	2.137218
176.048125	1976.830324	10.584986	-0.043425	2.137232
176.164043	1977.241701	10.589991	-0.043454	2.137455
176.178523	1977.444249	10.594995	-0.043457	2.137562
176.247888	1977.433583	10.600000	-0.043474	2.137561
176.305317	1977.714166	10.605005	-0.043488	2.137712
176.408736	1977.819224	10.610010	-0.043513	2.137774
176.451111	1977.789886	10.615015	-0.043523	2.137762
176.550042	1977.793949	10.620019	-0.043547	2.137771
176.622274	1978.095526	10.625024	-0.043564	2.137933
176.655609	1978.354097	10.630029	-0.043572	2.138071
176.677718	1978.383763	10.635034	-0.043578	2.138088
176.523068	1978.377857	10.640039	-0.043540	2.138073
176.521508	1978.393768	10.645043	-0.043539	2.138082
176.459152	1978.400173	10.650048	-0.043523	2.138080
176.399847	1978.989392	10.655053	-0.043509	2.138384
176.403027	1979.006142	10.660058	-0.043510	2.138393
176.393583	1978.983684	10.665063	-0.043507	2.138380
176.397094	1979.027295	10.670067	-0.043508	2.138403
176.546501	1979.604708	10.675072	-0.043544	2.138715
176.579545	1979.581440	10.680077	-0.043552	2.138705
176.685451	1979.593221	10.685082	-0.043578	2.138719
176.710440	1979.572863	10.690087	-0.043584	2.138710
176.886047	1979.553153	10.695091	-0.043626	2.138713
177.112042	1979.527655	10.700096	-0.043681	2.138716
177.091343	1979.520508	10.705101	-0.043676	2.138710
177.264965	1979.520510	10.710106	-0.043718	2.138723
177.100657	1979.512639	10.715111	-0.043678	2.138707
177.190935	1979.512534	10.720115	-0.043699	2.138713
177.078994	1979.536275	10.725120	-0.043672	2.138717
177.184248	1979.500903	10.730125	-0.043697	2.138706
177.189045	1979.531486	10.735130	-0.043698	2.138723
177.024600	1979.532904	10.740135	-0.043658	2.138711
176.952757	1979.547199	10.745139	-0.043640	2.138713
177.047505	1979.544381	10.750144	-0.043663	2.138719
177.123648	1979.512745	10.755149	-0.043681	2.138708
177.068552	1979.542361	10.760154	-0.043667	2.138719
177.111107	1979.454682	10.765159	-0.043677	2.138676
177.059000	1978.911018	10.770163	-0.043664	2.138389
177.125201	1978.900195	10.775168	-0.043680	2.138388
177.162543	1978.888890	10.780173	-0.043689	2.138384
177.106761	1978.910526	10.785178	-0.043675	2.138392
177.122270	1978.885505	10.790183	-0.043678	2.138380
177.190830	1978.894088	10.795187	-0.043695	2.138389
177.139958	1978.892322	10.800192	-0.043682	2.138384
177.208812	1978.878441	10.805197	-0.043699	2.138382
177.287877	1978.885866	10.810202	-0.043718	2.138391
177.298325	1978.861248	10.815207	-0.043720	2.138379
177.333868	1978.867831	10.820211	-0.043728	2.138385
177.384099	1978.518708	10.825216	-0.043740	2.138206
177.272999	1978.272993	10.830221	-0.043713	2.138070
177.433084	1978.276951	10.835226	-0.043752	2.138084
177.333115	1978.265256	10.840231	-0.043727	2.138070
177.631584	1978.229698	10.845235	-0.043799	2.138073
177.375623	1978.198681	10.850240	-0.043737	2.138038
177.456752	1977.652542	10.855245	-0.043756	2.137759
177.410426	1977.683625	10.860250	-0.043744	2.137772
177.282782	1977.673083	10.865255	-0.043713	2.137757
177.269487	1977.691217	10.870259	-0.043709	2.137765
177.126007	1977.709472	10.875264	-0.043674	2.137764
176.951555	1977.719469	10.880269	-0.043631	2.137757
177.073759	1977.728973	10.885274	-0.043661	2.137771
176.908927	1977.729566	10.890279	-0.043620	2.137759
176.804491	1977.757650	10.895283	-0.043594	2.137766
176.842690	1977.753698	10.900288	-0.043603	2.137767
176.738735	1977.750033	10.905293	-0.043578	2.137757
177.044401	1977.738876	10.910298	-0.043652	2.137773
177.132856	1977.702848	10.915303	-0.043674	2.137761
177.363727	1977.682637	10.920307	-0.043730	2.137767
177.474338	1977.672827	10.925312	-0.043756	2.137770
177.740821	1977.334752	10.930317	-0.043821	2.137612
177.905597	1977.239127	10.935322	-0.043861	2.137574
178.016030	1977.094256	10.940327	-0.043888	2.137507
178.043850	1976.552047	10.945331	-0.043894	2.137225
178.033932	1976.562239	10.950336	-0.043891	2.137230
177.975074	1975.975058	10.955341	-0.043876	2.136919
177.949656	1975.973656	10.960346	-0.043869	2.136916
177.832262	1975.616049	10.965351	-0.043840	2.136721
177.650646	1975.390760	10.970355	-0.043795	2.136590
177.629959	1975.396469	10.975360	-0.043790	2.136591
177.464101	1975.399916	10.980365	-0.043749	2.136581
177.481109	1974.851384	10.985370	-0.043753	2.136295
177.280717	1974.852759	10.990375	-0.043704	2.136281
177.248712	1974.868102	10.995379	-0.043696	2.136287
177.474096	1974.839964	11.000384	-0.043750	2.136288
177.423320	1974.829240	11.005389	-0.043738	2.136279
177.662401	1974.563251	11.010394	-0.043796	2.136157
177.623687	1974.165600	11.015399	-0.043786	2.135947
177.809000	1974.148095	11.020403	-0.043831	2.135951
177.800105	1973.956865	11.025408	-0.043828	2.135850
177.790266	1973.554368	11.030413	-0.043825	2.135639
177.916380	1973.554630	11.035418	-0.043856	2.135648
177.694144	1973.208822	11.040423	-0.043801	2.135451
177.752107	1972.957604	11.045427	-0.043815	2.135324
177.749341	1972.969483	11.050432	-0.043814	2.135330
177.715068	1972.700035	11.055437	-0.043805	2.135186
177.741428	1972.406667	11.060442	-0.043811	2.135035
177.524939	1972.420156	11.065447	-0.043758	2.135026
177.622879	1972.418053	11.070451	-0.043781	2.135032
177.605842	1971.794951	11.075456	-0.043776	2.134705
177.534756	1971.765277	11.080461	-0.043759	2.134684
177.464109	1971.811051	11.085466	-0.043741	2.134703
177.411012	1971.794996	11.090471	-0.043728	2.134690
177.392777	1971.509382	11.095475	-0.043723	2.134540
177.636417	1971.186228	11.100480	-0.043782	2.134388
177.517352	1971.174564	11.105485	-0.043753	2.134373
177.525121	1971.209445	11.110490	-0.043754	2.134392
177.564408	1971.029869	11.115495	-0.043764	2.134301
177.623409	1970.572159	11.120499	-0.043777	2.134066
177.456579	1970.600850	11.125504	-0.043736	2.134069
177.533750	1970.569695	11.130509	-0.043755	2.134058
177.719634	1970.389775	11.135514	-0.043800	2.133977
177.703545	1969.976868	11.140519	-0.043796	2.133760
177.640927	1969.997649	11.145523	-0.043780	2.133766
177.673734	1970.004579	11.150528	-0.043788	2.133772
177.611298	1969.377416	11.155533	-0.043772	2.133439
177.788808	1969.365733	11.160538	-0.043815	2.133446
177.842392	1969.330401	11.165543	-0.043828	2.133431
177.847835	1968.780099	11.170547	-0.043828	2.133144
177.981835	1968.746123	11.175552	-0.043861	2.133135
177.842627	1968.464999	11.180557	-0.043826	2.132978
177.890066	1968.155877	11.185562	-0.043837	2.132820
177.862034	1968.143820	11.190567	-0.043830	2.132811
177.691137	1967.823019	11.195571	-0.043788	2.132631
177.710307	1967.723304	11.200576	-0.043792	2.132580
177.593025	1967.719776	11.205581	-0.043764	2.132569
177.836290	1967.429412	11.210586	-0.043823	2.132435
177.731617	1967.053562	11.215591	-0.043796	2.132230
177.681443	1967.062176	11.220595	-0.043784	2.132231
177.686422	1966.899167	11.225600	-0.043785	2.132146
177.710598	1966.447042	11.230605	-0.043790	2.131911
177.812137	1966.463779	11.235610	-0.043815	2.131927
177.819736	1966.250950	11.240615	-0.043816	2.131816
177.770442	1965.835332	11.245619	-0.043803	2.131595
177.963290	1965.822084	11.250624	-0.043850	2.131602
177.795487	1965.377391	11.255629	-0.043809	2.131357
177.855256	1965.274472	11.260634	-0.043823	2.131307
177.732778	1965.265726	11.265639	-0.043793	2.131293
177.726855	1964.731263	11.270643	-0.043791	2.131013
177.713252	1964.662693	11.275648	-0.043787	2.130976
177.676314	1964.640570	11.280653	-0.043778	2.130962
177.741547	1964.271461	11.285658	-0.043793	2.130773
177.637542	1964.061459	11.290663	-0.043767	2.130655
177.546404	1964.075178	11.295667	-0.043745	2.130656
177.539625	1964.090570	11.300672	-0.043743	2.130663
177.578513	1963.484210	11.305677	-0.043752	2.130348
177.465489	1963.495911	11.310682	-0.043724	2.130346
177.455401	1963.475126	11.315687	-0.043721	2.130334
177.424008	1963.489174	11.320691	-0.043713	2.130339
177.580174	1963.298728	11.325696	-0.043751	2.130251
177.566974	1962.895084	11.330701	-0.043747	2.130038
177.557931	1962.920019	11.335706	-0.043745	2.130050
177.513364	1962.905523	11.340711	-0.043734	2.130039
177.488711	1962.750674	11.345715	-0.043727	2.129956
177.446607	1962.286198	11.350720	-0.043716	2.129710
177.383906	1962.280779	11.355725	-0.043701	2.129702
177.546119	1962.283969	11.360730	-0.043740	2.129716
177.515995	1962.263299	11.365735	-0.043732	2.129703
177.622409	1961.913978	11.370739	-0.043758	2.129527
177.635906	1961.667224	11.375744	-0.043761	2.129399
177.794357	1961.632228	11.380749	-0.043799	2.129392
177.748908	1961.416017	11.385754	-0.043788	2.129275
177.808550	1961.022961	11.390759	-0.043802	2.129073
177.924824	1961.008419	11.395763	-0.043830	2.129074
177.936752	1960.672935	11.400768	-0.043832	2.128899
177.814635	1960.453755	11.405773	-0.043802	2.128775
177.855243	1960.455397	11.410778	-0.043812	2.128779
177.771370	1959.829747	11.415783	-0.043790	2.128444
177.769833	1959.834576	11.420787	-0.043790	2.128447
177.650676	1959.871846	11.425792	-0.043760	2.128457
177.589583	1959.308287	11.430797	-0.043745	2.128157
177.478865	1959.313139	11.435802	-0.043718	2.128152
177.333921	1959.312937	11.440807	-0.043682	2.128141
177.337181	1959.315609	11.445811	-0.043682	2.128142
177.343579	1959.324391	11.450816	-0.043684	2.128147
177.261672	1959.101491	11.455821	-0.043663	2.128024
177.429018	1958.732342	11.460826	-0.043704	2.127843
177.531005	1958.698063	11.465831	-0.043728	2.127832
177.647129	1958.676691	11.470835	-0.043756	2.127829
177.877504	1958.534992	11.475840	-0.043812	2.127772
177.789479	1958.218984	11.480845	-0.043790	2.127599
177.933128	1958.220848	11.485850	-0.043825	2.127611
177.996736	1957.744252	11.490855	-0.043840	2.127365
177.957660	1957.557706	11.495859	-0.043830	2.127264
178.094444	1957.331512	11.500864	-0.043863	2.127156
177.943630	1956.942268	11.505869	-0.043826	2.126940
177.978947	1956.858102	11.510874	-0.043834	2.126899
177.764680	1956.377251	11.515879	-0.043781	2.126630
177.713468	1956.385725	11.520883	-0.043768	2.126631
177.617025	1956.414770	11.525888	-0.043744	2.126639
177.574938	1955.841331	11.530893	-0.043734	2.126335
177.566589	1955.850672	11.535898	-0.043731	2.126339
177.551008	1955.834264	11.540903	-0.043727	2.126329
177.667235	1955.749848	11.545907	-0.043755	2.126293
177.637640	1955.209540	11.550912	-0.043747	2.126007
177.458279	1955.208523	11.555917	-0.043703	2.125994
177.646595	1955.215430	11.560922	-0.043749	2.126011
177.765234	1954.943134	11.565927	-0.043778	2.125877
177.640627	1954.601617	11.570931	-0.043747	2.125688
177.697644	1954.618193	11.575936	-0.043760	2.125701
177.674737	1954.563286	11.580941	-0.043754	2.125670
177.661324	1954.022963	11.585946	-0.043750	2.125385
177.742284	1953.986276	11.590951	-0.043770	2.125372
177.730955	1953.993949	11.595955	-0.043767	2.125375
177.706080	1953.547107	11.600960	-0.043760	2.125138
177.554907	1953.440272	11.605965	-0.043723	2.125071
177.662171	1953.451915	11.610970	-0.043749	2.125085
177.572833	1953.312994	11.615975	-0.043727	2.125005
177.636786	1952.803647	11.620979	-0.043742	2.124742
177.778748	1952.798566	11.625984	-0.043776	2.124750
177.661146	1952.791641	11.630989	-0.043747	2.124738
177.877799	1952.242652	11.635994	-0.043799	2.124465
177.789334	1952.185039	11.640999	-0.043778	2.124428
177.673954	1952.148406	11.646003	-0.043749	2.124400
177.547230	1951.631335	11.651008	-0.043717	2.124119
177.428076	1951.612462	11.656013	-0.043688	2.124100
177.545516	1951.626233	11.661018	-0.043716	2.124116
177.647266	1951.601209	11.666023	-0.043741	2.124110
177.740897	1951.084961	11.671027	-0.043763	2.123846
177.741840	1951.036580	11.676032	-0.043763	2.123820
177.604969	1951.027014	11.681037	-0.043730	2.123805
177.701258	1950.661294	11.686042	-0.043753	2.123620
177.623888	1950.419872	11.691047	-0.043733	2.123487
177.586558	1950.422854	11.696051	-0.043724	2.123486
177.572315	1950.443992	11.701056	-0.043720	2.123496
177.461857	1949.880955	11.706061	-0.043692	2.123192
177.476091	1949.872293	11.711066	-0.043696	2.123188
177.299417	1949.877198	11.716071	-0.043652	2.123178
177.378961	1949.860911	11.721075	-0.043671	2.123175
177.338911	1949.885943	11.726080	-0.043661	2.123185
177.230750	1949.873278	11.731085	-0.043635	2.123170
177.563397	1949.342908	11.736090	-0.043715	2.122916
177.674825	1949.236990	11.741095	-0.043742	2.122868
177.851901	1949.206206	11.746099	-0.043785	2.122865
178.030207	1948.871632	11.751104	-0.043828	2.122702
177.974526	1948.748376	11.756109	-0.043814	2.122633
177.990029	1948.439811	11.761114	-0.043818	2.122472
177.944914	1948.115396	11.766119	-0.043806	2.122298
178.067332	1947.989272	11.771123	-0.043836	2.122240
177.935045	1947.528120	11.776128	-0.043803	2.121988
177.820050	1947.517321	11.781133	-0.043774	2.121974
177.673263	1947.202428	11.786138	-0.043738	2.121797
177.381387	1946.984643	11.791143	-0.043666	2.121661
177.317159	1946.989308	11.796147	-0.043650	2.121659
177.194711	1947.014854	11.801152	-0.043620	2.121663
177.331211	1946.972521	11.806157	-0.043653	2.121651
177.289925	1947.003944	11.811162	-0.043643	2.121664
177.338743	1946.949525	11.816167	-0.043654	2.121639
177.478150	1946.389800	11.821171	-0.043688	2.121355
177.476563	1946.418645	11.826176	-0.043687	2.121370
177.537250	1946.374438	11.831181	-0.043702	2.121351
177.854687	1946.266218	11.836186	-0.043779	2.121317
177.827076	1945.723356	11.841191	-0.043772	2.121029
177.838513	1945.718945	11.846195	-0.043774	2.121028
177.861502	1945.479843	11.851200	-0.043779	2.120903
177.842032	1945.127784	11.856205	-0.043774	2.120716
177.744287	1945.148105	11.861210	-0.043750	2.120720
177.521440	1944.899483	11.866215	-0.043695	2.120572
177.531451	1944.567379	11.871219	-0.043697	2.120398
177.369571	1944.610590	11.876224	-0.043657	2.120409
177.332607	1944.587146	11.881229	-0.043648	2.120394
177.471652	1944.589819	11.886234	-0.043682	2.120405
177.504559	1944.403652	11.891239	-0.043689	2.120310
177.473810	1944.013553	11.896243	-0.043681	2.120102
177.566717	1944.018811	11.901248	-0.043704	2.120112
177.595033	1943.987441	11.906253	-0.043710	2.120097
177.685526	1943.775473	11.911258	-0.043732	2.119992
177.727261	1943.347153	11.916263	-0.043742	2.119769
177.860762	1943.320063	11.921267	-0.043774	2.119765
177.856937	1943.091366	11.926272	-0.043773	2.119644
177.925082	1942.713057	11.931277	-0.043789	2.119450
177.855540	1942.749592	11.936282	-0.043771	2.119464
177.817247	1942.196556	11.941287	-0.043761	2.119169
177.761751	1942.140166	11.946291	-0.043748	2.119136
177.575865	1942.189396	11.951296	-0.043702	2.119148
177.509325	1941.779629	11.956301	-0.043685	2.118927
177.473151	1941.631677	11.961306	-0.043676	2.118846
177.302452	1941.645310	11.966311	-0.043634	2.118841
177.314225	1941.628116	11.971315	-0.043636	2.118832
177.392129	1941.647006	11.976320	-0.043655	2.118848
177.249092	1941.639888	11.981325	-0.043620	2.118834
177.408590	1941.216081	11.986330	-0.043658	2.118622
177.464698	1941.002238	11.991335	-0.043672	2.118513
177.558106	1940.979563	11.996339	-0.043694	2.118508
177.544205	1941.003278	12.001344	-0.043691	2.118520
177.542289	1940.859751	12.006349	-0.043690	2.118444
177.596385	1940.410168	12.011354	-0.043702	2.118211
177.666251	1940.388413	12.016359	-0.043719	2.118204
177.735672	1940.361686	12.021363	-0.043736	2.118195
177.845732	1939.925354	12.026368	-0.043762	2.117973
177.697938	1939.768792	12.031373	-0.043726	2.117880
177.750451	1939.785588	12.036378	-0.043738	2.117892
177.722699	1939.497965	12.041383	-0.043731	2.117739
177.729505	1939.396794	12.046387	-0.043732	2.117686
177.618051	1939.431769	12.051392	-0.043705	2.117696
177.680764	1939.084752	12.056397	-0.043720	2.117517
177.610659	1938.782085	12.061402	-0.043702	2.117353
177.716059	1938.768685	12.066407	-0.043728	2.117353
177.630121	1938.724309	12.071411	-0.043706	2.117323
177.643130	1938.194864	12.076416	-0.043709	2.117045
177.429898	1938.200558	12.081421	-0.043657	2.117032
177.550236	1938.196019	12.086426	-0.043686	2.117039
177.433164	1938.202772	12.091431	-0.043657	2.117034
177.212464	1938.012393	12.096435	-0.043602	2.116917
177.140998	1937.662661	12.101440	-0.043584	2.116727
177.192443	1937.620994	12.106445	-0.043597	2.116709
177.268383	1937.632130	12.111450	-0.043615	2.116720
177.356574	1937.614918	12.116455	-0.043636	2.116717
177.329148	1937.600260	12.121459	-0.043629	2.116708
177.521239	1937.593083	12.126464	-0.043676	2.116718
177.412605	1937.571433	12.131469	-0.043649	2.116698
177.672992	1937.008438	12.136474	-0.043712	2.116421
177.852687	1936.966001	12.141479	-0.043756	2.116411
177.935468	1936.827932	12.146483	-0.043776	2.116344
177.957350	1936.340680	12.151488	-0.043780	2.116089
177.954188	1936.310209	12.156493	-0.043779	2.116073
177.933832	1935.854071	12.161498	-0.043774	2.115830
177.947393	1935.750565	12.166503	-0.043777	2.115777
177.800547	1935.563013	12.171507	-0.043740	2.115667
177.612565	1935.209090	12.176512	-0.043694	2.115466
177.472795	1935.204543	12.181517	-0.043660	2.115453
177.255791	1935.251025	12.186522	-0.043606	2.115462
177.152057	1935.281364	12.191527	-0.043581	2.115470
177.160444	1935.251062	12.196531	-0.043583	2.115454
177.341910	1935.210742	12.201536	-0.043627	2.115446
177.257476	1934.672041	12.206541	-0.043605	2.115156
177.317481	1934.670006	12.211546	-0.043620	2.115159
177.357749	1934.675465	12.216551	-0.043629	2.115165
177.382986	1934.652568	12.221555	-0.043635	2.115155
177.398954	1934.676213	12.226560	-0.043639	2.115168
177.414025	1934.650893	12.231565	-0.043642	2.115156
177.414759	1934.137310	12.236570	-0.043642	2.114885
177.661962	1933.997016	12.241575	-0.043702	2.114829
177.622143	1933.990617	12.246579	-0.043692	2.114822
177.570447	1934.018108	12.251584	-0.043679	2.114833
177.624400	1933.480302	12.256589	-0.043691	2.114553
177.678321	1933.397520	12.261594	-0.043704	2.114513
177.724720	1933.392065	12.266599	-0.043715	2.114514
177.673106	1933.074554	12.271603	-0.043702	2.114342
177.703254	1932.800309	12.276608	-0.043709	2.114199
177.745394	1932.776531	12.281613	-0.043719	2.114190
177.721336	1932.612456	12.286618	-0.043713	2.114101
177.634213	1932.233186	12.291623	-0.043691	2.113895
177.315409	1932.261416	12.296627	-0.043613	2.113886
177.461086	1932.269547	12.301632	-0.043648	2.113901
177.443903	1932.251120	12.306637	-0.043644	2.113890
177.420030	1931.792707	12.311642	-0.043637	2.113646
177.343268	1931.654968	12.316647	-0.043618	2.113567
177.265753	1931.652675	12.321651	-0.043599	2.113560
177.308134	1931.672896	12.326656	-0.043609	2.113574
177.309599	1931.647726	12.331661	-0.043609	2.113561
177.187904	1931.675258	12.336666	-0.043579	2.113566
177.396022	1931.656023	12.341671	-0.043630	2.113571
177.340566	1931.269469	12.346675	-0.043616	2.113363
177.220206	1931.101811	12.351680	-0.043586	2.113265
177.343039	1931.059649	12.356685	-0.043616	2.113252
177.430506	1931.061144	12.361690	-0.043637	2.113259
177.459846	1931.062210	12.366695	-0.043644	2.113262
177.337477	1931.064133	12.371699	-0.043614	2.113254
177.525002	1930.728107	12.376704	-0.043659	2.113090
177.476273	1930.451774	12.381709	-0.043646	2.112940
177.456812	1930.468535	12.386714	-0.043641	2.112948
177.419397	1930.476585	12.391719	-0.043632	2.112949
177.467845	1930.453113	12.396723	-0.043644	2.112940
177.426346	1930.151863	12.401728	-0.043633	2.112778
177.477189	1930.018765	12.406733	-0.043645	2.112711
177.443105	1930.021032	12.411738	-0.043636	2.112710
177.398457	1930.031277	12.416743	-0.043625	2.112712
177.477123	1930.007710	12.421747	-0.043644	2.112705
177.578781	1929.552944	12.426752	-0.043669	2.112472
177.444902	1929.372496	12.431757	-0.043635	2.112367
177.513122	1929.381107	12.436762	-0.043652	2.112376
177.400314	1929.397650	12.441767	-0.043624	2.112377
177.475410	1929.335010	12.446771	-0.043642	2.112349
177.431354	1928.806827	12.451776	-0.043631	2.112066
177.354594	1928.802376	12.456781	-0.043612	2.112058
177.517832	1928.772574	12.461786	-0.043651	2.112055
177.627395	1928.765645	12.466791	-0.043678	2.112059
177.600671	1928.419640	12.471795	-0.043671	2.111874
177.616951	1928.159756	12.476800	-0.043674	2.111738
177.482230	1928.156049	12.481805	-0.043641	2.111726
177.478835	1928.178228	12.486810	-0.043640	2.111737
177.562169	1927.956498	12.491815	-0.043660	2.111626
177.256679	1927.623945	12.496819	-0.043585	2.111427
177.440765	1927.633726	12.501824	-0.043629	2.111446
177.325504	1927.628774	12.506829	-0.043601	2.111435
177.250925	1927.636423	12.511834	-0.043583	2.111433
177.124947	1927.663969	12.516839	-0.043552	2.111438
177.218171	1927.635707	12.521843	-0.043574	2.111430
177.336525	1927.640825	12.526848	-0.043603	2.111442
177.232979	1927.083138	12.531853	-0.043577	2.111139
177.350335	1927.001909	12.536858	-0.043605	2.111105
177.559795	1926.977725	12.541863	-0.043656	2.111107
177.380773	1926.980238	12.546867	-0.043612	2.111095
177.539237	1926.978253	12.551872	-0.043650	2.111106
177.433847	1926.739941	12.556877	-0.043624	2.110972
177.444746	1926.401241	12.561882	-0.043626	2.110794
177.485340	1926.400720	12.566887	-0.043636	2.110796
177.345784	1926.401545	12.571891	-0.043602	2.110786
177.494541	1926.407997	12.576896	-0.043638	2.110801
177.470572	1926.103130	12.581901	-0.043631	2.110637
177.338177	1925.830895	12.586906	-0.043599	2.110484
177.221766	1925.843528	12.591911	-0.043570	2.110482
177.178711	1925.827881	12.596915	-0.043559	2.110470
177.125630	1925.867930	12.601920	-0.043546	2.110487
177.088772	1925.849348	12.606925	-0.043537	2.110475
177.070358	1925.866539	12.611930	-0.043532	2.110482
177.158602	1925.848124	12.616935	-0.043553	2.110479
177.138459	1925.838707	12.621939	-0.043548	2.110472
177.305593	1925.845232	12.626944	-0.043589	2.110488
177.246484	1925.826524	12.631949	-0.043574	2.110474
177.167354	1925.458631	12.636954	-0.043554	2.110273
177.146118	1925.292414	12.641959	-0.043548	2.110184
177.132915	1925.271700	12.646963	-0.043545	2.110172
177.247856	1925.276390	12.651968	-0.043573	2.110182
177.299924	1925.257441	12.656973	-0.043585	2.110176
177.325766	1925.263411	12.661978	-0.043591	2.110181
177.461299	1925.254888	12.666983	-0.043624	2.110187
177.350635	1925.248132	12.671987	-0.043597	2.110175
177.493977	1924.867097	12.676992	-0.043631	2.109984
177.508806	1924.591423	12.681997	-0.043634	2.109839
177.353714	1924.617155	12.687002	-0.043596	2.109841
177.449782	1924.620355	12.692007	-0.043619	2.109850
177.437772	1924.594463	12.697011	-0.043616	2.109835
177.536189	1924.286737	12.702016	-0.043640	2.109679
177.266461	1924.038911	12.707021	-0.043574	2.109528
177.356338	1924.035898	12.712026	-0.043595	2.109533
177.398411	1924.041947	12.717031	-0.043605	2.109539
177.264123	1924.036745	12.722035	-0.043572	2.109527
177.414251	1924.042094	12.727040	-0.043609	2.109540
177.245849	1923.993307	12.732045	-0.043567	2.109502
177.207419	1923.456516	12.737050	-0.043557	2.109215
177.052689	1923.478073	12.742055	-0.043519	2.109215
177.075706	1923.459958	12.747059	-0.043524	2.109207
176.898836	1923.512043	12.752064	-0.043481	2.109221
176.933016	1923.482336	12.757069	-0.043489	2.109208
176.796881	1923.508363	12.762074	-0.043455	2.109212
176.993805	1923.493872	12.767079	-0.043503	2.109218
176.804855	1923.797427	12.772083	-0.043457	2.109365
177.151638	1923.810879	12.777088	-0.043542	2.109398
177.164860	1923.466210	12.782093	-0.043544	2.109216
177.186366	1923.466589	12.787098	-0.043549	2.109218
177.379043	1923.436181	12.792103	-0.043596	2.109216
177.436153	1923.407091	12.797107	-0.043610	2.109205
177.479843	1923.427066	12.802112	-0.043620	2.109219
177.597580	1923.359101	12.807117	-0.043649	2.109191
177.614016	1922.828547	12.812122	-0.043652	2.108911
177.578490	1922.849899	12.817127	-0.043643	2.108920
177.411796	1922.848958	12.822131	-0.043602	2.108907
177.371785	1922.871233	12.827136	-0.043592	2.108916
177.200217	1922.840019	12.832141	-0.043550	2.108887
177.161808	1922.282160	12.837146	-0.043540	2.108588
177.055107	1922.303175	12.842151	-0.043513	2.108591
176.958325	1922.280349	12.847155	-0.043490	2.108572
177.035741	1922.302068	12.852160	-0.043508	2.108589
177.059737	1922.283525	12.857165	-0.043514	2.108581
176.962839	1922.294026	12.862170	-0.043490	2.108579
177.236937	1922.276659	12.867175	-0.043557	2.108590
177.155537	1922.271721	12.872179	-0.043536	2.108582
177.203052	1922.280831	12.877184	-0.043548	2.108590
177.160285	1922.275780	12.882189	-0.043537	2.108584
177.023430	1922.302205	12.887194	-0.043503	2.108588
177.104575	1922.301291	12.892199	-0.043523	2.108593
176.971194	1922.283009	12.897203	-0.043490	2.108574
177.014191	1922.304546	12.902208	-0.043500	2.108588
177.090164	1922.276352	12.907213	-0.043519	2.108579
177.009364	1922.284891	12.912218	-0.043499	2.108577
177.123316	1922.289693	12.917223	-0.043526	2.108588
176.964087	1922.293019	12.922227	-0.043487	2.108578
177.058126	1922.300321	12.927232	-0.043510	2.108589
177.148783	1922.269183	12.932237	-0.043532	2.108579
177.236643	1922.262906	12.937242	-0.043553	2.108582
177.161432	1922.288938	12.942247	-0.043534	2.108590
177.110306	1922.264128	12.947251	-0.043521	2.108573
177.289662	1921.777496	12.952256	-0.043565	2.108329
177.309435	1921.669940	12.957261	-0.043569	2.108273
177.209213	1921.676489	12.962266	-0.043544	2.108269
177.356322	1921.676341	12.967271	-0.043580	2.108280
177.297415	1921.656755	12.972275	-0.043565	2.108265
177.346936	1921.686804	12.977280	-0.043577	2.108284
177.278766	1921.670581	12.982285	-0.043560	2.108271
177.196060	1921.557952	12.987290	-0.043540	2.108205
177.095486	1921.125114	12.992295	-0.043515	2.107968
176.992023	1921.113554	12.997299	-0.043489	2.107954
177.016689	1921.139421	13.002304	-0.043495	2.107970
176.858257	1921.139994	13.007309	-0.043456	2.107958
176.746072	1921.437046	13.012314	-0.043428	2.108107
176.685187	1921.769362	13.017319	-0.043413	2.108278
176.694055	1921.752058	13.022323	-0.043415	2.108270
176.743049	1921.770980	13.027328	-0.043427	2.108283
176.767719	1921.750870	13.032333	-0.043433	2.108274
176.849205	1921.739295	13.037338	-0.043452	2.108274
176.981096	1921.737154	13.042343	-0.043484	2.108283
177.005556	1921.706757	13.047347	-0.043490	2.108269
177.128277	1921.720347	13.052352	-0.043520	2.108285
177.351611	1921.676197	13.057357	-0.043574	2.108278
177.612047	1921.640401	13.062362	-0.043637	2.108278
177.724120	1921.329493	13.067367	-0.043664	2.108122
177.719947	1921.027842	13.072371	-0.043663	2.107962
177.709079	1921.048675	13.077376	-0.043660	2.107972
177.803450	1920.797167	13.082381	-0.043683	2.107845
177.784627	1920.607822	13.087386	-0.043678	2.107744
177.486207	1920.663698	13.092391	-0.043604	2.107751
177.288807	1920.669154	13.097395	-0.043556	2.107739
177.265974	1920.626835	13.102400	-0.043550	2.107715
176.981664	1920.089070	13.107405	-0.043480	2.107409
176.874100	1920.582825	13.112410	-0.043454	2.107662
176.759722	1920.761979	13.117415	-0.043426	2.107749
176.746367	1920.742199	13.122419	-0.043422	2.107737
176.772118	1920.765553	13.127424	-0.043428	2.107751
176.792521	1920.743393	13.132429	-0.043433	2.107741
176.804613	1920.740375	13.137434	-0.043436	2.107740
176.851592	1920.751615	13.142439	-0.043447	2.107750
176.897540	1920.719388	13.147443	-0.043458	2.107736
176.954884	1920.736835	13.152448	-0.043472	2.107749
177.120822	1920.694548	13.157453	-0.043512	2.107739
177.217757	1920.684634	13.162458	-0.043535	2.107741
177.346220	1920.687387	13.167463	-0.043566	2.107752
177.262581	1920.676290	13.172467	-0.043546	2.107740
177.395482	1920.676947	13.177472	-0.043578	2.107750
177.534120	1920.114288	13.182477	-0.043611	2.107462
177.544717	1919.996570	13.187482	-0.043613	2.107400
177.603385	1920.011765	13.192487	-0.043627	2.107413
177.432362	1920.009695	13.197491	-0.043585	2.107399
177.406230	1919.820830	13.202496	-0.043578	2.107297
177.341265	1919.439455	13.207501	-0.043562	2.107090
177.278873	1919.447775	13.212506	-0.043547	2.107089
177.204442	1919.483709	13.217511	-0.043528	2.107103
177.125277	1919.465219	13.222515	-0.043509	2.107087
177.166544	1919.480789	13.227520	-0.043518	2.107098
176.942010	1919.500672	13.232525	-0.043463	2.107092
176.913091	1919.505178	13.237530	-0.043456	2.107092
176.951901	1919.517852	13.242535	-0.043465	2.107102
176.930299	1919.498353	13.247539	-0.043460	2.107090
177.158585	1919.478246	13.252544	-0.043515	2.107096
177.139651	1919.478404	13.257549	-0.043510	2.107095
177.089029	1919.483010	13.262554	-0.043498	2.107093
177.274523	1919.478926	13.267559	-0.043543	2.107105
177.255320	1919.444655	13.272563	-0.043538	2.107085
177.286636	1919.142889	13.277568	-0.043545	2.106927
177.246701	1918.849675	13.282573	-0.043535	2.106769
177.233480	1918.845497	13.287578	-0.043531	2.106766
177.279011	1918.857225	13.292583	-0.043542	2.106775
177.185680	1918.849271	13.297587	-0.043519	2.106764
177.234333	1918.865273	13.302592	-0.043531	2.106776
177.128544	1918.867610	13.307597	-0.043504	2.106769
177.139137	1918.868336	13.312602	-0.043507	2.106770
177.011443	1918.906147	13.317607	-0.043475	2.106781
177.033032	1918.870869	13.322611	-0.043480	2.106764
177.215979	1918.870376	13.327616	-0.043525	2.106777
177.079128	1918.878251	13.332621	-0.043491	2.106771
177.033808	1918.882703	13.337626	-0.043480	2.106770
177.090241	1918.887009	13.342631	-0.043493	2.106776
176.973651	1918.882321	13.347635	-0.043464	2.106765
176.993879	1918.903491	13.352640	-0.043469	2.106778
177.114711	1918.876372	13.357645	-0.043498	2.106772
177.096905	1918.312365	13.362650	-0.043493	2.106472
177.218874	1918.299517	13.367655	-0.043523	2.106474
177.023035	1918.307431	13.372659	-0.043475	2.106464
177.129365	1918.324461	13.377664	-0.043501	2.106480
177.220593	1918.299437	13.382669	-0.043523	2.106474
177.103644	1918.305111	13.387674	-0.043494	2.106468
177.280340	1918.298420	13.392679	-0.043537	2.106478
177.333681	1918.271058	13.397683	-0.043549	2.106467
177.241718	1918.304146	13.402688	-0.043527	2.106478
177.025918	1918.317514	13.407693	-0.043474	2.106469
177.202084	1918.290872	13.412698	-0.043516	2.106467
177.233541	1918.305161	13.417703	-0.043524	2.106477
177.141420	1918.014333	13.422707	-0.043501	2.106316
177.197857	1917.690303	13.427712	-0.043514	2.106149
177.110302	1917.690676	13.432717	-0.043493	2.106142
177.110163	1917.681425	13.437722	-0.043492	2.106137
177.157874	1917.695490	13.442727	-0.043504	2.106148
177.081130	1917.685511	13.447731	-0.043485	2.106137
177.168254	1917.691686	13.452736	-0.043506	2.106147
177.054797	1917.690984	13.457741	-0.043478	2.106138
177.154469	1917.663302	13.462746	-0.043502	2.106130
177.224766	1917.682146	13.467751	-0.043519	2.106146
177.104758	1917.671764	13.472755	-0.043489	2.106131
177.317444	1917.664431	13.477760	-0.043541	2.106143
177.323175	1917.662012	13.482765	-0.043542	2.106142
177.201226	1917.264422	13.487770	-0.043512	2.105922
177.130194	1917.116152	13.492775	-0.043494	2.105838
177.201462	1917.078915	13.497779	-0.043511	2.105824
177.137383	1917.101020	13.502784	-0.043495	2.105830
177.252050	1917.083009	13.507789	-0.043523	2.105829
177.090349	1917.098802	13.512794	-0.043483	2.105826
177.201700	1917.105398	13.517799	-0.043510	2.105837
177.085432	1917.096558	13.522803	-0.043481	2.105824
177.185584	1917.102666	13.527808	-0.043505	2.105834
177.178740	1917.106134	13.532813	-0.043504	2.105836
177.281381	1917.066553	13.537818	-0.043528	2.105822
177.252948	1917.096017	13.542823	-0.043521	2.105836
177.141812	1916.625438	13.547827	-0.043493	2.105578
177.094911	1916.517667	13.552832	-0.043482	2.105517
177.162802	1916.498570	13.557837	-0.043498	2.105512
177.096342	1916.505407	13.562842	-0.043481	2.105511
177.230421	1916.512927	13.567847	-0.043514	2.105524
177.286840	1916.473952	13.572851	-0.043527	2.105508
177.301865	1916.492011	13.577856	-0.043531	2.105518
177.309599	1916.484012	13.582861	-0.043532	2.105515
177.120260	1916.501924	13.587866	-0.043486	2.105510
177.243043	1916.508087	13.592871	-0.043516	2.105522
177.187944	1916.483303	13.597875	-0.043502	2.105505
177.292311	1916.165317	13.602880	-0.043527	2.105344
177.407065	1915.907114	13.607885	-0.043555	2.105216
177.350430	1915.899327	13.612890	-0.043540	2.105207
177.497170	1915.902709	13.617895	-0.043576	2.105220
177.382145	1915.895177	13.622899	-0.043548	2.105207
177.599571	1915.706150	13.627904	-0.043600	2.105123
177.523618	1915.254630	13.632909	-0.043581	2.104878
177.584274	1915.248615	13.637914	-0.043596	2.104879
177.637666	1915.262161	13.642919	-0.043609	2.104890
177.348797	1915.253454	13.647923	-0.043538	2.104864
177.264677	1914.716342	13.652928	-0.043516	2.104573
177.262844	1914.709396	13.657933	-0.043516	2.104569
177.138512	1914.723779	13.662938	-0.043485	2.104567
177.119683	1914.746584	13.667943	-0.043480	2.104578
176.976895	1914.750026	13.672947	-0.043445	2.104569
177.083047	1914.755861	13.677952	-0.043471	2.104580
177.017869	1914.754283	13.682957	-0.043455	2.104574
176.922885	1914.755128	13.687962	-0.043431	2.104567
177.012253	1914.765674	13.692967	-0.043453	2.104579
177.007477	1914.734132	13.697971	-0.043451	2.104562
177.109757	1914.743453	13.702976	-0.043476	2.104575
177.249083	1914.721382	13.707981	-0.043510	2.104573
177.181666	1914.720708	13.712986	-0.043493	2.104568
177.204947	1914.738774	13.717991	-0.043498	2.104579
177.305899	1914.696202	13.722995	-0.043523	2.104564
177.386275	1914.495873	13.728000	-0.043542	2.104464
177.410625	1914.093660	13.733005	-0.043547	2.104252
177.411052	1914.092281	13.738010	-0.043547	2.104251
177.380956	1914.110489	13.743015	-0.043540	2.104258
177.253879	1914.110846	13.748019	-0.043508	2.104249
177.232382	1914.120785	13.753024	-0.043503	2.104253
177.199027	1914.126506	13.758029	-0.043494	2.104253
177.232465	1913.988105	13.763034	-0.043502	2.104182
177.207252	1913.561439	13.768039	-0.043496	2.103954
177.231774	1913.533731	13.773043	-0.043501	2.103941
177.213519	1913.551155	13.778048	-0.043497	2.103949
177.077913	1913.573599	13.783053	-0.043463	2.103950
177.129059	1913.555975	13.788058	-0.043475	2.103945
177.280503	1913.555141	13.793063	-0.043512	2.103955
176.968049	1913.575670	13.798067	-0.043436	2.103943
176.979913	1913.589450	13.803072	-0.043438	2.103951
176.904800	1913.591922	13.808077	-0.043420	2.103947
176.841532	1913.592435	13.813082	-0.043404	2.103942
176.762200	1913.624914	13.818087	-0.043384	2.103953
176.914958	1913.573302	13.823091	-0.043421	2.103937
176.896992	1913.590980	13.828096	-0.043417	2.103945
177.039544	1913.571688	13.833101	-0.043451	2.103946
177.088203	1913.554707	13.838106	-0.043463	2.103940
177.220480	1913.564214	13.843111	-0.043495	2.103955
177.198315	1913.539243	13.848115	-0.043489	2.103940
177.346980	1913.535858	13.853120	-0.043525	2.103949
177.445248	1913.523965	13.858125	-0.043549	2.103950
177.494184	1913.308106	13.863130	-0.043560	2.103839
177.696522	1912.882759	13.868135	-0.043609	2.103628
177.682437	1912.859892	13.873139	-0.043606	2.103615
177.596382	1912.886844	13.878144	-0.043584	2.103623
177.477130	1912.433512	13.883149	-0.043555	2.103373
177.387849	1912.320061	13.888154	-0.043532	2.103306
177.414706	1912.344079	13.893159	-0.043539	2.103321
177.159904	1912.347112	13.898163	-0.043476	2.103304
177.168338	1912.366075	13.903168	-0.043478	2.103314
177.024088	1912.384739	13.908173	-0.043443	2.103313
176.992983	1912.371914	13.913178	-0.043435	2.103304
176.879830	1912.410907	13.918183	-0.043407	2.103316
176.851528	1912.392102	13.923187	-0.043400	2.103304
176.908950	1912.399767	13.928192	-0.043413	2.103312
177.021555	1912.387032	13.933197	-0.043441	2.103314
176.929695	1912.388334	13.938202	-0.043418	2.103308
177.097025	1912.389372	13.943207	-0.043459	2.103321
177.170508	1912.349201	13.948211	-0.043476	2.103305
177.140850	1912.364108	13.953216	-0.043469	2.103310
177.151877	1912.363592	13.958221	-0.043471	2.103311
177.209479	1912.336534	13.963226	-0.043485	2.103301
177.308240	1912.257818	13.968231	-0.043509	2.103266
177.213825	1911.759919	13.973235	-0.043485	2.102995
177.279341	1911.764680	13.978240	-0.043501	2.103002
177.338619	1911.762085	13.983245	-0.043515	2.103005
177.285852	1911.749368	13.988250	-0.043502	2.102994
177.294349	1911.774199	13.993255	-0.043504	2.103008
177.279081	1911.749448	13.998259	-0.043500	2.102994
177.273789	1911.761811	14.003264	-0.043498	2.103000
177.186699	1911.663658	14.008269	-0.043477	2.102941
177.188336	1911.334602	14.013274	-0.043476	2.102766
177.168312	1911.362852	14.018279	-0.043471	2.102780
177.148083	1911.341741	14.023283	-0.043466	2.102767
177.040914	1911.361958	14.028288	-0.043440	2.102770
176.996560	1911.387749	14.033293	-0.043429	2.102780
176.992633	1911.362877	14.038298	-0.043427	2.102766
177.135546	1911.367337	14.043303	-0.043462	2.102779
176.990453	1911.363488	14.048307	-0.043426	2.102766
176.948627	1911.378046	14.053312	-0.043416	2.102771
177.008139	1911.381002	14.058317	-0.043430	2.102777
177.074735	1911.347391	14.063322	-0.043446	2.102764
177.144384	1911.362445	14.068327	-0.043463	2.102777
177.159542	1911.345179	14.073331	-0.043466	2.102769
177.297137	1911.334806	14.078336	-0.043500	2.102773
177.259254	1911.349398	14.083341	-0.043490	2.102778
177.411969	1911.306031	14.088346	-0.043527	2.102767
177.493723	1910.837277	14.093351	-0.043546	2.102524
177.404681	1910.668881	14.098355	-0.043524	2.102428
177.368766	1910.686428	14.103360	-0.043515	2.102434
177.333654	1910.692105	14.108365	-0.043506	2.102434
177.279874	1910.691295	14.113370	-0.043493	2.102430
177.236007	1910.728185	14.118375	-0.043482	2.102446
177.174167	1910.714987	14.123379	-0.043467	2.102434
177.067800	1910.296861	14.128384	-0.043440	2.102204
177.036182	1910.158039	14.133389	-0.043432	2.102128
176.847807	1910.287544	14.138394	-0.043386	2.102183
176.860172	1910.778852	14.143399	-0.043389	2.102445
176.909574	1910.750013	14.148403	-0.043401	2.102433
176.852436	1910.767605	14.153408	-0.043387	2.102438
176.916685	1910.754902	14.158413	-0.043402	2.102436
176.959493	1910.731399	14.163418	-0.043412	2.102426
177.037544	1910.754673	14.168423	-0.043431	2.102445
176.998956	1910.729976	14.173427	-0.043421	2.102428
177.149696	1910.720689	14.178432	-0.043458	2.102435
177.277005	1910.714992	14.183437	-0.043489	2.102441
177.208015	1910.134667	14.188442	-0.043471	2.102128
177.277475	1910.121818	14.193447	-0.043488	2.102126
177.111282	1910.127120	14.198451	-0.043447	2.102116
177.244454	1910.124121	14.203456	-0.043479	2.102125
177.167738	1910.131828	14.208461	-0.043460	2.102123
177.000992	1910.135151	14.213466	-0.043419	2.102112
176.974946	1910.168061	14.218471	-0.043413	2.102128
176.847421	1910.161167	14.223475	-0.043381	2.102114
176.888305	1910.154100	14.228480	-0.043391	2.102113
176.946069	1910.167583	14.233485	-0.043405	2.102125
176.992759	1910.144417	14.238490	-0.043416	2.102116
177.235129	1910.128413	14.243495	-0.043475	2.102125
177.188827	1910.116561	14.248499	-0.043463	2.102116
177.325803	1910.116848	14.253504	-0.043496	2.102126
177.309376	1910.113138	14.258509	-0.043492	2.102123
177.429479	1910.076122	14.263514	-0.043521	2.102112
177.423840	1909.539871	14.268519	-0.043519	2.101827
177.377981	1909.485940	14.273523	-0.043508	2.101794
177.415503	1909.481109	14.278528	-0.043517	2.101795
177.356743	1909.503924	14.283533	-0.043502	2.101802
177.228616	1909.508579	14.288538	-0.043470	2.101795
177.193640	1909.525992	14.293543	-0.043462	2.101802
177.114339	1909.519961	14.298547	-0.043442	2.101792
177.063242	1909.536996	14.303552	-0.043429	2.101798
177.057264	1909.289993	14.308557	-0.043427	2.101666
176.859334	1909.282432	14.313562	-0.043379	2.101647
176.952659	1909.566817	14.318567	-0.043401	2.101805
177.113309	1909.499710	14.323571	-0.043440	2.101781
177.035062	1909.116552	14.328576	-0.043421	2.101572
177.063589	1908.981360	14.333581	-0.043427	2.101502
177.164737	1908.954063	14.338586	-0.043452	2.101495
177.334043	1908.948616	14.343591	-0.043493	2.101505
177.252145	1908.942954	14.348595	-0.043473	2.101495
177.182979	1908.953423	14.353600	-0.043455	2.101496
177.273410	1908.958777	14.358605	-0.043477	2.101505
177.042043	1908.963268	14.363610	-0.043420	2.101490
177.120396	1908.982073	14.368615	-0.043439	2.101506
177.098765	1908.962352	14.373619	-0.043434	2.101494
176.893464	1908.997258	14.378624	-0.043383	2.101497
176.954979	1909.001391	14.383629	-0.043398	2.101504
176.887836	1908.981901	14.388634	-0.043381	2.101488
176.866265	1909.013586	14.393639	-0.043376	2.101503
176.855831	1908.991702	14.398643	-0.043373	2.101491
176.897220	1908.996021	14.403648	-0.043383	2.101496
177.127469	1908.970544	14.408653	-0.043439	2.101500
177.174368	1908.947352	14.413658	-0.043450	2.101491
177.343956	1908.948036	14.418663	-0.043491	2.101504
177.354104	1908.926782	14.423667	-0.043494	2.101493
177.253656	1908.815318	14.428672	-0.043469	2.101426
177.239904	1908.336788	14.433677	-0.043465	2.101171
177.240533	1908.317464	14.438682	-0.043465	2.101161
177.405864	1908.312570	14.443687	-0.043505	2.101170
177.162683	1908.325489	14.448691	-0.043445	2.101159
177.067332	1908.346105	14.453696	-0.043421	2.101163
177.009463	1908.367911	14.458701	-0.043407	2.101170
176.830744	1908.372643	14.463706	-0.043363	2.101159
176.915470	1908.389957	14.468711	-0.043384	2.101174
176.902404	1908.380785	14.473715	-0.043380	2.101168
176.982768	1908.366988	14.478720	-0.043399	2.101167
177.106392	1908.361792	14.483725	-0.043429	2.101173
177.158925	1908.334285	14.488730	-0.043442	2.101163
177.332489	1908.326765	14.493735	-0.043484	2.101172
177.160531	1908.333776	14.498739	-0.043442	2.101162
177.352165	1908.312257	14.503744	-0.043488	2.101165
177.438028	1908.078843	14.508749	-0.043509	2.101047
177.344237	1907.723562	14.513754	-0.043486	2.100852
177.463644	1907.730118	14.518759	-0.043514	2.100864
177.363012	1907.727099	14.523763	-0.043490	2.100855
177.277785	1907.743942	14.528768	-0.043468	2.100857
177.276417	1907.745462	14.533773	-0.043468	2.100858
177.237335	1907.732902	14.538778	-0.043458	2.100848
177.211930	1907.303721	14.543783	-0.043451	2.100618
177.038483	1907.173514	14.548787	-0.043409	2.100536
177.230108	1907.158449	14.553792	-0.043455	2.100542
177.059171	1907.188527	14.558797	-0.043413	2.100545
176.879555	1907.196334	14.563802	-0.043369	2.100536
177.085846	1907.194476	14.568807	-0.043419	2.100550
177.125713	1907.169636	14.573811	-0.043429	2.100540
177.215414	1907.161571	14.578816	-0.043450	2.100542
177.073629	1907.190778	14.583821	-0.043415	2.100547
177.210706	1907.145799	14.588826	-0.043449	2.100533
177.321807	1907.159685	14.593831	-0.043475	2.100549
177.195650	1907.159675	14.598835	-0.043444	2.100539
177.178835	1907.162193	14.603840	-0.043440	2.100539
177.243491	1907.171162	14.608845	-0.043455	2.100549
177.174228	1907.039514	14.613850	-0.043438	2.100474
177.231657	1906.621070	14.618855	-0.043452	2.100255
177.134479	1906.618161	14.623859	-0.043428	2.100247
177.055791	1906.631149	14.628864	-0.043408	2.100247
177.064175	1906.636581	14.633869	-0.043410	2.100251
176.978930	1906.628470	14.638874	-0.043389	2.100240
177.217982	1906.613773	14.643879	-0.043447	2.100250
177.123101	1906.620524	14.648883	-0.043424	2.100247
177.104487	1906.620653	14.653888	-0.043419	2.100245
177.315146	1906.606722	14.658893	-0.043470	2.100253
177.155559	1906.605842	14.663898	-0.043431	2.100241
177.175837	1906.623401	14.668903	-0.043435	2.100252
177.283270	1906.590523	14.673907	-0.043461	2.100242
177.452522	1906.396849	14.678912	-0.043502	2.100152
177.451891	1905.951406	14.683917	-0.043502	2.099915
177.411240	1905.939665	14.688922	-0.043491	2.099905
177.479242	1905.954614	14.693927	-0.043508	2.099918
177.390885	1905.959569	14.698931	-0.043486	2.099914
177.462405	1905.863049	14.703936	-0.043503	2.099868
177.492499	1905.366668	14.708941	-0.043510	2.099607
177.327294	1905.361895	14.713946	-0.043469	2.099592
177.193022	1905.402963	14.718951	-0.043436	2.099603
177.107639	1905.401045	14.723955	-0.043415	2.099596
177.061378	1905.409764	14.728960	-0.043403	2.099597
177.109401	1905.415778	14.733965	-0.043415	2.099604
177.104769	1905.396622	14.738970	-0.043413	2.099593
177.046966	1905.430155	14.743975	-0.043399	2.099606
177.234737	1905.391254	14.748979	-0.043445	2.099600
176.989438	1905.418304	14.753984	-0.043384	2.099596
177.064604	1905.427542	14.758989	-0.043403	2.099606
176.994663	1905.409067	14.763994	-0.043385	2.099591
176.934079	1905.437707	14.768999	-0.043370	2.099602
176.969270	1905.431438	14.774003	-0.043379	2.099601
176.904600	1905.433649	14.779008	-0.043362	2.099597
177.167701	1905.408214	14.784013	-0.043426	2.099603
177.033447	1905.405249	14.789018	-0.043393	2.099591
177.182808	1905.413143	14.794023	-0.043430	2.099607
177.200195	1905.198626	14.799027	-0.043433	2.099494
177.228850	1904.785303	14.804032	-0.043440	2.099276
177.468169	1904.767906	14.809037	-0.043498	2.099285
177.419147	1904.747664	14.814042	-0.043486	2.099270
177.372622	1904.778433	14.819047	-0.043474	2.099283
177.353727	1904.775669	14.824051	-0.043469	2.099280
177.358603	1904.665370	14.829056	-0.043470	2.099222
177.232203	1904.232845	14.834061	-0.043439	2.098982
177.024616	1904.243444	14.839066	-0.043388	2.098972
177.123256	1904.254652	14.844071	-0.043412	2.098985
177.085517	1904.247499	14.849075	-0.043402	2.098979
176.825411	1904.278992	14.854080	-0.043338	2.098976
176.844389	1904.297307	14.859085	-0.043343	2.098987
176.744312	1904.281619	14.864090	-0.043318	2.098971
176.892019	1904.798017	14.869095	-0.043354	2.099257
176.841468	1904.843733	14.874099	-0.043342	2.099277
176.893806	1904.831527	14.879104	-0.043354	2.099274
177.013093	1904.835137	14.884109	-0.043383	2.099285
177.078412	1904.794397	14.889114	-0.043399	2.099268
177.202257	1904.809398	14.894119	-0.043429	2.099285
177.216278	1904.344179	14.899123	-0.043431	2.099039
177.312565	1904.209871	14.904128	-0.043455	2.098975
177.512794	1904.191809	14.909133	-0.043503	2.098980
177.583744	1904.164365	14.914138	-0.043520	2.098971
177.372005	1904.216338	14.919143	-0.043468	2.098982
177.472099	1904.080617	14.924147	-0.043492	2.098917
177.504012	1903.566010	14.929152	-0.043500	2.098646
177.386220	1903.597420	14.934157	-0.043471	2.098654
177.257449	1903.596634	14.939162	-0.043439	2.098644
177.208047	1903.624868	14.944167	-0.043427	2.098655
177.174266	1903.615694	14.949171	-0.043418	2.098647
177.074813	1903.632785	14.954176	-0.043394	2.098649
177.035362	1903.664899	14.959181	-0.043384	2.098663
176.956428	1903.652987	14.964186	-0.043364	2.098651
176.918924	1903.674558	14.969191	-0.043355	2.098659
177.033343	1903.638940	14.974195	-0.043382	2.098649
176.992395	1903.640164	14.979200	-0.043372	2.098646
177.075024	1903.657728	14.984205	-0.043392	2.098662
177.046488	1903.629918	14.989210	-0.043385	2.098645
177.073813	1903.644120	14.994215	-0.043391	2.098654
177.250233	1903.622951	14.999219	-0.043434	2.098656
177.169342	1903.053303	15.004224	-0.043414	2.098347
177.109967	1903.077952	15.009229	-0.043399	2.098356
177.112044	1903.037915	15.014234	-0.043399	2.098334
177.191707	1903.059411	15.019239	-0.043418	2.098352
177.074059	1903.058237	15.024243	-0.043389	2.098342
176.931331	1903.082011	15.029248	-0.043354	2.098344
177.046156	1903.081833	15.034253	-0.043382	2.098352
176.928141	1903.073084	15.039258	-0.043353	2.098339
177.089651	1903.077480	15.044263	-0.043392	2.098353
177.102112	1903.057395	15.049267	-0.043395	2.098343

176.959409	1903.076178	15.054272	-0.043360	2.098343
177.075529	1903.080512	15.059277	-0.043388	2.098353
177.082677	1903.030080	15.064282	-0.043389	2.098327
177.413212	1902.443057	15.069287	-0.043469	2.098039
177.289968	1902.391932	15.074291	-0.043439	2.098003
177.178246	1902.047943	15.079296	-0.043411	2.097811
177.239765	1901.764923	15.084301	-0.043426	2.097665
177.228895	1901.352830	15.089306	-0.043422	2.097445
177.191786	1900.838926	15.094311	-0.043413	2.097169
177.200332	1900.303121	15.099315	-0.043414	2.096884
177.051739	1899.802138	15.104320	-0.043377	2.096606
176.942719	1899.324665	15.109325	-0.043350	2.096343
176.795778	1898.739784	15.114330	-0.043313	2.096021
176.761806	1898.190641	15.119335	-0.043304	2.095725
176.733565	1897.610010	15.124339	-0.043297	2.095414
176.546027	1896.976068	15.129344	-0.043250	2.095062
176.639907	1896.342970	15.134349	-0.043273	2.094731
176.647305	1895.593625	15.139354	-0.043274	2.094332
176.861955	1894.760735	15.144359	-0.043325	2.093904
176.791438	1893.994284	15.149363	-0.043307	2.093490
176.957143	1893.017331	15.154368	-0.043347	2.092981
177.080630	1892.126424	15.159373	-0.043376	2.092515
177.119713	1891.022710	15.164378	-0.043384	2.091929
177.119374	1889.929254	15.169383	-0.043383	2.091345
176.885400	1888.832566	15.174387	-0.043325	2.090742
176.766570	1887.693069	15.179392	-0.043295	2.090124
176.729195	1886.565490	15.184397	-0.043285	2.089519
176.518736	1885.418608	15.189402	-0.043232	2.088890
176.635651	1884.253547	15.194407	-0.043260	2.088276
176.538725	1883.144447	15.199411	-0.043235	2.087675
176.464499	1881.849817	15.204416	-0.043216	2.086977
176.537318	1880.579160	15.209421	-0.043232	2.086303
176.382667	1879.244877	15.214426	-0.043193	2.085577
176.245899	1877.915834	15.219431	-0.043159	2.084855
176.241676	1876.530041	15.224435	-0.043156	2.084112
176.246344	1875.142027	15.229440	-0.043156	2.083368
176.245891	1873.795414	15.234445	-0.043155	2.082646
176.182891	1872.309405	15.239450	-0.043138	2.081845
176.266638	1870.719387	15.244455	-0.043157	2.080998
176.216553	1869.155380	15.249459	-0.043144	2.080155
176.162804	1867.518992	15.254464	-0.043129	2.079272
176.151857	1865.904546	15.259469	-0.043125	2.078404
175.999960	1864.374100	15.264474	-0.043087	2.077570
175.859982	1862.682343	15.269479	-0.043051	2.076650
175.803658	1860.997467	15.274483	-0.043036	2.075739
175.696837	1859.259313	15.279488	-0.043008	2.074796
175.762767	1857.513937	15.284493	-0.043023	2.073861
175.690387	1855.768429	15.289498	-0.043004	2.072915
175.627878	1853.955127	15.294503	-0.042987	2.071934
175.481833	1852.110576	15.299507	-0.042950	2.070928
175.465846	1850.223836	15.304512	-0.042944	2.069909
175.691283	1848.298151	15.309517	-0.042997	2.068887
175.682545	1846.345165	15.314522	-0.042994	2.067832
175.628761	1844.338924	15.319527	-0.042979	2.066744
175.703404	1842.225629	15.324531	-0.042995	2.065608
175.495154	1840.107083	15.329536	-0.042943	2.064446
175.367746	1838.073998	15.334541	-0.042910	2.063336
175.258676	1835.995883	15.339546	-0.042881	2.062203
175.044176	1833.877518	15.344551	-0.042827	2.061039
174.714698	1831.824049	15.349555	-0.042745	2.059900
174.539765	1829.717456	15.354560	-0.042701	2.058744
174.652190	1827.760254	15.359565	-0.042726	2.057691
174.439568	1825.617380	15.364570	-0.042673	2.056511
174.413113	1823.450282	15.369575	-0.042664	2.055332
174.410540	1821.220137	15.374579	-0.042662	2.054120
174.499021	1819.023896	15.379584	-0.042682	2.052933
174.567592	1816.722197	15.384589	-0.042697	2.051685
174.559341	1814.319105	15.389594	-0.042693	2.050376
174.595924	1811.884479	15.394599	-0.042700	2.049053
174.602834	1809.530678	15.399603	-0.042699	2.047770
174.667304	1807.008164	15.404608	-0.042713	2.046399
174.675593	1804.433647	15.409613	-0.042713	2.044994
174.627365	1801.874450	15.414618	-0.042699	2.043593
174.401656	1799.339122	15.419623	-0.042642	2.042189
174.173215	1796.785445	15.424627	-0.042584	2.040774
173.939156	1794.189648	15.429632	-0.042525	2.039335
173.797640	1791.778697	15.434637	-0.042488	2.038003
173.496300	1789.244347	15.439642	-0.042412	2.036590
173.395600	1786.727279	15.444647	-0.042386	2.035201
173.286213	1784.177102	15.449651	-0.042357	2.033793
173.092087	1781.683850	15.454656	-0.042308	2.032408
173.141245	1779.081691	15.459661	-0.042317	2.030981
173.176840	1776.388836	15.464666	-0.042324	2.029503
173.091674	1773.844099	15.469671	-0.042301	2.028095
173.126106	1771.142486	15.474675	-0.042307	2.026610
173.331310	1768.279988	15.479680	-0.042355	2.025048
173.442197	1765.468939	15.484685	-0.042380	2.023506
173.214394	1762.633328	15.489690	-0.042322	2.021922
173.251411	1759.701456	15.494695	-0.042329	2.020305
172.950553	1756.856206	15.499699	-0.042253	2.018708
172.764168	1754.031077	15.504704	-0.042205	2.017129
172.698969	1751.134547	15.509709	-0.042187	2.015520
172.443837	1748.245990	15.514714	-0.042122	2.013898
172.180754	1745.431590	15.519719	-0.042056	2.012316
172.043709	1742.556173	15.524723	-0.042020	2.010708
171.836370	1739.682936	15.529728	-0.041967	2.009095
171.940467	1736.896911	15.534733	-0.041990	2.007554
171.722727	1733.954367	15.539738	-0.041935	2.005899
171.664610	1731.008411	15.544743	-0.041918	2.004253
171.718839	1728.113723	15.549747	-0.041929	2.002644
171.704261	1725.066370	15.554752	-0.041923	2.000942
171.774729	1721.993542	15.559757	-0.041938	1.999232
171.600652	1719.034171	15.564762	-0.041893	1.997564
171.546724	1715.907153	15.569767	-0.041877	1.995811
171.615117	1712.782281	15.574771	-0.041892	1.994067
171.405551	1709.650972	15.579776	-0.041838	1.992295
171.267356	1706.504546	15.584781	-0.041802	1.990519
171.136219	1703.367997	15.589786	-0.041767	1.988748
171.075756	1700.239469	15.594791	-0.041750	1.986985
170.872928	1697.039734	15.599795	-0.041698	1.985169
170.673583	1693.919272	15.604800	-0.041647	1.983396
170.632130	1690.772640	15.609805	-0.041634	1.981620
170.514237	1687.516664	15.614810	-0.041603	1.979775
170.402388	1684.434837	15.619815	-0.041573	1.978026
170.435257	1681.160439	15.624819	-0.041578	1.976179
170.317704	1677.866551	15.629824	-0.041547	1.974307
170.259045	1674.636066	15.634829	-0.041530	1.972473
170.171003	1671.279352	15.639834	-0.041506	1.970564
170.196895	1667.960006	15.644839	-0.041510	1.968684
170.092951	1664.623691	15.649843	-0.041482	1.966782
169.864245	1661.225319	15.654848	-0.041423	1.964832
169.937987	1657.911591	15.659853	-0.041438	1.962954
169.573309	1654.508847	15.664858	-0.041347	1.960986
169.379758	1651.194371	15.669863	-0.041297	1.959081
169.306114	1647.895229	15.674867	-0.041276	1.957193
169.116289	1644.479885	15.679872	-0.041227	1.955227
169.031868	1641.179346	15.684877	-0.041204	1.953333
168.783134	1637.788613	15.689882	-0.041140	1.951372
168.720807	1634.397650	15.694887	-0.041122	1.949425
168.785967	1631.031423	15.699891	-0.041136	1.947501
168.666379	1627.533656	15.704896	-0.041104	1.945484
168.703779	1624.105007	15.709901	-0.041110	1.943517
168.557918	1620.606718	15.714906	-0.041072	1.941493
168.617305	1617.048999	15.719911	-0.041084	1.939451
168.592929	1613.534852	15.724915	-0.041075	1.937424
168.576095	1609.861240	15.729920	-0.041068	1.935303
168.241526	1606.333970	15.734925	-0.040983	1.933238
168.043182	1602.734084	15.739930	-0.040932	1.931139
167.938358	1599.181888	15.744935	-0.040904	1.929075
167.754202	1595.632483	15.749939	-0.040856	1.927003
167.526175	1592.041075	15.754944	-0.040797	1.924900
167.448665	1588.563864	15.759949	-0.040776	1.922874
167.263556	1584.923674	15.764954	-0.040728	1.920742
167.235720	1581.408513	15.769959	-0.040718	1.918695
167.148230	1577.826789	15.774963	-0.040694	1.916601
167.042333	1574.172848	15.779968	-0.040665	1.914461
167.076834	1570.545740	15.784973	-0.040671	1.912346
166.884715	1566.816593	15.789978	-0.040621	1.910150
166.802151	1563.233695	15.794983	-0.040598	1.908046
166.761427	1559.494781	15.799987	-0.040585	1.905853
166.416503	1555.865410	15.804992	-0.040498	1.903694
166.278460	1552.205068	15.809997	-0.040461	1.901533
166.253809	1548.524640	15.815002	-0.040453	1.899367
166.084393	1544.876933	15.820007	-0.040408	1.897206
166.000419	1541.153783	15.825011	-0.040385	1.895005
165.679756	1537.492515	15.830016	-0.040304	1.892817
165.626222	1533.781921	15.835021	-0.040288	1.890621
165.363183	1530.160468	15.840026	-0.040221	1.888457
165.143510	1526.473423	15.845031	-0.040164	1.886255
165.132693	1522.838046	15.850035	-0.040159	1.884099
164.944728	1519.143014	15.855040	-0.040110	1.881891
165.075341	1515.423396	15.860045	-0.040139	1.879693
164.954017	1511.722267	15.865050	-0.040106	1.877481
164.993052	1507.887922	15.870055	-0.040113	1.875202
164.908830	1504.129611	15.875059	-0.040089	1.872954
164.710444	1500.251824	15.880064	-0.040038	1.870622
164.899039	1496.486483	15.885069	-0.040081	1.868389
164.842286	1492.509033	15.890074	-0.040064	1.866005
164.649502	1488.678579	15.895079	-0.040014	1.863692
164.330296	1484.804140	15.900083	-0.039933	1.861339
164.249410	1480.962428	15.905088	-0.039910	1.859025
164.087762	1477.101316	15.910093	-0.039868	1.856688
163.717470	1473.279698	15.915098	-0.039774	1.854353
163.520247	1469.451771	15.920103	-0.039723	1.852028
163.323556	1465.674402	15.925107	-0.039672	1.849730
162.964447	1461.921073	15.930112	-0.039581	1.847428
162.901484	1458.146903	15.935117	-0.039563	1.845138
162.588037	1454.441461	15.940122	-0.039484	1.842864
162.574787	1450.633302	15.945127	-0.039477	1.840553
162.593081	1446.939125	15.950131	-0.039479	1.838311
162.567041	1443.024865	15.955136	-0.039470	1.835929
162.579446	1439.209948	15.960141	-0.039470	1.833607
162.595307	1435.232482	15.965146	-0.039470	1.831183
162.570062	1431.357342	15.970151	-0.039461	1.828815
162.571936	1427.363087	15.975155	-0.039459	1.826374
162.566100	1423.387087	15.980160	-0.039454	1.823940
162.654474	1419.303310	15.985165	-0.039473	1.821445
162.409340	1415.321999	15.990170	-0.039410	1.818978
162.373967	1411.242094	15.995175	-0.039398	1.816467
162.008646	1407.269733	16.000179	-0.039305	1.813988
161.741955	1403.237784	16.005184	-0.039237	1.811477
161.678896	1399.293899	16.010189	-0.039219	1.809037
161.496224	1395.253804	16.015194	-0.039171	1.806523
161.320906	1391.300698	16.020199	-0.039125	1.804060
161.034888	1387.324239	16.025203	-0.039052	1.801568
160.677947	1383.467026	16.030208	-0.038962	1.799140
160.587553	1379.534438	16.035213	-0.038937	1.796687
160.347156	1375.640447	16.040218	-0.038875	1.794241
160.143950	1371.717270	16.045223	-0.038822	1.791777
159.829893	1367.912159	16.050227	-0.038743	1.789372
159.636357	1364.034772	16.055232	-0.038692	1.786930
159.714194	1360.179880	16.060237	-0.038708	1.784526
159.574098	1356.239787	16.065242	-0.038671	1.782044
159.422806	1352.370155	16.070247	-0.038631	1.779601
159.605771	1348.391141	16.075251	-0.038673	1.777119
159.537365	1344.376975	16.080256	-0.038653	1.774587
159.510657	1340.338743	16.085261	-0.038643	1.772040
159.450765	1336.314510	16.090266	-0.038625	1.769495
159.428434	1332.229697	16.095271	-0.038617	1.766912
159.248858	1328.213341	16.100275	-0.038570	1.764352
159.076001	1324.103619	16.105280	-0.038524	1.761730
159.010664	1320.115371	16.110285	-0.038505	1.759193
158.891117	1315.994448	16.115290	-0.038473	1.756561
158.654507	1311.961709	16.120295	-0.038412	1.753971
158.487026	1307.888142	16.125299	-0.038368	1.751357
158.303547	1303.881656	16.130304	-0.038320	1.748780
158.122834	1299.823387	16.135309	-0.038273	1.746167
157.954296	1295.849004	16.140314	-0.038228	1.743605
157.723137	1291.792194	16.145319	-0.038169	1.740980
157.490582	1287.886098	16.150323	-0.038109	1.738448
157.482762	1283.812859	16.155328	-0.038104	1.735827
157.377907	1279.792907	16.160333	-0.038075	1.733227
157.222620	1275.751509	16.165338	-0.038034	1.730603
157.171272	1271.707500	16.170343	-0.038018	1.727985
157.029876	1267.671442	16.175347	-0.037981	1.725359
156.896837	1263.593570	16.180352	-0.037945	1.722702
156.846009	1259.576469	16.185357	-0.037930	1.720089
156.577246	1255.529481	16.190362	-0.037861	1.717430
156.447756	1251.491324	16.195367	-0.037826	1.714788
156.415661	1247.386244	16.200371	-0.037815	1.712107
156.272271	1243.339312	16.205376	-0.037777	1.709449
156.088295	1239.263269	16.210381	-0.037729	1.706763
156.030478	1235.222568	16.215386	-0.037712	1.704110
155.727477	1231.154028	16.220391	-0.037634	1.701408
155.603601	1227.148803	16.225395	-0.037601	1.698762
155.499602	1223.029632	16.230400	-0.037572	1.696040
155.492852	1218.969635	16.235405	-0.037568	1.693362
155.300836	1214.860809	16.240410	-0.037518	1.690628
155.209335	1210.772500	16.245415	-0.037492	1.687914
155.125887	1206.702696	16.250419	-0.037468	1.685209
154.934958	1202.566757	16.255424	-0.037419	1.682443
154.917931	1198.504946	16.260429	-0.037411	1.679742
154.702108	1194.374680	16.265434	-0.037355	1.676968
154.506455	1190.322001	16.270439	-0.037304	1.674245
154.284720	1186.233992	16.275443	-0.037247	1.671490
154.057647	1182.200082	16.280448	-0.037188	1.668766
153.932705	1178.145869	16.285453	-0.037155	1.666036
153.681978	1174.113616	16.290458	-0.037090	1.663302
153.421388	1170.122651	16.295463	-0.037024	1.660590
153.471125	1166.085237	16.300467	-0.037033	1.657876
153.213848	1162.057052	16.305472	-0.036967	1.655130
153.033552	1158.013251	16.310477	-0.036920	1.652378
152.910441	1154.022979	16.315482	-0.036886	1.649663
153.057909	1149.888819	16.320487	-0.036919	1.646877
152.988742	1145.848043	16.325491	-0.036899	1.644125
152.708311	1141.748729	16.330496	-0.036828	1.641305
152.685545	1137.707309	16.335501	-0.036819	1.638548
152.683360	1133.574286	16.340506	-0.036815	1.635727
152.419123	1129.450327	16.345511	-0.036747	1.632878
152.287329	1125.411346	16.350515	-0.036712	1.630096
152.083629	1121.296740	16.355520	-0.036659	1.627250
152.059744	1117.248975	16.360525	-0.036650	1.624465
151.905614	1113.101266	16.365530	-0.036609	1.621592
151.594040	1109.049405	16.370535	-0.036530	1.618762
151.607637	1104.950815	16.375539	-0.036530	1.615931
151.355807	1100.820462	16.380544	-0.036465	1.613043
151.100795	1096.823435	16.385549	-0.036400	1.610243
151.133921	1092.703311	16.390554	-0.036405	1.607384
150.915876	1088.664500	16.395559	-0.036349	1.604549
150.781349	1084.576693	16.400563	-0.036312	1.601683
150.690194	1080.517266	16.405568	-0.036287	1.598838
150.635156	1076.427058	16.410573	-0.036270	1.595970
150.486719	1072.299098	16.415578	-0.036231	1.593059
150.187115	1068.267438	16.420583	-0.036155	1.590194
150.058931	1064.202487	16.425587	-0.036120	1.587319
149.984120	1060.145660	16.430592	-0.036099	1.584452
149.926377	1056.048326	16.435597	-0.036082	1.581552
149.737813	1051.998475	16.440602	-0.036032	1.578665
149.496426	1047.940001	16.445607	-0.035970	1.575761
149.338686	1043.870663	16.450611	-0.035929	1.572854
149.151229	1039.841704	16.455616	-0.035880	1.569966
149.112167	1035.763897	16.460621	-0.035867	1.567056
149.008663	1031.697826	16.465626	-0.035838	1.564141
148.886574	1027.637676	16.470631	-0.035805	1.561222
148.723857	1023.600855	16.475635	-0.035763	1.558310
148.429688	1019.567900	16.480640	-0.035688	1.555380
148.457107	1015.491327	16.485645	-0.035691	1.552451
148.324035	1011.431635	16.490650	-0.035655	1.549509
148.214632	1007.365405	16.495655	-0.035626	1.546560
148.104558	1003.296101	16.500659	-0.035596	1.543603
148.060679	999.213485	16.505664	-0.035582	1.540639
147.959846	995.093496	16.510669	-0.035554	1.537635
147.884054	990.986211	16.515674	-0.035532	1.534637
147.792816	986.855345	16.520679	-0.035507	1.531614
147.569283	982.771054	16.525683	-0.035449	1.528603
147.334664	978.699131	16.530688	-0.035388	1.525594
147.254323	974.607800	16.535693	-0.035366	1.522584
147.034249	970.583698	16.540698	-0.035309	1.519600
146.817766	966.502201	16.545703	-0.035253	1.516568
146.624290	962.476695	16.550707	-0.035202	1.513574
146.481246	958.447824	16.555712	-0.035164	1.510578
146.157300	954.438297	16.560717	-0.035082	1.507568
146.088493	950.442116	16.565722	-0.035062	1.504593
146.001361	946.416903	16.570727	-0.035038	1.501589
145.956166	942.388741	16.575731	-0.035024	1.498581
145.755879	938.360805	16.580736	-0.034971	1.495549
145.739269	934.292836	16.585741	-0.034964	1.492503
145.548749	930.273996	16.590746	-0.034915	1.489466
145.526235	926.207441	16.595751	-0.034906	1.486408
145.316299	922.157562	16.600755	-0.034852	1.483333
145.209037	918.168686	16.605760	-0.034822	1.480310
145.161996	914.095083	16.610765	-0.034808	1.477225
144.919630	910.054066	16.615770	-0.034745	1.474132
144.878173	906.010382	16.620775	-0.034732	1.471058
144.877767	901.928224	16.625779	-0.034729	1.467952
144.546035	897.908324	16.630784	-0.034645	1.464845
144.315896	893.909063	16.635789	-0.034585	1.461760
144.269485	889.859413	16.640794	-0.034571	1.458654
144.162553	885.818548	16.645799	-0.034542	1.455540
143.959749	881.791158	16.650803	-0.034489	1.452417
144.015473	877.709852	16.655808	-0.034499	1.449279
143.955749	873.658650	16.660813	-0.034482	1.446143
143.701949	869.612114	16.665818	-0.034416	1.442978
143.634513	865.576948	16.670823	-0.034397	1.439840
143.638311	861.497306	16.675827	-0.034395	1.436670
143.432480	857.408869	16.680832	-0.034341	1.433457
143.357254	853.378062	16.685837	-0.034320	1.430300
143.124363	849.319227	16.690842	-0.034260	1.427093
142.856503	845.277831	16.695847	-0.034191	1.423888
142.607926	841.354476	16.700851	-0.034127	1.420771
142.387236	837.332743	16.705856	-0.034070	1.417573
142.167767	833.372144	16.710861	-0.034014	1.414416
141.978166	829.435480	16.715866	-0.033964	1.411276
141.565183	825.522901	16.720871	-0.033860	1.408116
141.536246	821.609363	16.725875	-0.033850	1.405002
141.287448	817.721232	16.730880	-0.033786	1.401871
141.217162	813.811171	16.735885	-0.033766	1.398739
141.108463	809.905025	16.740890	-0.033737	1.395599
141.194257	805.925951	16.745895	-0.033754	1.392419
141.219784	801.957773	16.750899	-0.033758	1.389233
141.212332	797.957534	16.755904	-0.033753	1.386009
141.127106	793.960156	16.760909	-0.033729	1.382769
140.954394	789.965753	16.765914	-0.033683	1.379512
140.793316	785.980023	16.770919	-0.033641	1.376255
140.619732	782.007328	16.775923	-0.033595	1.373000
140.453093	778.028799	16.780928	-0.033552	1.369733
140.271950	774.105113	16.785933	-0.033504	1.366501
139.932684	770.187426	16.790938	-0.033418	1.363243
139.755182	766.302674	16.795943	-0.033372	1.360028
139.326055	762.480416	16.800947	-0.033264	1.356821
139.221197	758.581579	16.805952	-0.033236	1.353589
139.146746	754.751677	16.810957	-0.033214	1.350412
138.931255	750.913253	16.815962	-0.033159	1.347199
138.866414	747.025961	16.820967	-0.033140	1.343959
138.982853	743.168131	16.825971	-0.033165	1.340763
138.865829	739.237455	16.830976	-0.033134	1.337464
138.926074	735.280377	16.835981	-0.033145	1.334161
138.754607	731.403817	16.840986	-0.033100	1.330883
138.684126	727.451135	16.845991	-0.033080	1.327548
138.666151	723.513011	16.850995	-0.033073	1.324224
138.433333	719.642758	16.856000	-0.033013	1.320918
138.454902	715.690043	16.861005	-0.033015	1.317571
138.251626	711.752990	16.866010	-0.032962	1.314196
137.847102	707.911710	16.871015	-0.032861	1.310863
137.820952	704.028388	16.876019	-0.032851	1.307543
137.464426	700.172890	16.881024	-0.032761	1.304188
137.229936	696.431418	16.886029	-0.032701	1.300941
137.076207	692.593013	16.891034	-0.032660	1.297614
136.995415	688.719366	16.896039	-0.032638	1.294260
136.827487	684.923590	16.901043	-0.032594	1.290951
136.778004	681.065637	16.906048	-0.032578	1.287598
136.738600	677.209167	16.911053	-0.032566	1.284238
136.438414	673.447245	16.916058	-0.032490	1.280912
136.267320	669.620865	16.921063	-0.032445	1.277541
136.248936	665.786171	16.926067	-0.032437	1.274178
136.238044	661.939254	16.931072	-0.032432	1.270796
136.071039	658.135396	16.936077	-0.032388	1.267418
135.921473	654.314340	16.941082	-0.032348	1.264019
135.783272	650.512113	16.946087	-0.032312	1.260630
135.412278	646.767752	16.951091	-0.032218	1.257246
135.147333	643.004767	16.956096	-0.032150	1.253852
135.056146	639.256060	16.961101	-0.032125	1.250490
134.779261	635.555403	16.966106	-0.032055	1.247133
134.489204	631.852905	16.971111	-0.031981	1.243762
134.319671	628.201036	16.976115	-0.031937	1.240447
134.140699	624.513477	16.981120	-0.031890	1.237090
134.109490	620.815435	16.986125	-0.031880	1.233738
134.004299	617.121042	16.991130	-0.031851	1.230367
133.852608	613.447511	16.996135	-0.031811	1.227000
133.927696	609.724696	17.001139	-0.031826	1.223614
133.629367	606.038506	17.006144	-0.031751	1.220192
133.678059	602.319876	17.011149	-0.031760	1.216787
133.683459	598.579698	17.016154	-0.031758	1.213346
133.416660	594.870702	17.021159	-0.031690	1.209879
133.362530	591.193869	17.026163	-0.031674	1.206466
133.280567	587.475928	17.031168	-0.031651	1.203002
133.278134	583.744629	17.036173	-0.031647	1.199528
132.827918	580.103561	17.041178	-0.031535	1.196053
132.715509	576.436583	17.046183	-0.031504	1.192601
132.704205	572.752535	17.051187	-0.031499	1.189139
132.263086	569.137692	17.056192	-0.031388	1.185660
132.051268	565.568110	17.061197	-0.031334	1.182253
131.900256	561.953031	17.066202	-0.031294	1.178803
131.599436	558.361361	17.071207	-0.031217	1.175339
131.454483	554.825746	17.076211	-0.031179	1.171945
131.083218	551.288330	17.081216	-0.031086	1.168500
131.140041	547.719424	17.086221	-0.031097	1.165089
130.918478	544.225891	17.091226	-0.031040	1.161693
130.721352	540.681004	17.096231	-0.030989	1.158241
130.557618	537.170695	17.101235	-0.030946	1.154818
130.286952	533.697344	17.106240	-0.030877	1.151402
130.043336	530.249392	17.111245	-0.030815	1.148005
129.742681	526.817557	17.116250	-0.030739	1.144604
129.447775	523.413806	17.121255	-0.030664	1.141221
129.187121	520.030276	17.126259	-0.030598	1.137854
128.799424	516.675329	17.131264	-0.030501	1.134482
128.370331	513.398981	17.136269	-0.030393	1.131171
128.190726	510.105126	17.141274	-0.030347	1.127877
127.871241	506.836073	17.146279	-0.030266	1.124573
127.698041	503.605412	17.151283	-0.030221	1.121324
127.419778	500.369809	17.156288	-0.030151	1.118041
127.293425	497.122549	17.161293	-0.030117	1.114765
126.958762	493.951281	17.166298	-0.030033	1.111517
126.894277	490.729518	17.171303	-0.030015	1.108259
126.827585	487.511573	17.176307	-0.029996	1.104994
126.638651	484.329707	17.181312	-0.029947	1.101734
126.444602	481.131715	17.186317	-0.029897	1.098446
126.197764	477.964878	17.191322	-0.029834	1.095171
125.917880	474.823453	17.196327	-0.029764	1.091905
125.604645	471.733168	17.201331	-0.029685	1.088676
125.165655	468.671934	17.206336	-0.029575	1.085444
124.738800	465.697808	17.211341	-0.029468	1.082294
124.450067	462.695373	17.216346	-0.029395	1.079132
123.906803	459.759665	17.221351	-0.029260	1.075982
123.494159	456.921062	17.226355	-0.029157	1.072948
123.042185	454.051138	17.231360	-0.029044	1.069865
122.747244	451.231123	17.236365	-0.028970	1.066856
122.554028	448.413637	17.241370	-0.028921	1.063861
122.238160	445.598006	17.246375	-0.028841	1.060835
122.333952	442.749494	17.251379	-0.028862	1.057845
122.181532	439.892008	17.256384	-0.028823	1.054789
122.002632	437.081285	17.261389	-0.028777	1.051769
121.861777	434.276894	17.266394	-0.028740	1.048755
121.651529	431.446318	17.271399	-0.028686	1.045690
121.400863	428.718382	17.276403	-0.028623	1.042718
121.250437	425.913388	17.281408	-0.028584	1.039675
120.902231	423.171394	17.286413	-0.028497	1.036651
120.477385	420.516545	17.291418	-0.028391	1.033697
120.051524	417.843501	17.296423	-0.028285	1.030715
119.691312	415.251877	17.301427	-0.028194	1.027826
119.110943	412.701405	17.306432	-0.028051	1.024930
118.755257	410.190976	17.311437	-0.027962	1.022114
118.555896	407.650943	17.316442	-0.027911	1.019290
118.218662	405.118573	17.321447	-0.027826	1.016438
117.935432	402.669778	17.326451	-0.027755	1.013681
117.847174	400.131016	17.331456	-0.027732	1.010857
117.650644	397.668169	17.336461	-0.027682	1.008088
117.658427	395.137139	17.341466	-0.027681	1.005276
117.402774	392.665984	17.346471	-0.027617	1.002469
117.480281	390.140194	17.351475	-0.027634	0.999662
117.257474	387.619459	17.356480	-0.027577	0.996791
117.079709	385.153972	17.361485	-0.027532	0.993983
116.729165	382.695135	17.366490	-0.027444	0.991138
116.360182	380.305254	17.371495	-0.027352	0.988359
115.935581	377.927596	17.376499	-0.027246	0.985575
115.415546	375.614766	17.381504	-0.027117	0.982836
115.067648	373.296745	17.386509	-0.027030	0.980120
114.655744	371.032878	17.391514	-0.026928	0.977445
114.329375	368.777979	17.396519	-0.026846	0.974790
114.105397	366.537573	17.401523	-0.026790	0.972167
113.871439	364.299312	17.406528	-0.026731	0.969538
113.651883	362.065807	17.411533	-0.026675	0.966909
113.517446	359.871080	17.416538	-0.026641	0.964337
113.385032	357.615627	17.421543	-0.026606	0.961688
113.234641	355.417905	17.426547	-0.026568	0.959095
113.233614	353.129823	17.431552	-0.026566	0.956421
113.230453	350.892371	17.436557	-0.026563	0.953799
113.123713	348.616685	17.441562	-0.026535	0.951102
112.990316	346.373443	17.446567	-0.026501	0.948430
112.847326	344.119253	17.451571	-0.026464	0.945735
112.340038	341.968812	17.456576	-0.026338	0.943075
112.006812	339.806603	17.461581	-0.026255	0.940432
111.631501	337.674541	17.466586	-0.026161	0.937808
111.182113	335.586088	17.471591	-0.026050	0.935213
110.540285	333.598692	17.476595	-0.025891	0.932688
110.153084	331.601221	17.481600	-0.025795	0.930202
109.846470	329.608084	17.486605	-0.025719	0.927732
109.454698	327.675551	17.491610	-0.025621	0.925309
109.127336	325.745887	17.496615	-0.025540	0.922898
109.052725	323.775071	17.501619	-0.025520	0.920488
108.754825	321.844401	17.506624	-0.025445	0.918070
108.843976	319.850697	17.511629	-0.025465	0.915657
108.768794	317.887269	17.516634	-0.025445	0.913237
108.683745	315.887414	17.521639	-0.025423	0.910763
108.987657	313.826949	17.526643	-0.025495	0.908298
109.009774	311.750951	17.531648	-0.025499	0.905741
108.884646	309.723126	17.536653	-0.025467	0.903203
108.622604	307.706076	17.541658	-0.025401	0.900639
108.010782	305.774338	17.546663	-0.025250	0.898093
107.822420	303.823872	17.551667	-0.025202	0.895615
107.481416	301.902881	17.556672	-0.025117	0.893131
106.906973	300.052399	17.561677	-0.024975	0.890674
106.469964	298.244325	17.566682	-0.024867	0.888296
105.998546	296.450765	17.571687	-0.024750	0.885922
105.745732	294.690956	17.576691	-0.024687	0.883635
105.395171	292.910837	17.581696	-0.024600	0.881294
105.321299	291.122080	17.586701	-0.024580	0.879002
105.103109	289.329575	17.591706	-0.024526	0.876664
104.935587	287.583141	17.596711	-0.024483	0.874391
104.918975	285.757006	17.601715	-0.024477	0.872046
104.796269	283.985301	17.606720	-0.024446	0.869740
104.721440	282.156807	17.611725	-0.024426	0.867365
104.646775	280.378209	17.616730	-0.024406	0.865049
104.393822	278.583527	17.621735	-0.024343	0.862662
104.309374	276.796310	17.626739	-0.024321	0.860319
103.872713	275.062569	17.631744	-0.024213	0.857953
103.517511	273.347734	17.636749	-0.024124	0.855626
103.210014	271.660758	17.641754	-0.024048	0.853340
102.949917	269.949267	17.646759	-0.023983	0.851027
102.523826	268.334544	17.651763	-0.023877	0.848795
102.362776	266.642134	17.656768	-0.023836	0.846520
102.070910	265.047407	17.661773	-0.023764	0.844336
101.896512	263.387929	17.666778	-0.023720	0.842089
101.515768	261.793812	17.671783	-0.023625	0.839872
101.423420	260.147678	17.676787	-0.023601	0.837652
101.128628	258.561533	17.681792	-0.023528	0.835455
100.952758	256.955565	17.686797	-0.023483	0.833255
100.878028	255.338918	17.691802	-0.023464	0.831062
100.933332	253.679512	17.696807	-0.023476	0.828838
100.812428	252.038457	17.701811	-0.023445	0.826587
100.490294	250.462675	17.706816	-0.023365	0.824368
100.312033	248.830632	17.711821	-0.023320	0.822103
100.043336	247.273890	17.716826	-0.023253	0.819911
99.669094	245.696013	17.721831	-0.023160	0.817657
99.234308	244.215684	17.726835	-0.023052	0.815515
98.762980	242.737267	17.731840	-0.022936	0.813360
98.295592	241.297931	17.736845	-0.022821	0.811255
97.656316	239.945076	17.741850	-0.022663	0.809218
96.948326	238.622816	17.746855	-0.022489	0.807201
96.536094	237.353193	17.751859	-0.022387	0.805330
96.027181	236.076394	17.756864	-0.022262	0.803419
95.688698	234.800718	17.761869	-0.022178	0.801549
95.434697	233.549725	17.766874	-0.022114	0.799733
95.151643	232.274267	17.771879	-0.022044	0.797870
94.784774	231.074683	17.776883	-0.021953	0.796087
94.299031	229.911051	17.781888	-0.021834	0.794319
94.169824	228.666813	17.786893	-0.021801	0.792528
93.759544	227.538337	17.791898	-0.021700	0.790822
93.045865	226.466613	17.796903	-0.021524	0.789112
92.520680	225.410252	17.801907	-0.021395	0.787470
92.013005	224.412019	17.806912	-0.021270	0.785912
91.533899	223.421287	17.811917	-0.021152	0.784369
91.194803	222.422704	17.816922	-0.021068	0.782850
90.606698	221.493187	17.821927	-0.020923	0.781360
90.062776	220.622550	17.826931	-0.020790	0.779963
89.666479	219.723680	17.831936	-0.020692	0.778563
89.390799	218.805544	17.836941	-0.020624	0.777166
89.153218	217.958084	17.841946	-0.020565	0.775878
88.777846	217.100142	17.846951	-0.020472	0.774536
88.583868	216.215067	17.851955	-0.020424	0.773202
88.336929	215.342719	17.856960	-0.020363	0.771869
88.068580	214.532002	17.861965	-0.020296	0.770618
87.751635	213.708702	17.866970	-0.020218	0.769333
87.352794	212.895645	17.871975	-0.020120	0.768038
86.940431	212.132315	17.876979	-0.020018	0.766810
86.572868	211.425136	17.881984	-0.019927	0.765674
85.997933	210.735652	17.886989	-0.019786	0.764504
85.580007	210.040628	17.891994	-0.019683	0.763369
85.198239	209.362377	17.896999	-0.019589	0.762267
85.006311	208.686136	17.902003	-0.019542	0.761218
84.530150	208.075597	17.907008	-0.019425	0.760186
84.207406	207.433169	17.912013	-0.019345	0.759148
83.998718	206.784040	17.917018	-0.019293	0.758131
83.989718	206.085010	17.922023	-0.019290	0.757095
84.252337	205.368449	17.927027	-0.019354	0.756108
84.013794	204.671830	17.932032	-0.019295	0.755008
83.956469	203.957187	17.937037	-0.019280	0.753931
83.876013	203.218547	17.942042	-0.019260	0.752810
83.572651	202.532910	17.947047	-0.019185	0.751703
83.305184	201.896220	17.952051	-0.019119	0.750678
83.020717	201.231845	17.957056	-0.019048	0.749605
82.712790	200.562384	17.962061	-0.018972	0.748516
82.588138	199.888397	17.967066	-0.018941	0.747471
82.154302	199.294149	17.972071	-0.018835	0.746456
81.973524	198.666186	17.977075	-0.018790	0.745461
81.558028	198.070972	17.982080	-0.018687	0.744447
81.291257	197.461077	17.987085	-0.018622	0.743452
81.080073	196.860483	17.992090	-0.018569	0.742486
80.846489	196.264376	17.997095	-0.018512	0.741519
80.583171	195.704603	18.002099	-0.018447	0.740597
80.410176	195.102164	18.007104	-0.018404	0.739635
80.219150	194.505535	18.012109	-0.018356	0.738675
80.061756	193.912121	18.017114	-0.018317	0.737729
79.540747	193.386203	18.022119	-0.018189	0.736779
79.451671	192.852522	18.027123	-0.018167	0.735941
79.284051	192.275987	18.032128	-0.018125	0.735014
79.072540	191.705160	18.037133	-0.018073	0.734082
78.905966	191.141627	18.042138	-0.018031	0.733173
78.370552	190.651980	18.047143	-0.017900	0.732268
77.934582	190.204831	18.052147	-0.017793	0.731457
77.612636	189.734364	18.057152	-0.017714	0.730641
77.305432	189.280405	18.062157	-0.017638	0.729855
77.263407	188.754462	18.067162	-0.017627	0.729035
76.968911	188.285116	18.072167	-0.017555	0.728227
76.483273	187.868567	18.077171	-0.017435	0.727443
76.247173	187.441308	18.082176	-0.017377	0.726715
76.189364	187.007243	18.087181	-0.017362	0.726028
76.131684	186.531831	18.092186	-0.017348	0.725277
76.045058	186.025845	18.097191	-0.017326	0.724469
76.074567	185.515943	18.102195	-0.017332	0.723689
76.038600	184.973187	18.107200	-0.017323	0.722837
76.051046	184.428082	18.112205	-0.017325	0.721996
76.098434	183.895637	18.117210	-0.017336	0.721183
76.056918	183.316548	18.122215	-0.017326	0.720270
75.970547	182.748265	18.127219	-0.017304	0.719360
75.808232	182.183953	18.132224	-0.017263	0.718432
75.641340	181.614540	18.137229	-0.017222	0.717494
75.552812	181.062369	18.142234	-0.017200	0.716604
75.017053	180.591879	18.147239	-0.017068	0.715708
74.625975	180.110396	18.152243	-0.016972	0.714837
74.163878	179.674302	18.157248	-0.016859	0.714014
73.818553	179.200631	18.162253	-0.016774	0.713167
73.690033	178.738134	18.167258	-0.016742	0.712401
73.319841	178.302279	18.172263	-0.016651	0.711604
72.938581	177.935878	18.177267	-0.016557	0.710912
72.586038	177.512378	18.182272	-0.016470	0.710138
72.380709	177.098871	18.187277	-0.016419	0.709423
72.506017	176.625242	18.192282	-0.016449	0.708712
72.520830	176.107270	18.197287	-0.016452	0.707897
72.414398	175.644335	18.202291	-0.016426	0.707131
72.357675	175.181534	18.207296	-0.016411	0.706380
72.313827	174.681728	18.212301	-0.016400	0.705574
72.216784	174.187953	18.217306	-0.016376	0.704759
72.107010	173.657335	18.222311	-0.016348	0.703882
72.019675	173.148002	18.227315	-0.016326	0.703044
71.953980	172.618969	18.232320	-0.016310	0.702180
71.735442	172.140975	18.237325	-0.016256	0.701350
71.393844	171.660673	18.242330	-0.016172	0.700477
70.849825	171.240081	18.247335	-0.016038	0.699638
70.611991	170.806488	18.252339	-0.015979	0.698870
70.349750	170.355773	18.257344	-0.015915	0.698066
70.197347	169.898533	18.262349	-0.015877	0.697285
70.230305	169.433136	18.267354	-0.015884	0.696546
69.829559	169.020526	18.272359	-0.015786	0.695759
69.539447	168.598507	18.277363	-0.015714	0.694989
69.269227	168.181443	18.282368	-0.015648	0.694233
69.158438	167.737639	18.287373	-0.015620	0.693482
69.101156	167.266059	18.292378	-0.015606	0.692701
68.841248	166.849017	18.297383	-0.015542	0.691946
68.843713	166.406663	18.302387	-0.015542	0.691229
68.763399	165.944335	18.307392	-0.015521	0.690454
68.714882	165.426209	18.312397	-0.015509	0.689598
68.569208	164.972099	18.317402	-0.015473	0.688814
68.177572	164.535079	18.322407	-0.015376	0.687980
68.084556	164.067487	18.327411	-0.015353	0.687189
67.846732	163.675201	18.332416	-0.015295	0.686474
67.567083	163.247984	18.337421	-0.015226	0.685689
67.368596	162.819555	18.342426	-0.015177	0.684926
66.964531	162.420329	18.347431	-0.015077	0.684146
66.955276	161.954046	18.352435	-0.015074	0.683378
66.653204	161.561685	18.357440	-0.015000	0.682640
66.349448	161.154704	18.362445	-0.014925	0.681875
66.191353	160.785840	18.367450	-0.014886	0.681219
66.140778	160.335315	18.372455	-0.014873	0.680461
65.973933	159.900446	18.377459	-0.014832	0.679692
65.851617	159.481087	18.382464	-0.014801	0.678961
65.779394	159.005087	18.387469	-0.014783	0.678152
65.868718	158.534495	18.392474	-0.014804	0.677402
65.829380	158.057731	18.397479	-0.014794	0.676600
65.681415	157.608024	18.402483	-0.014757	0.675807
65.539520	157.132330	18.407488	-0.014722	0.674973
65.286347	156.661232	18.412493	-0.014660	0.674109
64.970701	156.247426	18.417498	-0.014582	0.673320
64.916963	155.753381	18.422503	-0.014568	0.672480
64.621913	155.351247	18.427507	-0.014496	0.671715
64.433084	154.920334	18.432512	-0.014449	0.670935
64.159278	154.478018	18.437517	-0.014381	0.670108
64.132092	154.028720	18.442522	-0.014374	0.669347
63.987995	153.536995	18.447527	-0.014338	0.668477
63.636187	153.136649	18.452531	-0.014252	0.667692
63.330363	152.740472	18.457536	-0.014177	0.666928
63.202076	152.334679	18.462541	-0.014145	0.666204
63.186745	151.861833	18.467546	-0.014140	0.665403
62.956944	151.425344	18.472551	-0.014084	0.664592
62.868047	150.970930	18.477555	-0.014061	0.663797
62.856441	150.483072	18.482560	-0.014058	0.662968
62.751638	150.012920	18.487565	-0.014032	0.662139
62.436095	149.614326	18.492570	-0.013954	0.661361
61.855884	149.241820	18.497575	-0.013812	0.660541
61.720851	148.812666	18.502579	-0.013778	0.659768
61.664313	148.374840	18.507584	-0.013764	0.659005
61.463254	147.932189	18.512589	-0.013714	0.658186
61.082367	147.568057	18.517594	-0.013621	0.657441
60.849647	147.183634	18.522599	-0.013563	0.656708
60.682187	146.798821	18.527603	-0.013522	0.655996
60.649198	146.357623	18.532608	-0.013513	0.655231
60.603925	145.908344	18.537613	-0.013501	0.654447
60.283380	145.519671	18.542618	-0.013423	0.653675
59.985439	145.126334	18.547623	-0.013349	0.652902
59.825695	144.733237	18.552627	-0.013310	0.652174
59.758477	144.329023	18.557632	-0.013293	0.651456
59.548062	143.924417	18.562637	-0.013241	0.650690
59.562129	143.468252	18.567642	-0.013244	0.649908
59.319840	143.065906	18.572647	-0.013184	0.649133
59.355903	142.589424	18.577651	-0.013192	0.648322
59.111590	142.189610	18.582656	-0.013132	0.647549
58.840232	141.797265	18.587661	-0.013065	0.646779
58.697259	141.404100	18.592666	-0.013029	0.646049
58.313141	141.010349	18.597671	-0.012935	0.645237
58.285597	140.588349	18.602675	-0.012928	0.644494
58.295454	140.118232	18.607680	-0.012930	0.643679
57.936831	139.735289	18.612685	-0.012841	0.642891
57.634539	139.350804	18.617690	-0.012767	0.642119
57.427569	138.988810	18.622695	-0.012716	0.641417
57.523459	138.516410	18.627699	-0.012739	0.640623
57.466583	138.076024	18.632704	-0.012724	0.639833
57.454338	137.594244	18.637709	-0.012721	0.638984
57.464829	137.124135	18.642714	-0.012723	0.638162
57.315094	136.661018	18.647719	-0.012686	0.637297
57.297802	136.205844	18.652723	-0.012681	0.636490
57.126072	135.733424	18.657728	-0.012638	0.635599
56.906243	135.269507	18.662733	-0.012584	0.634705
56.379449	134.895017	18.667738	-0.012455	0.633864
56.066097	134.475235	18.672743	-0.012377	0.633014
56.014465	134.033994	18.677747	-0.012364	0.632215
55.879480	133.637256	18.682752	-0.012331	0.631464
55.687729	133.177130	18.687757	-0.012283	0.630581
55.420549	132.777009	18.692762	-0.012217	0.629778
54.946956	132.410258	18.697767	-0.012101	0.628962
54.688997	132.025988	18.702771	-0.012038	0.628188
54.551719	131.618955	18.707776	-0.012004	0.627414
54.282686	131.294278	18.712781	-0.011937	0.626741
54.228405	130.871281	18.717786	-0.011924	0.625965
54.176086	130.443155	18.722791	-0.011910	0.625179
54.194344	129.988608	18.727795	-0.011914	0.624370
54.166892	129.536148	18.732800	-0.011907	0.623547
54.200181	129.055886	18.737805	-0.011914	0.622694
54.098582	128.617542	18.742810	-0.011889	0.621869
53.900580	128.158840	18.747815	-0.011840	0.620973
53.640149	127.730151	18.752819	-0.011776	0.620107
53.218034	127.349434	18.757824	-0.011672	0.619271
53.053402	126.907807	18.762829	-0.011631	0.618414
52.993175	126.464692	18.767834	-0.011616	0.617589
52.988613	126.029742	18.772839	-0.011614	0.616797
52.993287	125.547722	18.777843	-0.011615	0.615921
52.602730	125.131003	18.782848	-0.011519	0.615025
52.182743	124.739388	18.787853	-0.011416	0.614163
52.060727	124.319946	18.792858	-0.011385	0.613354
51.926935	123.875382	18.797863	-0.011352	0.612493
51.842100	123.465301	18.802867	-0.011331	0.611712
51.729677	123.019354	18.807872	-0.011303	0.610854
51.544053	122.576108	18.812877	-0.011257	0.609974
51.342490	122.148419	18.817882	-0.011207	0.609116
51.147877	121.710376	18.822887	-0.011159	0.608239
50.831370	121.323347	18.827891	-0.011081	0.607413
50.591183	120.966112	18.832896	-0.011022	0.606667
50.373546	120.544266	18.837901	-0.010968	0.605809
50.302720	120.119870	18.842906	-0.010950	0.604998
50.097950	119.701458	18.847911	-0.010900	0.604148
50.094917	119.240124	18.852915	-0.010898	0.603290
49.836559	118.846117	18.857920	-0.010835	0.602465
49.588349	118.466708	18.862925	-0.010773	0.601669
49.446933	118.039042	18.867930	-0.010738	0.600820
49.253881	117.625446	18.872935	-0.010691	0.599978
49.235549	117.177419	18.877939	-0.010685	0.599133
48.897749	116.776621	18.882944	-0.010602	0.598261
48.715402	116.373796	18.887949	-0.010557	0.597439
48.713047	115.971320	18.892954	-0.010556	0.596682
48.528256	115.530722	18.897959	-0.010510	0.595786
48.385657	115.101654	18.902963	-0.010475	0.594926
48.154137	114.696609	18.907968	-0.010418	0.594078
47.937620	114.279095	18.912973	-0.010364	0.593210
47.842367	113.857090	18.917978	-0.010341	0.592377
47.515172	113.491395	18.922983	-0.010260	0.591564
47.349830	113.088670	18.927987	-0.010219	0.590740
47.279554	112.652152	18.932992	-0.010201	0.589884
47.063231	112.233156	18.937997	-0.010148	0.589008
47.044555	111.800209	18.943002	-0.010143	0.588176
46.788971	111.409313	18.948007	-0.010080	0.587336
46.634007	110.999344	18.953011	-0.010041	0.586495
46.315134	110.615820	18.958016	-0.009963	0.585643
46.079161	110.229182	18.963021	-0.009905	0.584815
46.002583	109.796391	18.968026	-0.009886	0.583956
45.758795	109.404947	18.973031	-0.009825	0.583113
45.782937	108.975523	18.978035	-0.009831	0.582295
45.763763	108.534475	18.983040	-0.009826	0.581438
45.500860	108.118133	18.988045	-0.009761	0.580536
45.393245	107.687182	18.993050	-0.009734	0.579663
45.095244	107.284398	18.998055	-0.009661	0.578771
45.056308	106.844702	19.003059	-0.009650	0.577904
44.833160	106.468338	19.008064	-0.009595	0.577089
44.603133	106.050196	19.013069	-0.009539	0.576189
44.440055	105.634726	19.018074	-0.009498	0.575319
44.245380	105.228381	19.023079	-0.009450	0.574452
44.233387	104.778190	19.028083	-0.009447	0.573568
44.076412	104.356393	19.033088	-0.009408	0.572683
43.880185	103.961034	19.038093	-0.009359	0.571834
43.623494	103.554281	19.043098	-0.009296	0.570938
43.375215	103.152695	19.048103	-0.009235	0.570054
43.241198	102.736504	19.053107	-0.009201	0.569183
43.270828	102.284830	19.058112	-0.009208	0.568304
43.061829	101.881357	19.063117	-0.009156	0.567427
42.882671	101.486846	19.068122	-0.009112	0.566578
42.526527	101.095579	19.073127	-0.009025	0.565666
42.269618	100.710447	19.078131	-0.008961	0.564803
42.054635	100.316446	19.083136	-0.008908	0.563938
41.905529	99.913301	19.088141	-0.008871	0.563078
41.773520	99.522482	19.093146	-0.008838	0.562248
41.540144	99.137172	19.098151	-0.008781	0.561388
41.419884	98.729245	19.103155	-0.008751	0.560526
41.281904	98.326930	19.108160	-0.008717	0.559666
41.042741	97.921376	19.113165	-0.008658	0.558760
40.984593	97.507698	19.118170	-0.008643	0.557906
40.914989	97.113872	19.123175	-0.008625	0.557087
41.063521	96.630900	19.128179	-0.008661	0.556171
41.021320	96.171584	19.133184	-0.008650	0.555228
40.773718	95.743026	19.138189	-0.008589	0.554264
40.574886	95.316593	19.143194	-0.008540	0.553322
40.176505	94.951451	19.148199	-0.008442	0.552425
40.049344	94.537753	19.153203	-0.008410	0.551534
39.931343	94.107470	19.158208	-0.008381	0.550612
39.530257	93.730104	19.163213	-0.008282	0.549684
39.407598	93.315891	19.168218	-0.008252	0.548789
39.229910	92.902943	19.173223	-0.008208	0.547874
39.057787	92.541563	19.178227	-0.008165	0.547065
38.955888	92.118284	19.183232	-0.008140	0.546156
38.937577	91.665367	19.188237	-0.008135	0.545218
38.904602	91.217193	19.193242	-0.008126	0.544281
38.561586	90.818080	19.198247	-0.008042	0.543321
38.253256	90.450342	19.203251	-0.007966	0.542438
38.410937	89.981086	19.208256	-0.008004	0.541529
38.436809	89.498942	19.213261	-0.008010	0.540540
38.293092	89.059533	19.218266	-0.007974	0.539569
38.057265	88.616544	19.223271	-0.007916	0.538552
37.831571	88.207655	19.228275	-0.007860	0.537609
37.607694	87.807412	19.233280	-0.007805	0.536682
37.339790	87.388544	19.238285	-0.007739	0.535697
37.032209	87.002465	19.243290	-0.007663	0.534763
36.773044	86.603703	19.248295	-0.007599	0.533820
36.527834	86.212771	19.253299	-0.007539	0.532898
36.355802	85.847894	19.258304	-0.007496	0.532059
36.049725	85.463362	19.263309	-0.007421	0.531122
35.908382	85.063946	19.268314	-0.007386	0.530220
35.537248	84.704865	19.273319	-0.007295	0.529307
35.528994	84.291821	19.278323	-0.007292	0.528427
35.643912	83.868972	19.283328	-0.007320	0.527576
35.518702	83.459690	19.288333	-0.007288	0.526653
35.532379	83.012387	19.293338	-0.007291	0.525705
35.338233	82.588763	19.298343	-0.007243	0.524719
35.243361	82.150295	19.303347	-0.007219	0.523741
35.363104	81.681322	19.308352	-0.007248	0.522786
35.199760	81.238665	19.313357	-0.007208	0.521767
35.052113	80.798842	19.318362	-0.007171	0.520758
34.559659	80.422815	19.323367	-0.007050	0.519741
34.332281	80.010454	19.328371	-0.006994	0.518755
34.060054	79.634766	19.333376	-0.006927	0.517827
33.871671	79.239593	19.338381	-0.006880	0.516891
33.614438	78.852712	19.343386	-0.006817	0.515942
33.190682	78.500044	19.348391	-0.006713	0.514995
32.880545	78.136620	19.353395	-0.006637	0.514072
32.771572	77.751606	19.358400	-0.006610	0.513184
32.758058	77.362139	19.363405	-0.006606	0.512326
32.770086	76.937142	19.368410	-0.006608	0.511400
32.840886	76.481947	19.373415	-0.006625	0.510430
32.500779	76.094496	19.378419	-0.006541	0.509432
32.258659	75.712982	19.383424	-0.006481	0.508487
32.221230	75.301045	19.388429	-0.006472	0.507561
32.292223	74.852606	19.393434	-0.006488	0.506600
32.241586	74.398875	19.398439	-0.006476	0.505572
32.277332	73.927312	19.403443	-0.006484	0.504540
32.180854	73.471969	19.408448	-0.006460	0.503484
32.007934	73.038077	19.413453	-0.006417	0.502441
31.698342	72.637251	19.418458	-0.006340	0.501411
31.276417	72.246401	19.423463	-0.006237	0.500352
30.895668	71.871636	19.428467	-0.006143	0.499344
30.788355	71.461439	19.433472	-0.006117	0.498375
30.718875	71.050773	19.438477	-0.006099	0.497419
30.800946	70.589597	19.443482	-0.006118	0.496413
30.453151	70.190431	19.448487	-0.006033	0.495357
30.253857	69.776107	19.453491	-0.005984	0.494330
30.016464	69.384207	19.458496	-0.005925	0.493334
29.951891	68.975870	19.463501	-0.005909	0.492376
30.126968	68.477912	19.468506	-0.005951	0.491317
29.979970	68.041327	19.473511	-0.005914	0.490254
29.696884	67.620359	19.478515	-0.005845	0.489163
29.355125	67.243077	19.483520	-0.005761	0.488144
29.132175	66.861346	19.488525	-0.005706	0.487166
29.026049	66.435808	19.493530	-0.005679	0.486137
28.760683	66.034007	19.498535	-0.005614	0.485089
28.620370	65.611959	19.503539	-0.005579	0.484049
28.116642	65.289523	19.508544	-0.005455	0.483073
27.820904	64.929165	19.513549	-0.005383	0.482101
27.800071	64.515477	19.518554	-0.005377	0.481128
27.628535	64.121502	19.523559	-0.005335	0.480130
27.602401	63.693190	19.528563	-0.005328	0.479116
27.289716	63.341074	19.533568	-0.005251	0.478148
27.250334	62.941488	19.538573	-0.005240	0.477191
27.250639	62.501948	19.543578	-0.005240	0.476156
27.034794	62.104057	19.548583	-0.005187	0.475118
27.139617	61.638940	19.553587	-0.005212	0.474067
27.055009	61.214329	19.558592	-0.005190	0.473021
26.889244	60.802593	19.563597	-0.005149	0.471967
26.630851	60.404341	19.568602	-0.005086	0.470899
26.330095	60.012560	19.573607	-0.005012	0.469825
26.248740	59.586734	19.578611	-0.004991	0.468768
26.053954	59.203295	19.583616	-0.004943	0.467758
25.839956	58.806682	19.588621	-0.004890	0.466706
25.427012	58.459863	19.593626	-0.004789	0.465677
25.165592	58.075450	19.598631	-0.004725	0.464627
25.132281	57.660715	19.603635	-0.004716	0.463608
25.137089	57.257235	19.608640	-0.004716	0.462633
24.814903	56.874045	19.613645	-0.004637	0.461550
24.640768	56.488023	19.618650	-0.004594	0.460527
24.671777	56.050348	19.623655	-0.004601	0.459474
24.462786	55.650271	19.628659	-0.004549	0.458396
24.421185	55.253288	19.633664	-0.004539	0.457403
24.306467	54.830245	19.638669	-0.004510	0.456309
24.209723	54.403949	19.643674	-0.004486	0.455213
24.096923	53.979515	19.648679	-0.004458	0.454111
23.943624	53.572219	19.653683	-0.004420	0.453029
23.752579	53.175477	19.658688	-0.004373	0.451953
23.779798	52.713474	19.663693	-0.004379	0.450817
23.703668	52.269112	19.668698	-0.004360	0.449672
23.459683	51.862995	19.673703	-0.004299	0.448539
23.159939	51.495838	19.678707	-0.004226	0.447472
22.932390	51.097418	19.683712	-0.004169	0.446360
22.817597	50.670279	19.688717	-0.004141	0.445229
22.697935	50.244554	19.693722	-0.004111	0.444095
22.429259	49.871520	19.698727	-0.004045	0.443019
22.388681	49.432575	19.703731	-0.004034	0.441885
22.270905	49.014164	19.708736	-0.004005	0.440763
22.106815	48.591396	19.713741	-0.003964	0.439603
22.074116	48.149018	19.718746	-0.003956	0.438456
21.865562	47.760874	19.723751	-0.003904	0.437357
21.524316	47.376849	19.728755	-0.003820	0.436199
21.407778	46.952555	19.733760	-0.003791	0.435047
21.310615	46.525743	19.738765	-0.003767	0.433895
21.229042	46.121673	19.743770	-0.003747	0.432807
21.006095	45.709537	19.748775	-0.003692	0.431624
20.556299	45.353878	19.753779	-0.003581	0.430469
20.185300	45.006851	19.758784	-0.003490	0.429374
19.954876	44.636041	19.763789	-0.003433	0.428286
19.899298	44.249834	19.768794	-0.003419	0.427244
19.908821	43.814306	19.773799	-0.003421	0.426103
19.536696	43.463197	19.778803	-0.003329	0.424985
19.308162	43.089808	19.783808	-0.003273	0.423880
19.096619	42.737359	19.788813	-0.003221	0.422836
19.126459	42.308005	19.793818	-0.003227	0.421710
18.938582	41.929043	19.798823	-0.003181	0.420602
19.020491	41.478070	19.803827	-0.003200	0.419440
19.023644	41.060941	19.808832	-0.003201	0.418323
18.971189	40.637553	19.813837	-0.003187	0.417158
18.809216	40.224790	19.818842	-0.003147	0.415961
18.689973	39.803582	19.823847	-0.003117	0.414759
18.533857	39.388935	19.828851	-0.003079	0.413553
18.495529	38.968570	19.833856	-0.003069	0.412390
18.384481	38.532318	19.838861	-0.003041	0.411141
18.208437	38.115982	19.843866	-0.002998	0.409909
17.929780	37.726985	19.848871	-0.002929	0.408693
17.658328	37.362766	19.853875	-0.002862	0.407545
17.490450	36.958623	19.858880	-0.002821	0.406340
17.305397	36.552088	19.863885	-0.002775	0.405115
17.176293	36.145631	19.868890	-0.002743	0.403917
16.850416	35.791545	19.873895	-0.002663	0.402754
16.683675	35.393001	19.878899	-0.002621	0.401551
16.537572	34.999044	19.883904	-0.002585	0.400368
16.435461	34.586872	19.888909	-0.002560	0.399154
16.445998	34.174198	19.893914	-0.002562	0.397998
16.327922	33.760234	19.898919	-0.002532	0.396763
16.175990	33.347122	19.903923	-0.002494	0.395508
16.194289	32.905891	19.908928	-0.002498	0.394264
15.885273	32.538761	19.913933	-0.002422	0.393045
15.752735	32.129135	19.918938	-0.002389	0.391799
15.401612	31.762021	19.923943	-0.002303	0.390548
15.259047	31.357434	19.928947	-0.002268	0.389303
15.182331	30.969366	19.933952	-0.002248	0.388139
14.822125	30.610602	19.938957	-0.002160	0.386895
14.544855	30.245821	19.943962	-0.002092	0.385678
14.417054	29.853970	19.948967	-0.002060	0.384462
14.336849	29.460943	19.953971	-0.002040	0.383267
14.252502	29.059066	19.958976	-0.002019	0.382039
14.170071	28.648705	19.963981	-0.001998	0.380784
14.062825	28.242187	19.968986	-0.001971	0.379521
13.869371	27.870754	19.973991	-0.001923	0.378309
13.622177	27.495373	19.978995	-0.001862	0.377049
13.558922	27.089756	19.984000	-0.001846	0.375802
13.462432	26.675342	19.989005	-0.001822	0.374505
13.350488	26.290868	19.994010	-0.001794	0.373285
13.275799	25.880135	19.999015	-0.001776	0.372004
13.251160	25.444934	20.004019	-0.001769	0.370673
13.065465	25.048826	20.009024	-0.001723	0.369361
12.869826	24.676093	20.014029	-0.001675	0.368110
12.650197	24.291252	20.019034	-0.001620	0.366802
12.420241	23.908981	20.024039	-0.001564	0.365492
12.120100	23.541971	20.029043	-0.001490	0.364182
11.944919	23.180963	20.034048	-0.001447	0.362961
12.018681	22.739981	20.039053	-0.001464	0.361639
11.936881	22.331609	20.044058	-0.001443	0.360319
11.799001	21.936776	20.049063	-0.001409	0.359002
