Sun Feb 26 13:44:26 2017

Number of Points = 3601
Depth (nm)	Load (µN)	Time (s)	Depth (V)	Load (V)
0.680852	0.071046	0.000000	0.000087	0.281087

0.532403	0.099029	0.005005	0.000123	0.281082
0.375576	0.153697	0.010010	0.000162	0.281177
0.227024	0.244251	0.015014	0.000198	0.281421
0.186447	0.248981	0.020019	0.000208	0.281408
0.295500	0.231108	0.025024	0.000182	0.281421
0.226693	0.242660	0.030029	0.000198	0.281413
0.532911	0.182216	0.035034	0.000124	0.281411
0.567116	0.178184	0.040038	0.000116	0.281422
0.548859	0.179239	0.045043	0.000120	0.281411
0.678704	0.119628	0.050048	0.000089	0.281274
0.872472	0.032718	0.055053	0.000042	0.281079
0.860562	0.033874	0.060058	0.000045	0.281074
0.877604	-0.045223	0.065062	0.000041	0.280771
0.711815	-0.015281	0.070067	0.000081	0.280760
0.807687	-0.110483	0.075072	0.000058	0.280454
0.535032	-0.068002	0.080077	0.000125	0.280409
0.488475	-0.123994	0.085082	0.000136	0.280148
0.231679	-0.078703	0.090086	0.000199	0.280127
0.026534	-0.115500	0.095091	0.000250	0.279817
0.150589	-0.136248	0.100096	0.000219	0.279831
0.072246	-0.192004	0.105101	0.000239	0.279545
0.140488	-0.218909	0.110106	0.000222	0.279491
0.319200	-0.323657	0.115110	0.000179	0.279210
0.422680	-0.383903	0.120115	0.000154	0.279049
0.452675	-0.442409	0.125120	0.000146	0.278837
0.674849	-0.562051	0.130125	0.000092	0.278531
0.801179	-0.670611	0.135130	0.000062	0.278193
0.906140	-0.773441	0.140134	0.000036	0.277860
0.757042	-0.836298	0.145139	0.000073	0.277487
0.989894	-0.973987	0.150144	0.000016	0.277115
0.825431	-1.051070	0.155149	0.000057	0.276671
0.674868	-1.113996	0.160154	0.000094	0.276295
0.601381	-1.192844	0.165158	0.000112	0.275915
0.376676	-1.248615	0.170163	0.000167	0.275508
0.352103	-1.339660	0.175168	0.000173	0.275117
0.321020	-1.428554	0.180173	0.000181	0.274728
0.151348	-1.488480	0.185178	0.000223	0.274347
0.212989	-1.576435	0.190182	0.000208	0.274036
0.223251	-1.691844	0.195187	0.000205	0.273570
0.335305	-1.811981	0.200192	0.000178	0.273167
0.244538	-1.910343	0.205197	0.000201	0.272689
0.216726	-2.014631	0.210202	0.000208	0.272236
-0.005338	-2.082712	0.215206	0.000262	0.271775
-0.048931	-2.184171	0.220211	0.000273	0.271320
-0.148320	-2.274041	0.225216	0.000298	0.270866
-0.130274	-2.392009	0.230221	0.000293	0.270391
-0.259313	-2.480360	0.235226	0.000325	0.269918
-0.179733	-2.609114	0.240230	0.000306	0.269447
-0.450427	-2.655819	0.245235	0.000372	0.269030
-0.475490	-2.763885	0.250240	0.000379	0.268558
-0.648575	-2.845691	0.255245	0.000421	0.268073
-0.814511	-2.925908	0.260250	0.000462	0.267600
-0.841980	-3.028905	0.265254	0.000469	0.267144
-1.017942	-3.110741	0.270259	0.000512	0.266654
-5.632476	-2.274429	0.275264	0.001639	0.266357
-5.728724	-2.172911	0.280269	0.001663	0.266704
-6.177378	-2.058583	0.285274	0.001772	0.266814
-5.737318	-2.135657	0.290278	0.001665	0.266853
-5.236498	-2.169190	0.295283	0.001543	0.267125
-5.467507	-2.121278	0.300288	0.001599	0.267135
-5.699469	-2.076484	0.305293	0.001656	0.267131
-5.499080	-2.116920	0.310298	0.001607	0.267126
-5.214186	-2.169969	0.315302	0.001538	0.267138
-5.096863	-2.195852	0.320307	0.001509	0.267126
-4.809799	-2.250061	0.325312	0.001439	0.267135
-4.721263	-2.286035	0.330317	0.001418	0.267056
-4.809644	-2.326970	0.335322	0.001440	0.266810
-4.882745	-2.309655	0.340326	0.001458	0.266822
-5.020151	-2.344347	0.345331	0.001491	0.266562
-5.191266	-2.320348	0.350336	0.001533	0.266521
-5.347268	-2.298966	0.355341	0.001572	0.266482
-5.792833	-2.283163	0.360346	0.001681	0.266179
-6.417806	-2.158139	0.365350	0.001833	0.266188
-7.300545	-1.969095	0.370355	0.002049	0.266253
-6.993080	-1.965574	0.375360	0.001974	0.266522
-7.064134	-1.952722	0.380365	0.001992	0.266517
-6.839288	-1.997231	0.385370	0.001937	0.266515
-6.809705	-2.000416	0.390374	0.001930	0.266525
-6.519573	-2.061072	0.395379	0.001859	0.266509
-6.032625	-2.164897	0.400384	0.001740	0.266475
-6.398955	-2.161997	0.405389	0.001830	0.266183
-6.208692	-2.200404	0.410394	0.001784	0.266178
-5.824321	-2.319563	0.415398	0.001690	0.265994
-6.109571	-2.299713	0.420403	0.001760	0.265840
-6.184779	-2.351817	0.425408	0.001778	0.265557
-6.281873	-2.357961	0.430413	0.001802	0.265450
-6.428877	-2.376486	0.435418	0.001838	0.265249
-6.562970	-2.399489	0.440422	0.001871	0.265040
-7.390775	-2.266333	0.445427	0.002073	0.264914
-7.449633	-2.251725	0.450432	0.002088	0.264926
-7.649838	-2.251641	0.455437	0.002137	0.264759
-8.470860	-2.125474	0.460442	0.002338	0.264610
-8.976603	-1.966607	0.465446	0.002461	0.264861
-9.347901	-1.880764	0.470451	0.002552	0.264916
-9.588519	-1.823851	0.475456	0.002611	0.264956
-9.430090	-1.785560	0.480461	0.002572	0.265249
-9.197155	-1.831980	0.485466	0.002516	0.265246
-8.893955	-1.888738	0.490470	0.002442	0.265258
-8.663544	-1.937277	0.495475	0.002386	0.265243
-7.812917	-2.101533	0.500480	0.002178	0.265255
-7.271716	-2.285204	0.505485	0.002046	0.264927
-7.001013	-2.396522	0.510490	0.001980	0.264680
-7.383079	-2.388982	0.515494	0.002074	0.264393
-7.794742	-2.361345	0.520499	0.002174	0.264166
-7.912644	-2.371347	0.525504	0.002203	0.264025
-8.397241	-2.347666	0.530509	0.002322	0.263720
-8.650443	-2.318947	0.535514	0.002384	0.263630
-9.424669	-2.218920	0.540518	0.002573	0.263407
-9.809788	-2.145962	0.545523	0.002667	0.263395
-10.188752	-2.068757	0.550528	0.002760	0.263406
-10.481741	-2.011273	0.555533	0.002832	0.263405
-10.822749	-1.945972	0.560538	0.002915	0.263398
-10.684788	-1.895348	0.565542	0.002882	0.263728
-10.716307	-1.891516	0.570547	0.002889	0.263718
-10.606080	-1.911679	0.575552	0.002863	0.263724
-10.613434	-1.911285	0.580557	0.002865	0.263719
-10.517795	-1.930231	0.585562	0.002841	0.263717
-10.278096	-1.990811	0.590566	0.002783	0.263660
-10.208910	-2.065366	0.595571	0.002766	0.263399
-9.475627	-2.212303	0.600576	0.002587	0.263387
-9.818403	-2.217061	0.605581	0.002671	0.263079
-9.821833	-2.245889	0.610586	0.002672	0.262952
-10.369565	-2.175409	0.615590	0.002806	0.262793
-10.380784	-2.212305	0.620595	0.002809	0.262626
-11.032660	-2.124314	0.625600	0.002968	0.262453
-11.433275	-2.046592	0.630605	0.003066	0.262449
-11.568304	-2.019918	0.635610	0.003099	0.262449
-11.844215	-1.962404	0.640614	0.003167	0.262462
-11.813178	-1.972861	0.645619	0.003160	0.262443
-11.798822	-1.972620	0.650624	0.003156	0.262456
-12.185502	-1.897235	0.655629	0.003251	0.262453
-11.939058	-1.946170	0.660634	0.003191	0.262450
-11.399668	-2.111494	0.665638	0.003059	0.262196
-11.471517	-2.111135	0.670643	0.003077	0.262136
-11.513216	-2.144964	0.675648	0.003087	0.261956
-11.696660	-2.138974	0.680653	0.003132	0.261826
-11.444457	-2.219490	0.685658	0.003071	0.261693
-12.086130	-2.131015	0.690662	0.003228	0.261531
-12.394917	-2.072389	0.695667	0.003303	0.261522
-12.551922	-2.066661	0.700672	0.003342	0.261413
-13.405642	-1.949505	0.705677	0.003550	0.261195
-13.454433	-1.915168	0.710682	0.003562	0.261301
-12.960195	-1.981059	0.715686	0.003442	0.261435
-13.632492	-1.906520	0.720691	0.003606	0.261187
-13.350460	-1.959734	0.725696	0.003538	0.261196
-13.513471	-1.929071	0.730701	0.003577	0.261189
-13.142453	-2.003240	0.735706	0.003487	0.261183
-12.946903	-2.038281	0.740710	0.003439	0.261198
-13.255992	-2.027793	0.745715	0.003515	0.260981
-13.580286	-1.987720	0.750720	0.003594	0.260879
-13.435610	-2.015242	0.755725	0.003559	0.260882
-13.272261	-2.075557	0.760730	0.003519	0.260760
-13.817533	-2.013222	0.765734	0.003653	0.260566
-13.790377	-2.021372	0.770739	0.003646	0.260554
-13.741398	-2.043420	0.775744	0.003635	0.260500
-14.137396	-2.020181	0.780749	0.003731	0.260264
-14.215392	-2.006145	0.785754	0.003751	0.260258
-14.324404	-1.980924	0.790758	0.003777	0.260274
-14.485830	-1.966607	0.795763	0.003817	0.260198
-14.905788	-1.943540	0.800768	0.003920	0.259941
-15.065799	-1.912478	0.805773	0.003959	0.259939
-15.131812	-1.901256	0.810778	0.003975	0.259930
-15.421328	-1.840741	0.815782	0.004046	0.259946
-15.202243	-1.887523	0.820787	0.003993	0.259929
-14.763245	-1.971160	0.825792	0.003886	0.259940
-14.480837	-2.048137	0.830797	0.003817	0.259847
-14.514432	-2.092676	0.835802	0.003825	0.259625
-14.116256	-2.213032	0.840806	0.003728	0.259442
-14.344972	-2.212362	0.845811	0.003784	0.259250
-14.660892	-2.187085	0.850816	0.003861	0.259090
-14.933001	-2.189106	0.855821	0.003928	0.258849
-15.822505	-2.038363	0.860826	0.004145	0.258744
-16.255861	-1.951157	0.865830	0.004251	0.258752
-16.938370	-1.819751	0.870835	0.004418	0.258740
-16.942590	-1.815810	0.875840	0.004419	0.258753
-17.115542	-1.782286	0.880845	0.004462	0.258750
-17.287996	-1.746778	0.885850	0.004504	0.258757
-17.309327	-1.666066	0.890854	0.004509	0.259088
-17.139513	-1.701733	0.895859	0.004468	0.259078
-16.303967	-1.869356	0.900864	0.004264	0.259062
-16.285814	-1.945010	0.905869	0.004260	0.258749
-16.194884	-1.964165	0.910874	0.004238	0.258743
-16.109789	-2.032560	0.915878	0.004217	0.258518
-16.301448	-2.017375	0.920883	0.004264	0.258420
-16.551365	-2.033571	0.925888	0.004325	0.258136
-17.165524	-1.918184	0.930893	0.004476	0.258112
-17.116254	-1.929546	0.935898	0.004464	0.258104
-17.110912	-1.985992	0.940902	0.004463	0.257863
-17.528768	-1.915825	0.945907	0.004565	0.257810
-17.348609	-1.950312	0.950912	0.004521	0.257813
-17.186593	-2.022623	0.955917	0.004481	0.257637
-17.436048	-2.010501	0.960922	0.004543	0.257475
-17.220229	-2.066037	0.965926	0.004490	0.257418
-17.656369	-2.038844	0.970931	0.004597	0.257162
-17.687191	-2.030971	0.975936	0.004604	0.257169
-18.090535	-1.995875	0.980941	0.004703	0.256975
-18.658939	-1.913178	0.985946	0.004842	0.256848
-18.728606	-1.896760	0.990950	0.004859	0.256859
-18.941575	-1.857501	0.995955	0.004911	0.256847
-19.346270	-1.776094	1.000960	0.005010	0.256855

-19.400182	-1.694787	1.010957	0.005024	0.257163
-19.067984	-1.758823	1.020954	0.004943	0.257167
-19.049992	-1.762668	1.030950	0.004939	0.257165
-18.915331	-1.778619	1.040947	0.004906	0.257210
-18.012086	-1.952724	1.050944	0.004686	0.257224
-17.290285	-2.141662	1.060941	0.004510	0.257018
-17.418997	-2.199674	1.070938	0.004542	0.256652
-17.899843	-2.171432	1.080934	0.004659	0.256361
-19.133287	-1.942334	1.090931	0.004961	0.256302
-19.996782	-1.690039	1.100928	0.005172	0.256662
-20.397831	-1.495099	1.110925	0.005270	0.257168
-19.382790	-1.588106	1.120922	0.005023	0.257632
-18.277047	-1.764073	1.130918	0.004753	0.257811
-17.226887	-2.010270	1.140915	0.004497	0.257637
-16.743425	-2.184620	1.150912	0.004379	0.257290
-17.339775	-2.151510	1.160909	0.004525	0.256922
-18.035227	-2.030054	1.170906	0.004695	0.256854
-18.910064	-1.837323	1.180902	0.004909	0.256944
-18.906522	-1.786358	1.190899	0.004908	0.257169
-19.208813	-1.649474	1.200896	0.004982	0.257506
-18.513220	-1.715177	1.210893	0.004813	0.257814
-17.359282	-1.941955	1.220890	0.004531	0.257813
-17.165614	-2.023445	1.230886	0.004484	0.257623
-17.845790	-1.921915	1.240883	0.004651	0.257482
-18.222842	-1.803169	1.250880	0.004743	0.257675
-17.778867	-1.858495	1.260877	0.004635	0.257814
-17.579006	-1.898635	1.270874	0.004586	0.257809
-17.175866	-1.976934	1.280870	0.004488	0.257812
-17.470409	-1.918874	1.290867	0.004560	0.257812
-17.939172	-1.826325	1.300864	0.004675	0.257812
-17.681302	-1.876687	1.310861	0.004613	0.257813
-17.386556	-1.935174	1.320858	0.004541	0.257809
-17.963534	-1.776646	1.330854	0.004682	0.258005
-18.191067	-1.691222	1.340851	0.004738	0.258181
-17.838631	-1.702309	1.350848	0.004652	0.258433
-17.690614	-1.689798	1.360845	0.004616	0.258612
-17.307903	-1.734030	1.370842	0.004523	0.258746
-16.162281	-1.972672	1.380838	0.004244	0.258687
-14.899801	-2.314408	1.390835	0.003936	0.258279
-15.129921	-2.407848	1.400832	0.003992	0.257675
-16.262330	-2.265250	1.410829	0.004269	0.257325
-18.448696	-1.806868	1.420826	0.004803	0.257448
-19.978826	-1.353160	1.430822	0.005177	0.258114
-19.916412	-1.158204	1.440819	0.005162	0.259013
-18.265396	-1.336023	1.450816	0.004759	0.259647
-15.681131	-1.817203	1.460813	0.004128	0.259762
-13.894643	-2.273814	1.470810	0.003692	0.259304
-13.429072	-2.550119	1.480806	0.003579	0.258502
-14.735139	-2.447388	1.490803	0.003898	0.257831
-16.598064	-2.159870	1.500800	0.004354	0.257487
-18.041057	-1.793112	1.510797	0.004706	0.257848
-18.605584	-1.562942	1.520794	0.004844	0.258366
-18.660659	-1.400301	1.530790	0.004858	0.259024
-17.691919	-1.476145	1.540787	0.004622	0.259519
-16.011025	-1.779597	1.550784	0.004211	0.259635
-14.368464	-2.142673	1.560781	0.003811	0.259460
-14.029447	-2.322639	1.570778	0.003728	0.258968
-15.081883	-2.220292	1.580774	0.003986	0.258513
-16.133756	-2.031528	1.590771	0.004243	0.258434
-17.504230	-1.720657	1.600768	0.004578	0.258613
-17.238099	-1.668202	1.610765	0.004513	0.259067
-16.698639	-1.716435	1.620762	0.004381	0.259316
-15.828203	-1.887206	1.630758	0.004169	0.259317
-15.353128	-1.980291	1.640755	0.004053	0.259317
-14.956311	-2.061843	1.650752	0.003957	0.259300
-15.007886	-2.100812	1.660749	0.003970	0.259087
-15.471976	-2.009293	1.670746	0.004083	0.259087
-16.165719	-1.872966	1.680742	0.004253	0.259086
-17.082758	-1.639255	1.690739	0.004477	0.259316
-17.017003	-1.551771	1.700736	0.004461	0.259750
-15.755879	-1.743869	1.710733	0.004154	0.259990
-14.701654	-1.962427	1.720730	0.003896	0.259940
-14.085970	-2.120054	1.730726	0.003746	0.259781
-13.937659	-2.228457	1.740723	0.003711	0.259437
-14.119681	-2.259194	1.750720	0.003755	0.259148
-15.149245	-2.069771	1.760717	0.004007	0.259091
-16.442577	-1.798626	1.770714	0.004323	0.259163
-16.717964	-1.660307	1.780710	0.004391	0.259526
-16.705021	-1.551621	1.790707	0.004388	0.260006
-15.758102	-1.652846	1.800704	0.004157	0.260372
-14.449660	-1.876788	1.810701	0.003837	0.260514
-14.057879	-2.010588	1.820698	0.003742	0.260268
-13.552659	-2.171239	1.830694	0.003619	0.260002
-13.914836	-2.176916	1.840691	0.003708	0.259669
-14.830973	-2.004365	1.850688	0.003932	0.259636
-15.623474	-1.822336	1.860685	0.004126	0.259748
-15.504215	-1.778272	1.870682	0.004097	0.260039
-14.976879	-1.828252	1.880678	0.003968	0.260269
-14.744281	-1.873697	1.890675	0.003912	0.260270
-14.475214	-1.925897	1.900672	0.003846	0.260272
-14.165376	-1.986913	1.910669	0.003771	0.260270
-14.068217	-2.006574	1.920666	0.003748	0.260267
-14.249249	-1.971134	1.930662	0.003792	0.260265
-14.709891	-1.879540	1.940659	0.003905	0.260268
-14.724272	-1.829059	1.950656	0.003909	0.260473
-14.642111	-1.823927	1.960653	0.003889	0.260564
-14.449665	-1.836714	1.970650	0.003842	0.260671
-13.800788	-1.944870	1.980646	0.003684	0.260753
-13.546236	-2.038218	1.990643	0.003622	0.260565
-13.035007	-2.172053	2.000640	0.003498	0.260421
-13.719630	-2.072703	2.010637	0.003665	0.260268
-13.974792	-2.022765	2.020634	0.003728	0.260266
-14.446652	-1.894727	2.030630	0.003843	0.260417
-14.527534	-1.845599	2.040627	0.003863	0.260559
-14.189452	-1.841132	2.050624	0.003781	0.260864
-14.053033	-1.863427	2.060621	0.003748	0.260882
-14.535555	-1.717872	2.070618	0.003866	0.261099
-14.296619	-1.694954	2.080614	0.003808	0.261399
-12.991528	-1.933991	2.090611	0.003489	0.261473
-12.649602	-2.065093	2.100608	0.003406	0.261197
-12.264967	-2.197504	2.110605	0.003313	0.260952
-12.714856	-2.176626	2.120602	0.003423	0.260660
-13.581469	-2.029657	2.130598	0.003635	0.260558
-13.949525	-1.887532	2.140595	0.003725	0.260858
-13.877332	-1.879492	2.150592	0.003707	0.260953
-13.903313	-1.817998	2.160589	0.003714	0.261194
-13.546295	-1.827138	2.170586	0.003627	0.261455
-13.036458	-1.910872	2.180582	0.003503	0.261525
-12.634382	-1.989443	2.190579	0.003405	0.261526
-13.108341	-1.928676	2.200576	0.003521	0.261386
-13.007181	-1.914826	2.210573	0.003497	0.261530
-12.891756	-1.937416	2.220570	0.003469	0.261529
-12.539506	-2.006917	2.230566	0.003383	0.261527
-12.446710	-2.065582	2.240563	0.003361	0.261352
-12.147755	-2.160921	2.250560	0.003288	0.261194
-12.283424	-2.133736	2.260557	0.003321	0.261195
-12.916011	-2.010560	2.270554	0.003476	0.261190
-13.733518	-1.819251	2.280550	0.003676	0.261320
-13.581932	-1.775630	2.290547	0.003639	0.261634
-13.261292	-1.777426	2.300544	0.003561	0.261896
-12.280173	-1.911600	2.310541	0.003322	0.262146
-11.972649	-2.011510	2.320538	0.003247	0.261976
-11.871259	-2.065651	2.330534	0.003223	0.261829
-11.769822	-2.085537	2.340531	0.003198	0.261828
-12.259894	-2.032389	2.350528	0.003318	0.261642
-12.165767	-2.006973	2.360525	0.003295	0.261829
-12.691460	-1.903782	2.370522	0.003424	0.261827
-12.870095	-1.830666	2.380518	0.003468	0.261989
-12.303299	-1.905582	2.390515	0.003330	0.262145
-12.007774	-1.963665	2.400512	0.003258	0.262144
-11.772528	-2.009070	2.410509	0.003201	0.262146
-11.225534	-2.116692	2.420506	0.003068	0.262145
-11.519282	-2.113884	2.430502	0.003140	0.261908
-11.965587	-2.004531	2.440499	0.003249	0.262000
-11.864014	-1.989966	2.450496	0.003224	0.262147
-12.090935	-1.945060	2.460493	0.003280	0.262147
-12.506026	-1.825552	2.470490	0.003382	0.262309
-12.432998	-1.778023	2.480486	0.003364	0.262572
-11.949697	-1.822898	2.490483	0.003246	0.262786
-11.813846	-1.849077	2.500480	0.003213	0.262787
-11.060818	-1.979349	2.510477	0.003030	0.262862
-10.055342	-2.208546	2.520474	0.002785	0.262726
-9.865247	-2.337780	2.530470	0.002739	0.262332
-10.406085	-2.310912	2.540467	0.002871	0.261991
-11.590329	-2.110322	2.550464	0.003160	0.261852
-12.178653	-1.924636	2.560461	0.003304	0.262151
-12.869109	-1.696564	2.570458	0.003473	0.262545
-12.183393	-1.735064	2.580454	0.003306	0.262956
-11.498127	-1.839298	2.590451	0.003139	0.263085
-10.582849	-2.017980	2.600448	0.002916	0.263089
-10.038314	-2.126137	2.610445	0.002783	0.263083
-9.883391	-2.224230	2.620442	0.002745	0.262793
-10.032198	-2.253339	2.630438	0.002782	0.262543
-10.319534	-2.216701	2.640435	0.002853	0.262457
-10.635860	-2.154101	2.650432	0.002930	0.262458
-10.905077	-2.100568	2.660429	0.002996	0.262459
-11.477117	-1.976692	2.670426	0.003136	0.262507
-11.694211	-1.861522	2.680422	0.003189	0.262816
-11.915811	-1.734950	2.690419	0.003244	0.263170
-11.252817	-1.795107	2.700416	0.003082	0.263468
-10.238992	-1.933214	2.710413	0.002835	0.263727
-9.622892	-2.124870	2.720410	0.002685	0.263426
-9.306012	-2.223304	2.730406	0.002608	0.263270
-9.590661	-2.211330	2.740403	0.002677	0.263082
-10.129920	-2.158363	2.750400	0.002809	0.262855
-10.176878	-2.095293	2.760397	0.002821	0.263083
-10.488703	-2.033872	2.770394	0.002898	0.263083
-10.829563	-1.957408	2.780390	0.002981	0.263122
-10.190396	-2.015890	2.790387	0.002825	0.263408
-10.181427	-2.017232	2.800384	0.002823	0.263409
-10.515628	-1.944922	2.810381	0.002905	0.263436
-10.185089	-1.942562	2.820378	0.002825	0.263722
-10.008426	-1.976980	2.830374	0.002782	0.263722
-9.917065	-1.993945	2.840371	0.002760	0.263725
-9.346415	-2.105312	2.850368	0.002621	0.263727
-8.749337	-2.242735	2.860365	0.002475	0.263641
-9.194793	-2.209998	2.870362	0.002584	0.263406
-9.323760	-2.185138	2.880358	0.002616	0.263403
-9.761535	-2.098629	2.890355	0.002723	0.263404
-10.398509	-1.957071	2.900352	0.002879	0.263473
-10.675006	-1.812725	2.910349	0.002947	0.263855
-10.019325	-1.884661	2.920346	0.002787	0.264097
-9.342048	-1.968758	2.930342	0.002622	0.264304
-9.149862	-2.005595	2.940339	0.002575	0.264307
-8.736994	-2.128784	2.950336	0.002475	0.264127
-7.952168	-2.314823	2.960333	0.002284	0.263991
-8.028916	-2.376948	2.970330	0.002303	0.263661
-8.724545	-2.300400	2.980326	0.002473	0.263404
-9.914423	-2.050934	2.990323	0.002764	0.263470
-10.731068	-1.795551	3.000320	0.002963	0.263873
-10.817850	-1.656869	3.010317	0.002985	0.264389
-9.478089	-1.834203	3.020314	0.002658	0.264752
-8.007245	-2.115106	3.030310	0.002299	0.264786
-7.426361	-2.311383	3.040307	0.002157	0.264437
-7.443415	-2.373407	3.050304	0.002162	0.264158
-8.270694	-2.280406	3.060301	0.002364	0.263861
-8.917879	-2.109392	3.070298	0.002523	0.264047
-9.660094	-1.945018	3.080294	0.002704	0.264124
-9.122445	-2.007217	3.090291	0.002573	0.264308
-8.800149	-2.023273	3.100288	0.002495	0.264508
-8.224857	-2.109537	3.110285	0.002354	0.264620
-8.361091	-2.118226	3.120282	0.002388	0.264469
-8.093916	-2.184476	3.130278	0.002323	0.264410
-8.349390	-2.108975	3.140275	0.002386	0.264516
-8.219382	-2.152468	3.150272	0.002354	0.264439
-8.210010	-2.111096	3.160269	0.002352	0.264621
-8.062335	-2.140511	3.170266	0.002316	0.264619
-8.476870	-2.059424	3.180262	0.002418	0.264616
-8.975917	-1.931903	3.190259	0.002540	0.264740
-8.489040	-1.982636	3.200256	0.002421	0.264929
-8.099317	-2.011585	3.210253	0.002327	0.265130
-7.379287	-2.151710	3.220250	0.002151	0.265135
-6.487792	-2.392984	3.230246	0.001934	0.264854
-6.457995	-2.484186	3.240243	0.001927	0.264491
-7.669309	-2.288527	3.250240	0.002223	0.264310
-9.204240	-1.945322	3.260237	0.002598	0.264486
-9.009925	-1.885522	3.270234	0.002551	0.264900
-8.956982	-1.792960	3.280230	0.002538	0.265335
-8.080646	-1.913010	3.290227	0.002324	0.265555
-6.908725	-2.143378	3.300224	0.002038	0.265554
-6.381415	-2.282438	3.310221	0.001910	0.265403
-6.295318	-2.356774	3.320218	0.001889	0.265159
-6.957649	-2.282217	3.330214	0.002051	0.264922
-7.189101	-2.234925	3.340211	0.002108	0.264929
-7.877569	-2.096174	3.350208	0.002276	0.264943
-7.547024	-2.086568	3.360205	0.002196	0.265257
-8.168064	-1.940217	3.370202	0.002348	0.265359
-7.812805	-1.961705	3.380198	0.002261	0.265563
-6.491017	-2.187844	3.390195	0.001939	0.265704
-6.053562	-2.314456	3.400192	0.001832	0.265531
-6.498993	-2.291238	3.410189	0.001942	0.265258
-7.278954	-2.138040	3.420186	0.002132	0.265257
-7.727602	-1.987400	3.430182	0.002242	0.265520
-8.516069	-1.747060	3.440179	0.002435	0.265880
-7.310946	-1.910078	3.450176	0.002141	0.266190
-5.635583	-2.240172	3.460173	0.001732	0.266186
-4.985102	-2.448369	3.470170	0.001573	0.265846
-5.042382	-2.537193	3.480166	0.001588	0.265422
-5.822762	-2.461258	3.490163	0.001779	0.265093
-7.562876	-2.102691	3.500160	0.002204	0.265162
-8.754042	-1.757397	3.510157	0.002495	0.265632
-8.128038	-1.731423	3.520154	0.002342	0.266260
-7.137201	-1.838162	3.530150	0.002101	0.266629
-5.829254	-2.069465	3.540147	0.001781	0.266737
-5.448160	-2.195689	3.550144	0.001689	0.266519
-4.713831	-2.399861	3.560141	0.001510	0.266266
-4.567903	-2.526711	3.570138	0.001474	0.265851
-4.970092	-2.531679	3.580134	0.001573	0.265495
-5.934417	-2.399625	3.590131	0.001809	0.265251
-7.852404	-1.952651	3.600128	0.002277	0.265546
-8.479866	-1.675365	3.610125	0.002431	0.266196
-7.525459	-1.712766	3.620122	0.002198	0.266827
-6.436557	-1.854329	3.630118	0.001932	0.267131
-4.888768	-2.158301	3.640115	0.001555	0.267130
-4.133510	-2.380340	3.650112	0.001371	0.266820
-3.757420	-2.565070	3.660109	0.001279	0.266352
-4.591663	-2.503482	3.670106	0.001483	0.265920
-5.696555	-2.298970	3.680102	0.001753	0.265865
-7.101851	-1.979497	3.690099	0.002097	0.266047
-7.035182	-1.880550	3.700096	0.002081	0.266519
-6.543046	-1.886952	3.710093	0.001961	0.266898
-5.431496	-2.049093	3.720090	0.001690	0.267133
-4.700358	-2.204958	3.730086	0.001511	0.267081
-4.781792	-2.251647	3.740083	0.001531	0.266817
-4.196785	-2.387878	3.750080	0.001389	0.266726
-4.125597	-2.461856	3.760077	0.001372	0.266472
-5.144676	-2.329535	3.770074	0.001621	0.266185
-6.170483	-2.060457	3.780070	0.001872	0.266469
-6.349425	-1.950398	3.790067	0.001916	0.266783
-6.481333	-1.821113	3.800064	0.001948	0.267217
-5.466321	-1.966230	3.810061	0.001701	0.267444
-4.407837	-2.173549	3.820058	0.001442	0.267446
-3.643388	-2.345750	3.830054	0.001256	0.267352
-3.348267	-2.487828	3.840051	0.001184	0.266998
-3.577039	-2.523563	3.850048	0.001241	0.266658
-4.742922	-2.326798	3.860045	0.001526	0.266521
-6.244456	-1.986817	3.870042	0.001892	0.266709
-7.008927	-1.691100	3.880038	0.002079	0.267319
-6.164287	-1.710451	3.890035	0.001873	0.267933
-4.920309	-1.885958	3.900032	0.001570	0.268221
-3.297991	-2.223226	3.910029	0.001174	0.268143
-2.626811	-2.440261	3.920026	0.001010	0.267785
-2.751012	-2.527666	3.930022	0.001041	0.267315
-3.492508	-2.464988	3.940019	0.001222	0.266965
-4.517074	-2.286796	3.950016	0.001473	0.266867
-5.349534	-2.051419	3.960013	0.001676	0.267168
-5.629483	-1.902420	3.970010	0.001745	0.267561
-5.471381	-1.841211	3.980006	0.001707	0.267947
-4.954968	-1.851817	3.990003	0.001581	0.268327
-3.680156	-2.086105	4.000000	0.001270	0.268393
-3.053956	-2.232228	4.009997	0.001117	0.268296
-2.990459	-2.298300	4.019994	0.001102	0.268071
-2.989473	-2.363072	4.029990	0.001102	0.267799
-3.071529	-2.386949	4.039987	0.001122	0.267631
-4.047390	-2.223912	4.049984	0.001361	0.267509
-4.295140	-2.111109	4.059981	0.001422	0.267777
-4.538701	-2.015742	4.069978	0.001481	0.267975
-4.364481	-1.990947	4.079974	0.001439	0.268221
-3.594697	-2.100586	4.089971	0.001251	0.268394
-3.140166	-2.188837	4.099968	0.001141	0.268398
-3.021631	-2.256076	4.109965	0.001112	0.268213
-3.632184	-2.133651	4.119962	0.001262	0.268222
-3.666173	-2.085987	4.129958	0.001270	0.268393
-3.408602	-2.136115	4.139955	0.001207	0.268394
-2.882434	-2.238690	4.149952	0.001079	0.268396
-2.572808	-2.301344	4.159949	0.001004	0.268388
-2.819339	-2.327576	4.169946	0.001065	0.268074
-3.113196	-2.270337	4.179942	0.001137	0.268071
-3.464901	-2.151705	4.189939	0.001223	0.268278
-3.612883	-2.093753	4.199936	0.001259	0.268397
-3.603129	-2.034601	4.209933	0.001257	0.268652
-3.455090	-2.041018	4.219930	0.001221	0.268745
-2.854402	-2.086294	4.229926	0.001075	0.269048
-2.643885	-2.126621	4.239923	0.001024	0.269051
-2.458321	-2.214051	4.249920	0.000979	0.268838
-2.451289	-2.244197	4.259917	0.000977	0.268717
-2.228793	-2.288105	4.269914	0.000923	0.268715
-2.274316	-2.279834	4.279910	0.000934	0.268711
-2.541580	-2.227314	4.289907	0.001000	0.268710
-3.176777	-2.100947	4.299904	0.001155	0.268716
-3.339216	-1.991522	4.309901	0.001195	0.269038
-3.209422	-1.971850	4.319898	0.001164	0.269226
-2.797874	-2.030459	4.329894	0.001064	0.269318
-2.059662	-2.136274	4.339891	0.000884	0.269480
-2.005397	-2.196210	4.349888	0.000871	0.269274
-1.901299	-2.216891	4.359885	0.000846	0.269272
-1.840212	-2.228839	4.369882	0.000831	0.269271
-1.850850	-2.226680	4.379878	0.000834	0.269270
-2.555289	-2.087246	4.389875	0.001006	0.269274
-3.211567	-1.900336	4.399872	0.001167	0.269514
-2.913209	-1.876091	4.409869	0.001094	0.269858
-2.299851	-1.931061	4.419866	0.000945	0.270130
-1.968234	-1.975242	4.429862	0.000864	0.270216
-1.662904	-2.034429	4.439859	0.000790	0.270218
-1.710359	-2.024406	4.449856	0.000801	0.270220
-1.440939	-2.076367	4.459853	0.000736	0.270223
-1.340045	-2.097525	4.469850	0.000712	0.270217
-1.305059	-2.144977	4.479846	0.000703	0.270047
-1.761552	-2.071691	4.489843	0.000815	0.269978
-1.760322	-2.013085	4.499840	0.000815	0.270222
-1.722470	-2.020737	4.509837	0.000806	0.270220
-1.759114	-1.984873	4.519834	0.000815	0.270338
-1.645446	-1.964675	4.529830	0.000788	0.270513
-1.584722	-1.976383	4.539827	0.000773	0.270513
-1.420084	-2.000653	4.549824	0.000733	0.270546
-1.313101	-1.951662	4.559821	0.000708	0.270835
-1.341139	-1.945831	4.569818	0.000715	0.270836
-1.339723	-1.946588	4.579814	0.000715	0.270833
-1.342830	-1.936617	4.589811	0.000716	0.270870
-1.198274	-1.896666	4.599808	0.000681	0.271153
-1.123250	-1.911107	4.609805	0.000663	0.271153
-1.043771	-1.926920	4.619802	0.000643	0.271151
-1.237796	-1.863502	4.629798	0.000691	0.271255
-1.224935	-1.810977	4.639795	0.000688	0.271481
-1.064750	-1.841555	4.649792	0.000649	0.271484
-1.124812	-1.773441	4.659789	0.000664	0.271716
-1.110621	-1.759104	4.669786	0.000661	0.271786
-1.219337	-1.682750	4.679782	0.000688	0.272012
-1.146240	-1.674209	4.689779	0.000670	0.272105
-1.179371	-1.593435	4.699776	0.000679	0.272411
-1.160010	-1.554358	4.709773	0.000674	0.272586
-1.024659	-1.543118	4.719770	0.000641	0.272741
-0.865793	-1.503642	4.729766	0.000603	0.273031
-0.681723	-1.538494	4.739763	0.000558	0.273035
-0.588282	-1.492977	4.749760	0.000536	0.273297
-0.774302	-1.440444	4.759757	0.000581	0.273361
-0.846864	-1.368496	4.769754	0.000599	0.273597
-1.071949	-1.265780	4.779750	0.000654	0.273836
-1.114870	-1.191803	4.789747	0.000665	0.274104
-0.825819	-1.194939	4.799744	0.000595	0.274322
-0.653589	-1.173122	4.809741	0.000553	0.274549
-0.347278	-1.168932	4.819738	0.000479	0.274811
-0.296052	-1.167821	4.829734	0.000466	0.274856
-0.272297	-1.116487	4.839731	0.000461	0.275083
-0.252717	-1.094429	4.849728	0.000456	0.275188
-0.428115	-1.007375	4.859725	0.000499	0.275402
-0.658644	-0.904738	4.869722	0.000556	0.275634
-0.927450	-0.769425	4.879718	0.000622	0.275969
-0.960902	-0.665408	4.889715	0.000630	0.276364
-0.904909	-0.568314	4.899712	0.000617	0.276802
-0.675860	-0.519526	4.909709	0.000561	0.277181
-0.241179	-0.532002	4.919706	0.000455	0.277475
-0.016463	-0.519186	4.929702	0.000400	0.277704
0.018509	-0.468470	4.939699	0.000392	0.277936
-0.005000	-0.420875	4.949696	0.000398	0.278109
-0.216124	-0.308022	4.959693	0.000450	0.278396
-0.305033	-0.209511	4.969690	0.000472	0.278721
-0.531973	-0.076755	4.979686	0.000528	0.279075
-0.566810	0.015247	4.989683	0.000536	0.279416
-0.294942	0.072339	4.999680	0.000470	0.279859
0.000000	0.086921	5.009677	0.000398	0.280149

0.005951	0.120808	5.014682	0.000397	0.280289
0.080548	0.143488	5.019686	0.000379	0.280438
0.234093	0.182224	5.024691	0.000341	0.280713
0.346220	0.194474	5.029696	0.000314	0.280849
0.498682	0.223155	5.034701	0.000277	0.281083
0.384199	0.316402	5.039706	0.000305	0.281365
0.282543	0.393956	5.044710	0.000330	0.281594
0.221069	0.484216	5.049715	0.000345	0.281905
0.123961	0.584707	5.054720	0.000369	0.282229
0.058733	0.691728	5.059725	0.000385	0.282603
-0.115820	0.839238	5.064730	0.000428	0.283051
-0.068582	0.934364	5.069734	0.000416	0.283465
-0.027620	1.053665	5.074739	0.000406	0.283968
-0.150218	1.177174	5.079744	0.000436	0.284360
-0.166421	1.321921	5.084749	0.000440	0.284918
-0.132388	1.451944	5.089754	0.000432	0.285455
-0.146194	1.598013	5.094758	0.000435	0.286018
0.242617	1.670773	5.099763	0.000340	0.286602
0.410455	1.780217	5.104768	0.000300	0.287159
0.589744	1.891887	5.109773	0.000256	0.287732
0.788641	1.992537	5.114778	0.000207	0.288276
0.811364	2.133303	5.119782	0.000202	0.288840
0.896905	2.245195	5.124787	0.000181	0.289339
0.910189	2.395195	5.129792	0.000178	0.289930
0.902316	2.556686	5.134797	0.000180	0.290548
0.945533	2.720991	5.139802	0.000169	0.291215
0.711849	2.938423	5.144806	0.000226	0.291875
0.701805	3.130655	5.149811	0.000229	0.292605
0.632834	3.333330	5.154816	0.000246	0.293329
0.584889	3.545197	5.159821	0.000257	0.294102
0.520539	3.759017	5.164826	0.000273	0.294868
0.488402	3.980148	5.169830	0.000281	0.295684
0.575217	4.200847	5.174835	0.000260	0.296585
0.581655	4.428432	5.179840	0.000258	0.297449
0.852239	4.611708	5.184845	0.000192	0.298339
1.179230	4.767862	5.189850	0.000112	0.299167
1.306745	4.965424	5.194854	0.000081	0.300000
1.430914	5.177152	5.199859	0.000051	0.300882
1.490656	5.400313	5.204864	0.000036	0.301756
1.606530	5.615456	5.209869	0.000008	0.302639
1.787747	5.824747	5.214874	-0.000037	0.303545
1.711998	6.068410	5.219878	-0.000018	0.304390
1.672486	6.335829	5.224883	-0.000009	0.305345
1.749148	6.582704	5.229888	-0.000027	0.306306
1.663638	6.869498	5.234893	-0.000006	0.307293
1.397943	7.207282	5.239898	0.000058	0.308334
1.263908	7.505861	5.244902	0.000091	0.309323
1.348531	7.795901	5.249907	0.000070	0.310434
1.209495	8.140944	5.254912	0.000104	0.311580
1.305441	8.444457	5.259917	0.000081	0.312738
1.384847	8.751058	5.264922	0.000061	0.313892
1.523693	9.046262	5.269926	0.000027	0.315042
1.865826	9.317525	5.274931	-0.000056	0.316245
1.943695	9.627289	5.279936	-0.000076	0.317396
2.164102	9.914944	5.284941	-0.000129	0.318563
2.330852	10.207391	5.289946	-0.000170	0.319706
2.402022	10.526316	5.294950	-0.000188	0.320872
2.566943	10.838569	5.299955	-0.000228	0.322075
2.686528	11.158395	5.304960	-0.000257	0.323268
2.673998	11.495429	5.309965	-0.000254	0.324428
2.793382	11.829650	5.314970	-0.000284	0.325662
2.777110	12.191055	5.319974	-0.000280	0.326894
2.655516	12.593139	5.324979	-0.000250	0.328189
2.525221	12.979587	5.329984	-0.000219	0.329421
2.562835	13.366169	5.334989	-0.000228	0.330760
2.772836	13.727454	5.339994	-0.000279	0.332122
2.515291	14.184797	5.344998	-0.000217	0.333494
2.684074	14.557181	5.350003	-0.000258	0.334855
2.836328	14.954149	5.355008	-0.000295	0.336282
3.008437	15.343109	5.360013	-0.000337	0.337689
3.044399	15.759673	5.365018	-0.000346	0.339094
3.391336	16.110089	5.370022	-0.000431	0.340475
3.566810	16.515633	5.375027	-0.000474	0.341922
3.625545	16.930450	5.380032	-0.000489	0.343318
3.708071	17.345257	5.385037	-0.000509	0.344723
3.835109	17.766655	5.390042	-0.000540	0.346173
3.940751	18.191375	5.395046	-0.000566	0.347613
3.963947	18.634860	5.400051	-0.000572	0.349056
3.826508	19.115830	5.405056	-0.000539	0.350513
3.787162	19.603518	5.410061	-0.000529	0.352046
3.787403	20.090065	5.415066	-0.000530	0.353593
3.776303	20.574082	5.420070	-0.000527	0.355119
4.008660	21.039657	5.425075	-0.000584	0.356730
4.023028	21.537593	5.430080	-0.000588	0.358301
4.111304	22.021292	5.435085	-0.000609	0.359866
4.369222	22.497631	5.440090	-0.000673	0.361505
4.349398	23.017830	5.445094	-0.000668	0.363104
4.564266	23.495565	5.450099	-0.000721	0.364707
4.543884	24.035202	5.455104	-0.000716	0.366351
4.730038	24.539325	5.460109	-0.000762	0.368003
4.792565	25.050204	5.465114	-0.000777	0.369594
4.884679	25.586509	5.470118	-0.000800	0.371273
5.002486	26.123960	5.475123	-0.000829	0.372963
4.995926	26.672551	5.480128	-0.000828	0.374606
5.148604	27.216960	5.485133	-0.000865	0.376322
5.196155	27.790503	5.490138	-0.000877	0.378055
5.260312	28.342480	5.495142	-0.000893	0.379727
5.556883	28.885020	5.500147	-0.000966	0.381497
5.643987	29.452050	5.505152	-0.000987	0.383211
5.705149	30.032489	5.510157	-0.001002	0.384942
5.921112	30.598446	5.515162	-0.001055	0.386710
5.958127	31.185537	5.520166	-0.001065	0.388431
6.268093	31.727108	5.525171	-0.001141	0.390166
6.168289	32.360872	5.530176	-0.001117	0.391928
6.302470	32.953477	5.535181	-0.001150	0.393696
6.263363	33.592582	5.540186	-0.001140	0.395491
6.235822	34.247940	5.545190	-0.001134	0.397331
6.316930	34.874576	5.550195	-0.001154	0.399141
6.256541	35.554942	5.555200	-0.001140	0.401016
6.311766	36.223867	5.560205	-0.001154	0.402913
6.375461	36.892391	5.565210	-0.001169	0.404805
6.449828	37.576733	5.570214	-0.001188	0.406737
6.530087	38.260612	5.575219	-0.001208	0.408662
6.642481	38.942292	5.580224	-0.001236	0.410589
6.897581	39.610586	5.585229	-0.001298	0.412547
6.991112	40.296983	5.590234	-0.001322	0.414459
7.203164	40.986994	5.595238	-0.001374	0.416434
7.410414	41.669482	5.600243	-0.001425	0.418377
7.592868	42.348942	5.605248	-0.001470	0.420290
7.825991	43.040580	5.610253	-0.001527	0.422254
8.111976	43.705845	5.615258	-0.001597	0.424165
8.120763	44.438478	5.620262	-0.001600	0.426103
8.280377	45.149604	5.625267	-0.001639	0.428053
8.288322	45.879504	5.630272	-0.001641	0.429966
8.351052	46.635584	5.635277	-0.001657	0.431966
8.300204	47.400674	5.640282	-0.001645	0.433923
8.333869	48.177437	5.645286	-0.001654	0.435943
8.573107	48.925879	5.650291	-0.001712	0.437985
8.678189	49.685667	5.655296	-0.001738	0.439979
8.714999	50.489676	5.660301	-0.001748	0.442042
8.882753	51.257071	5.665306	-0.001789	0.444068
9.070431	52.037221	5.670310	-0.001836	0.446127
9.322191	52.802044	5.675315	-0.001897	0.448169
9.486750	53.574199	5.680320	-0.001938	0.450178
9.810362	54.338537	5.685325	-0.002018	0.452235
9.927970	55.114053	5.690330	-0.002047	0.454211
10.117755	55.907322	5.695334	-0.002093	0.456257
10.265670	56.704308	5.700339	-0.002130	0.458283
10.278604	57.531579	5.705344	-0.002134	0.460310
10.377068	58.365639	5.710349	-0.002158	0.462385
10.549393	59.175465	5.715354	-0.002201	0.464427
10.596169	60.030926	5.720358	-0.002213	0.466510
10.646901	60.878259	5.725363	-0.002225	0.468567
10.724830	61.741606	5.730368	-0.002245	0.470666
10.727074	62.628607	5.735373	-0.002246	0.472776
10.634512	63.551187	5.740378	-0.002224	0.474918
10.828884	64.436772	5.745382	-0.002272	0.477094
11.063560	65.304731	5.750387	-0.002330	0.479238
11.114800	66.228292	5.755392	-0.002343	0.481418
11.396929	67.095288	5.760397	-0.002412	0.483561
11.537904	68.014261	5.765402	-0.002447	0.485752
11.785329	68.891082	5.770406	-0.002508	0.487883
12.146091	69.750569	5.775411	-0.002597	0.490016
12.284785	70.662487	5.780416	-0.002631	0.492161
12.298213	71.587843	5.785421	-0.002635	0.494272
12.450444	72.530282	5.790426	-0.002672	0.496473
12.677633	73.420290	5.795430	-0.002728	0.498579
12.741070	74.385100	5.800435	-0.002744	0.500773
12.930402	75.315148	5.805440	-0.002791	0.502934
13.126747	76.244880	5.810445	-0.002840	0.505088
13.279004	77.203887	5.815450	-0.002877	0.507279
13.309126	78.159931	5.820454	-0.002885	0.509401
13.509015	79.134450	5.825459	-0.002935	0.511628
13.511683	80.110384	5.830464	-0.002936	0.513765
13.686672	81.099596	5.835469	-0.002979	0.515994
13.818671	82.085454	5.840474	-0.003012	0.518188
13.832054	83.105678	5.845478	-0.003016	0.520398
14.141725	84.083793	5.850483	-0.003092	0.522631
14.291222	85.083737	5.855488	-0.003129	0.524834
14.385954	86.109013	5.860493	-0.003153	0.527060
14.750564	87.069073	5.865498	-0.003243	0.529250
14.882708	88.094418	5.870502	-0.003275	0.531472
15.150297	89.076022	5.875507	-0.003341	0.533649
15.249479	90.116360	5.880512	-0.003366	0.535872
15.462964	91.117870	5.885517	-0.003419	0.538050
15.579002	92.163490	5.890522	-0.003448	0.540272
15.615564	93.222571	5.895526	-0.003457	0.542481
15.710205	94.289461	5.900531	-0.003481	0.544721
15.687247	95.389380	5.905536	-0.003476	0.546972
15.743195	96.471663	5.910541	-0.003490	0.549209
16.057509	97.544033	5.915546	-0.003568	0.551519
16.202312	98.601580	5.920550	-0.003604	0.553722
16.415167	99.702288	5.925555	-0.003656	0.556031
16.530332	100.784841	5.930560	-0.003685	0.558255
16.784111	101.871912	5.935565	-0.003748	0.560533
17.159160	102.927626	5.940570	-0.003840	0.562786
17.425247	103.994863	5.945574	-0.003906	0.565012
17.516456	105.100850	5.950579	-0.003929	0.567238
17.647064	106.194494	5.955584	-0.003961	0.569446
17.799591	107.306455	5.960589	-0.003999	0.571690
17.893456	108.426482	5.965594	-0.004023	0.573919
17.965406	109.583079	5.970598	-0.004041	0.576202
18.211587	110.685822	5.975603	-0.004102	0.578436
18.249920	111.859658	5.980608	-0.004112	0.580722
18.418814	112.999194	5.985613	-0.004154	0.582982
18.501244	114.190019	5.990618	-0.004175	0.585299
18.598346	115.350649	5.995622	-0.004199	0.587555
18.834511	116.515415	6.000627	-0.004257	0.589861
19.103515	117.664697	6.005632	-0.004324	0.592141
19.261287	118.827846	6.010637	-0.004363	0.594397
19.517809	120.002530	6.015642	-0.004426	0.596703
19.786340	121.135102	6.020646	-0.004493	0.598925
20.082094	122.300061	6.025651	-0.004566	0.601209
20.150900	123.471113	6.030656	-0.004583	0.603414
20.352141	124.663673	6.035661	-0.004633	0.605698
20.618744	125.811183	6.040666	-0.004699	0.607914
20.842893	126.983858	6.045670	-0.004754	0.610153
21.073749	128.151480	6.050675	-0.004811	0.612377
21.224108	129.337235	6.055680	-0.004849	0.614598
21.433819	130.519703	6.060685	-0.004901	0.616825
21.505162	131.733076	6.065690	-0.004919	0.619053
21.466102	132.989531	6.070694	-0.004910	0.621311
21.518680	134.236560	6.075699	-0.004924	0.623576
21.688350	135.493272	6.080704	-0.004966	0.625891
21.688085	136.736825	6.085709	-0.004966	0.628115
21.950609	137.999123	6.090714	-0.005031	0.630455
21.998782	139.267914	6.095718	-0.005044	0.632724
22.172637	140.557989	6.100723	-0.005087	0.635066
22.548899	141.781457	6.105728	-0.005180	0.637350
22.751339	143.043948	6.110733	-0.005230	0.639636
23.263669	144.248171	6.115738	-0.005356	0.641916
23.727322	145.422488	6.120742	-0.005470	0.644120
24.186590	146.605608	6.125747	-0.005583	0.646329
24.495213	147.760491	6.130752	-0.005659	0.648433
24.746140	148.962699	6.135757	-0.005721	0.650592
24.910239	150.158358	6.140762	-0.005762	0.652703
24.830430	151.430958	6.145766	-0.005743	0.654860
25.047210	152.659950	6.150771	-0.005797	0.657032
25.105968	153.915411	6.155776	-0.005812	0.659191
25.155261	155.201793	6.160781	-0.005824	0.661392
25.119825	156.513920	6.165786	-0.005817	0.663601
24.959202	157.880330	6.170790	-0.005778	0.665854
25.116010	159.175263	6.175795	-0.005817	0.668082
25.079510	160.567786	6.180800	-0.005809	0.670404
25.241602	161.880568	6.185805	-0.005850	0.672648
25.539004	163.224418	6.190810	-0.005923	0.674979
25.651501	164.563287	6.195814	-0.005951	0.677236
25.802497	165.925222	6.200819	-0.005989	0.679535
26.036515	167.273899	6.205824	-0.006047	0.681831
26.217261	168.624233	6.210829	-0.006092	0.684105
26.494036	169.973208	6.215834	-0.006160	0.686399
26.777804	171.286906	6.220838	-0.006231	0.688630
27.220527	172.597831	6.225843	-0.006339	0.690899
27.591131	173.873052	6.230848	-0.006431	0.693081
27.922824	175.177794	6.235853	-0.006513	0.695291
28.112039	176.475908	6.240858	-0.006560	0.697439
28.171448	177.828045	6.245862	-0.006575	0.699628
28.333820	179.168199	6.250867	-0.006615	0.701822
28.582228	180.493475	6.255872	-0.006677	0.704012
28.844058	181.811242	6.260877	-0.006742	0.706187
28.904829	183.156370	6.265882	-0.006757	0.708338
29.020166	184.524533	6.270886	-0.006786	0.710535
29.075912	185.886712	6.275891	-0.006801	0.712699
29.234241	187.283841	6.280896	-0.006840	0.714941
29.237200	188.678830	6.285901	-0.006842	0.717126
29.447497	190.092140	6.290906	-0.006894	0.719395
29.679287	191.465374	6.295910	-0.006952	0.721601
29.769450	192.888721	6.300915	-0.006974	0.723836
29.986503	194.290464	6.305920	-0.007028	0.726068
30.407550	195.621585	6.310925	-0.007132	0.728244
30.640573	197.030070	6.315930	-0.007190	0.730478
30.930008	198.367202	6.320934	-0.007261	0.732612
31.274106	199.740658	6.325939	-0.007346	0.734811
31.672544	201.052755	6.330944	-0.007444	0.736926
31.851376	202.417485	6.335949	-0.007489	0.739051
31.990647	203.797608	6.340954	-0.007524	0.741182
32.066635	205.182404	6.345958	-0.007543	0.743296
32.301634	206.582387	6.350963	-0.007601	0.745472
32.439867	207.944399	6.355968	-0.007636	0.747557
32.570873	209.357127	6.360973	-0.007669	0.749710
32.731306	210.751499	6.365978	-0.007709	0.751838
32.673845	212.207785	6.370982	-0.007696	0.753990
32.921742	213.623460	6.375987	-0.007757	0.756162
33.020314	215.060873	6.380992	-0.007782	0.758318
33.238554	216.500081	6.385997	-0.007836	0.760504
33.452592	217.917451	6.391002	-0.007889	0.762651
33.598305	219.379291	6.396006	-0.007926	0.764837
33.735032	220.803334	6.401011	-0.007960	0.766960
33.745974	222.310061	6.406016	-0.007964	0.769162
33.824009	223.800217	6.411021	-0.007984	0.771353
33.942430	225.299327	6.416026	-0.008014	0.773561
33.860597	226.856237	6.421030	-0.007995	0.775792
34.135882	228.352383	6.426035	-0.008063	0.778026
34.280941	229.898615	6.431040	-0.008099	0.780291
34.655915	231.362917	6.436045	-0.008192	0.782494
35.045350	232.859978	6.441050	-0.008288	0.784741
35.414912	234.265590	6.446054	-0.008379	0.786846
35.892470	235.698445	6.451059	-0.008496	0.789014
36.351479	237.091074	6.456064	-0.008609	0.791113
36.728513	238.467472	6.461069	-0.008702	0.793162
37.039744	239.875661	6.466074	-0.008779	0.795233
37.170328	241.271224	6.471078	-0.008812	0.797233
37.306339	242.716967	6.476083	-0.008846	0.799299
37.274498	244.184456	6.481088	-0.008839	0.801346
37.265677	245.677222	6.486093	-0.008838	0.803430
37.314819	247.190712	6.491098	-0.008851	0.805552
37.101245	248.733833	6.496102	-0.008800	0.807640
37.034017	250.347929	6.501107	-0.008784	0.809860
37.064510	251.914705	6.506112	-0.008793	0.812034
37.256335	253.505608	6.511117	-0.008841	0.814277
37.530995	255.052800	6.516122	-0.008909	0.816475
37.677585	256.638147	6.521126	-0.008945	0.818687
38.040418	258.187729	6.526131	-0.009035	0.820900
38.500576	259.686780	6.531136	-0.009148	0.823063
38.790561	261.214922	6.536141	-0.009220	0.825216
39.298830	262.651378	6.541146	-0.009345	0.827295
39.668672	264.118828	6.546150	-0.009437	0.829375
40.142829	265.531540	6.551155	-0.009553	0.831403
40.401603	266.982129	6.556160	-0.009617	0.833422
40.706593	268.411670	6.561165	-0.009693	0.835419
40.946950	269.836163	6.566170	-0.009752	0.837389
40.975250	271.325132	6.571174	-0.009760	0.839387
40.908721	272.839335	6.576179	-0.009745	0.841390
40.937409	274.376998	6.581184	-0.009753	0.843443
40.728311	275.969200	6.586189	-0.009703	0.845504
40.902707	277.520308	6.591194	-0.009746	0.847601
40.836420	279.148280	6.596198	-0.009731	0.849735
40.932634	280.723400	6.601203	-0.009756	0.851834
41.065422	282.362292	6.606208	-0.009789	0.854021
41.152583	283.964864	6.611213	-0.009811	0.856143
41.445687	285.578101	6.616218	-0.009884	0.858325
41.605751	287.191800	6.621222	-0.009924	0.860469
41.920938	288.783168	6.626227	-0.010002	0.862616
42.320041	290.356774	6.631232	-0.010100	0.864756
42.325253	291.939673	6.636237	-0.010103	0.866806
42.873310	293.500140	6.641242	-0.010238	0.868954
43.135674	295.025249	6.646246	-0.010303	0.870983
43.404553	296.590033	6.651251	-0.010369	0.873059
43.653936	298.142175	6.656256	-0.010431	0.875109
43.862565	299.669274	6.661261	-0.010483	0.877113
44.096581	301.250002	6.666266	-0.010541	0.879186
44.229596	302.790752	6.671270	-0.010575	0.881180
44.314146	304.402017	6.676275	-0.010596	0.883247
44.483507	305.980127	6.681280	-0.010639	0.885288
44.498605	307.576534	6.686285	-0.010643	0.887310
44.577097	309.234451	6.691290	-0.010664	0.889420
44.638796	310.838968	6.696294	-0.010680	0.891455
44.866248	312.502514	6.701299	-0.010736	0.893597
45.235587	314.084929	6.706304	-0.010827	0.895666
45.502846	315.668233	6.711309	-0.010894	0.897708
45.779899	317.290603	6.716314	-0.010962	0.899795
46.078570	318.841128	6.721318	-0.011036	0.901794
46.412452	320.428376	6.726323	-0.011119	0.903842
46.545008	321.998492	6.731328	-0.011152	0.905817
46.706933	323.589877	6.736333	-0.011193	0.907821
47.002013	325.172592	6.741338	-0.011266	0.909841
47.139166	326.737993	6.746342	-0.011300	0.911799
47.259086	328.367825	6.751347	-0.011331	0.913827
47.297181	329.980710	6.756352	-0.011341	0.915812
47.545168	331.586571	6.761357	-0.011403	0.917831
47.745745	333.216985	6.766362	-0.011453	0.919866
47.978330	334.798273	6.771366	-0.011510	0.921843
48.150352	336.436509	6.776371	-0.011553	0.923871
48.460160	338.000383	6.781376	-0.011630	0.925836
48.685749	339.590410	6.786381	-0.011686	0.927810
48.946038	341.192296	6.791386	-0.011751	0.929801
49.130427	342.766722	6.796390	-0.011797	0.931738
49.415760	344.360108	6.801395	-0.011867	0.933716
49.590768	345.939895	6.806400	-0.011911	0.935649
49.739962	347.545534	6.811405	-0.011949	0.937604
49.891332	349.176047	6.816410	-0.011987	0.939584
49.881260	350.799002	6.821414	-0.011985	0.941515
50.205483	352.436293	6.826419	-0.012065	0.943534
50.265583	354.055849	6.831424	-0.012081	0.945469
50.280394	355.710927	6.836429	-0.012086	0.947431
50.386802	357.420657	6.841434	-0.012113	0.949475
50.568157	359.046309	6.846438	-0.012158	0.951431
50.912729	360.712002	6.851443	-0.012243	0.953466
51.144649	362.336803	6.856448	-0.012301	0.955425
51.316204	363.981860	6.861453	-0.012344	0.957389
51.762162	365.616786	6.866458	-0.012454	0.959398
51.944240	367.208115	6.871462	-0.012499	0.961294
52.260353	368.834690	6.876467	-0.012578	0.963256
52.540847	370.413459	6.881472	-0.012647	0.965152
52.728533	371.999606	6.886477	-0.012694	0.967032
53.071746	373.615226	6.891482	-0.012779	0.968975
53.231284	375.166594	6.896486	-0.012819	0.970802
53.382986	376.803096	6.901491	-0.012857	0.972721
53.541979	378.424646	6.906496	-0.012897	0.974621
53.791345	379.993039	6.911501	-0.012959	0.976476
54.110882	381.598893	6.916506	-0.013038	0.978384
54.271978	383.185469	6.921510	-0.013078	0.980234
54.408652	384.794204	6.926515	-0.013112	0.982100
54.530683	386.450372	6.931520	-0.013143	0.984013
54.681764	388.021422	6.936525	-0.013181	0.985832
55.038323	389.633941	6.941530	-0.013269	0.987738
55.199985	391.225112	6.946534	-0.013310	0.989575
55.417209	392.804412	6.951539	-0.013364	0.991407
55.784326	394.390646	6.956544	-0.013454	0.993275
56.110787	395.911637	6.961549	-0.013535	0.995057
56.431891	397.456759	6.966554	-0.013615	0.996862
56.517351	399.046595	6.971558	-0.013636	0.998665
56.767929	400.572199	6.976563	-0.013699	1.000427
56.980310	402.143391	6.981568	-0.013751	1.002229
57.153289	403.721975	6.986573	-0.013795	1.004027
57.276696	405.254874	6.991578	-0.013826	1.005762
57.281154	406.879226	6.996582	-0.013828	1.007570
57.415203	408.496524	7.001587	-0.013862	1.009395
57.630082	410.070488	7.006592	-0.013915	1.011184
57.481723	411.762825	7.011597	-0.013880	1.013027
57.688197	413.409061	7.016602	-0.013931	1.014888
57.777231	415.056669	7.021606	-0.013954	1.016723
58.126990	416.701285	7.026611	-0.014041	1.018605
58.161223	418.347471	7.031616	-0.014050	1.020421
58.176458	420.063054	7.036621	-0.014055	1.022306
58.629108	421.695828	7.041626	-0.014166	1.024185
58.803562	423.295703	7.046630	-0.014210	1.025968
59.033980	424.965756	7.051635	-0.014267	1.027836
59.219845	426.610341	7.056640	-0.014314	1.029665
59.433635	428.229152	7.061645	-0.014367	1.031467
59.735184	429.884139	7.066650	-0.014442	1.033323
59.903586	431.484627	7.071654	-0.014484	1.035090
60.253910	433.112149	7.076659	-0.014570	1.036920
60.434768	434.758252	7.081664	-0.014616	1.038732
60.528987	436.349417	7.086669	-0.014640	1.040466
60.673021	438.036366	7.091674	-0.014676	1.042309
60.706393	439.711095	7.096678	-0.014685	1.044114
60.879360	441.345059	7.101683	-0.014728	1.045899
61.022455	443.052912	7.106688	-0.014764	1.047755
61.141117	444.719413	7.111693	-0.014794	1.049559
61.479554	446.380558	7.116698	-0.014878	1.051396
61.769647	448.038861	7.121702	-0.014950	1.053218
62.094446	449.633305	7.126707	-0.015030	1.054976
62.364487	451.276937	7.131712	-0.015097	1.056772
62.628082	452.895672	7.136717	-0.015163	1.058538
62.798961	454.506189	7.141722	-0.015206	1.060274
63.073445	456.128792	7.146726	-0.015274	1.062040
63.502752	457.694012	7.151731	-0.015379	1.063772
63.617498	459.267148	7.156736	-0.015409	1.065449
63.716964	460.886940	7.161741	-0.015434	1.067170
64.014609	462.497287	7.166746	-0.015508	1.068916
64.064171	464.069193	7.171750	-0.015521	1.070571
64.192601	465.740982	7.176755	-0.015553	1.072344
64.171103	467.405407	7.181760	-0.015549	1.074077
64.301890	469.033907	7.186765	-0.015582	1.075799
64.538409	470.727526	7.191770	-0.015641	1.077605
64.590159	472.391850	7.196774	-0.015654	1.079344
64.724546	474.067828	7.201779	-0.015688	1.081107
65.004888	475.773767	7.206784	-0.015758	1.082926
65.228538	477.381777	7.211789	-0.015813	1.084630
65.361904	479.058972	7.216794	-0.015847	1.086386
65.580573	480.756290	7.221798	-0.015901	1.088176
65.987099	482.332264	7.226803	-0.016002	1.089873
66.237241	483.990907	7.231808	-0.016064	1.091623
66.358562	485.652916	7.236813	-0.016095	1.093349
66.723638	487.229265	7.241818	-0.016185	1.095031
66.834292	488.887806	7.246822	-0.016213	1.096747
67.035778	490.544933	7.251827	-0.016263	1.098475
67.162333	492.161267	7.256832	-0.016295	1.100145
67.223299	493.855606	7.261837	-0.016311	1.101880
67.318036	495.552265	7.266842	-0.016335	1.103621
67.496550	497.173791	7.271846	-0.016380	1.105298
67.650757	498.893211	7.276851	-0.016419	1.107068
67.813418	500.573265	7.281856	-0.016459	1.108796
67.940417	502.248240	7.286861	-0.016491	1.110510
68.099718	503.980207	7.291866	-0.016531	1.112284
68.091755	505.714005	7.296870	-0.016531	1.114027
68.373005	507.411397	7.301875	-0.016600	1.115784
68.782946	509.097257	7.306880	-0.016702	1.117549
68.983038	510.768316	7.311885	-0.016751	1.119259
69.290692	512.435232	7.316890	-0.016828	1.120982
69.619592	514.095578	7.321894	-0.016909	1.122699
69.872395	515.692069	7.326899	-0.016972	1.124336
70.108011	517.338739	7.331904	-0.017030	1.126017
70.345959	518.966631	7.336909	-0.017090	1.127678
70.601263	520.580250	7.341914	-0.017153	1.129325
70.681810	522.231740	7.346918	-0.017174	1.130976
70.896824	523.883039	7.351923	-0.017227	1.132649
71.142140	525.494932	7.356928	-0.017288	1.134285
71.169921	527.156036	7.361933	-0.017296	1.135929
71.371082	528.840997	7.366938	-0.017346	1.137625
71.555292	530.477541	7.371942	-0.017392	1.139267
71.717498	532.146014	7.376947	-0.017433	1.140935
71.873464	533.845745	7.381952	-0.017472	1.142630
71.957305	535.485328	7.386957	-0.017494	1.144251
72.272615	537.152219	7.391962	-0.017572	1.145936
72.399999	538.835299	7.396966	-0.017604	1.147602
72.651521	540.463860	7.401971	-0.017666	1.149235
72.945219	542.109832	7.406976	-0.017739	1.150889
73.033186	543.791540	7.411981	-0.017762	1.152540
73.394774	545.398665	7.416986	-0.017851	1.154164
73.577874	547.025785	7.421990	-0.017897	1.155773
73.699425	548.709972	7.426995	-0.017927	1.157425
73.865812	550.354761	7.432000	-0.017969	1.159044
73.858541	552.034169	7.437005	-0.017968	1.160664
74.088293	553.756663	7.442010	-0.018026	1.162365
74.129955	555.431425	7.447014	-0.018037	1.163984
74.439243	557.078386	7.452019	-0.018113	1.165621
74.611084	558.803112	7.457024	-0.018156	1.167307
74.537421	560.520876	7.462029	-0.018139	1.168941
74.972648	562.184395	7.467034	-0.018247	1.170608
75.132630	563.902063	7.472038	-0.018287	1.172278
75.506562	565.532961	7.477043	-0.018379	1.173898
75.666555	567.203794	7.482048	-0.018420	1.175519
75.802128	568.892779	7.487053	-0.018454	1.177149
76.054491	570.573689	7.492058	-0.018516	1.178790
76.084516	572.269973	7.497062	-0.018525	1.180406
76.199674	574.002080	7.502067	-0.018554	1.182067
76.440646	575.674892	7.507072	-0.018614	1.183692
76.466320	577.387808	7.512077	-0.018621	1.185315
76.611392	579.147105	7.517082	-0.018658	1.187001
76.796429	580.856549	7.522086	-0.018704	1.188643
77.152141	582.546699	7.527091	-0.018792	1.190294
77.514584	584.228975	7.532096	-0.018882	1.191937
77.637690	585.907166	7.537101	-0.018913	1.193533
77.810251	587.586699	7.542106	-0.018956	1.195137
78.078489	589.285946	7.547110	-0.019023	1.196772
78.263260	590.976909	7.552115	-0.019069	1.198384
78.565738	592.622879	7.557120	-0.019144	1.199972
78.609959	594.337694	7.562125	-0.019156	1.201578
78.884828	596.016997	7.567130	-0.019224	1.203188
78.990730	597.658737	7.572134	-0.019251	1.204732
79.194803	599.368563	7.577139	-0.019302	1.206354
79.423202	601.070518	7.582144	-0.019358	1.207970
79.500689	602.727347	7.587149	-0.019378	1.209518
79.750979	604.448402	7.592154	-0.019441	1.211151
79.910317	606.169510	7.597158	-0.019481	1.212767
80.298874	607.760874	7.602163	-0.019577	1.214300
80.481905	609.466916	7.607168	-0.019622	1.215902
80.569847	611.165842	7.612173	-0.019645	1.217480
80.713792	612.843839	7.617178	-0.019681	1.219045
80.838051	614.563202	7.622182	-0.019713	1.220644
81.153738	616.251240	7.627187	-0.019791	1.222242
81.512009	617.880171	7.632192	-0.019879	1.223792
81.605614	619.538200	7.637197	-0.019903	1.225323
81.877053	621.223015	7.642202	-0.019971	1.226906
81.872293	622.907473	7.647206	-0.019970	1.228441
82.020787	624.586471	7.652211	-0.020008	1.229994
82.193793	626.318996	7.657216	-0.020051	1.231598
82.316842	628.013294	7.662221	-0.020082	1.233157
82.567151	629.676291	7.667226	-0.020144	1.234706
82.601173	631.441806	7.672230	-0.020154	1.236312
82.763783	633.165446	7.677235	-0.020195	1.237898
83.061899	634.842292	7.682240	-0.020269	1.239461
83.225727	636.578004	7.687245	-0.020310	1.241054
83.405208	638.315386	7.692250	-0.020355	1.242649
83.460613	639.989487	7.697254	-0.020369	1.244165
83.752287	641.720791	7.702259	-0.020442	1.245769
84.109686	643.438320	7.707264	-0.020530	1.247368
84.319687	645.057553	7.712269	-0.020582	1.248854
84.423554	646.802127	7.717274	-0.020609	1.250433
84.678708	648.518967	7.722278	-0.020672	1.252010
84.918676	650.164276	7.727283	-0.020732	1.253518
85.255149	651.820783	7.732288	-0.020815	1.255050
85.322155	653.523930	7.737293	-0.020832	1.256578
85.630065	655.193423	7.742298	-0.020909	1.258113
85.752209	656.848508	7.747302	-0.020940	1.259604
85.872096	658.561209	7.752307	-0.020970	1.261144
86.039882	660.272667	7.757312	-0.021012	1.262689
86.054327	661.926415	7.762317	-0.021017	1.264156
86.303585	663.669648	7.767322	-0.021079	1.265738
86.558265	665.381225	7.772326	-0.021142	1.267291
86.749436	667.013590	7.777331	-0.021190	1.268761
86.992496	668.718621	7.782336	-0.021250	1.270303
87.035645	670.453587	7.787341	-0.021262	1.271837
87.328432	672.126496	7.792346	-0.021334	1.273354
87.530540	673.807994	7.797350	-0.021385	1.274863
87.715909	675.503044	7.802355	-0.021431	1.276379
87.980706	677.199512	7.807360	-0.021497	1.277907
88.034577	678.875901	7.812365	-0.021511	1.279383
88.308429	680.606441	7.817370	-0.021579	1.280938
88.414395	682.325678	7.822374	-0.021606	1.282456
88.574931	683.953927	7.827379	-0.021646	1.283901
88.798373	685.690469	7.832384	-0.021702	1.285448
88.873072	687.420475	7.837389	-0.021721	1.286965
89.170169	689.099352	7.842394	-0.021795	1.288470
89.413485	690.783007	7.847398	-0.021855	1.289969
89.504312	692.524808	7.852403	-0.021879	1.291493
89.711689	694.234657	7.857408	-0.021930	1.293006
89.950843	695.881858	7.862413	-0.021990	1.294467
90.218201	697.602298	7.867418	-0.022056	1.295995
90.402846	699.304291	7.872422	-0.022102	1.297492
90.488608	700.981942	7.877427	-0.022124	1.298951
90.706806	702.716031	7.882432	-0.022179	1.300477
90.837836	704.431043	7.887437	-0.022212	1.301972
91.054296	706.036534	7.892442	-0.022266	1.303385
91.162089	707.741980	7.897446	-0.022293	1.304864
91.315508	709.483468	7.902451	-0.022332	1.306380
91.570914	711.183954	7.907456	-0.022395	1.307875
91.552725	712.898403	7.912461	-0.022392	1.309338
91.950019	714.616288	7.917466	-0.022490	1.310866
92.091084	716.345905	7.922470	-0.022525	1.312363
92.116887	718.045432	7.927475	-0.022533	1.313815
92.495817	719.786217	7.932480	-0.022626	1.315354
92.733077	721.484280	7.937485	-0.022685	1.316833
92.944969	723.148408	7.942490	-0.022738	1.318278
93.071700	724.864031	7.947494	-0.022770	1.319753
93.187661	726.606623	7.952499	-0.022800	1.321247
93.473004	728.302298	7.957504	-0.022871	1.322724
93.518843	729.985898	7.962509	-0.022883	1.324155
93.815489	731.723789	7.967514	-0.022956	1.325667
94.014085	733.449801	7.972518	-0.023006	1.327152
94.214722	735.081181	7.977523	-0.023056	1.328557
94.420621	736.813504	7.982528	-0.023107	1.330046
94.673450	738.521614	7.987533	-0.023170	1.331519
94.945591	740.169009	7.992538	-0.023238	1.332943
95.110576	741.846817	7.997542	-0.023279	1.334375
95.316089	743.550422	8.002547	-0.023330	1.335833
95.514843	745.235676	8.007552	-0.023380	1.337273
95.535994	746.904308	8.012557	-0.023386	1.338672
95.679198	748.663966	8.017562	-0.023422	1.340163
95.902553	750.377218	8.022566	-0.023478	1.341625
96.115770	752.009496	8.027571	-0.023531	1.343017
96.341352	753.724071	8.032576	-0.023587	1.344478
96.408398	755.434027	8.037581	-0.023605	1.345910
96.709766	757.140720	8.042586	-0.023679	1.347372
96.815802	758.812059	8.047590	-0.023706	1.348775
96.938786	760.542484	8.052595	-0.023737	1.350227
97.216918	762.297774	8.057600	-0.023806	1.351721
97.327621	763.943029	8.062605	-0.023835	1.353099
97.627184	765.651237	8.067610	-0.023909	1.354554
97.789253	767.380733	8.072614	-0.023949	1.356005
97.955336	769.064850	8.077619	-0.023991	1.357418
98.228218	770.747752	8.082624	-0.024059	1.358843
98.143692	772.512992	8.087629	-0.024039	1.360284
98.476780	774.240415	8.092634	-0.024122	1.361752
98.508746	775.928331	8.097638	-0.024131	1.363143
98.605379	777.691840	8.102643	-0.024155	1.364604
98.862740	779.449958	8.107648	-0.024219	1.366081
98.862138	781.221990	8.112653	-0.024220	1.367532
99.104036	782.962634	8.117658	-0.024280	1.368989
99.371987	784.727833	8.122662	-0.024347	1.370469
99.603902	786.471981	8.127667	-0.024405	1.371926
99.838714	788.170801	8.132672	-0.024463	1.373344
99.956772	789.920047	8.137677	-0.024493	1.374785
100.148525	791.706206	8.142682	-0.024541	1.376265
100.526036	793.395689	8.147686	-0.024634	1.377691
100.757554	795.077084	8.152691	-0.024692	1.379088
101.036413	796.805790	8.157696	-0.024761	1.380529
101.301205	798.462662	8.162701	-0.024827	1.381908
101.454372	800.098107	8.167706	-0.024865	1.383253
101.637287	801.802671	8.172710	-0.024911	1.384657
101.857700	803.482426	8.177715	-0.024966	1.386044
102.194648	805.135080	8.182720	-0.025049	1.387425
102.337925	806.728565	8.187725	-0.025085	1.388729
102.372789	808.466806	8.192730	-0.025095	1.390134
102.433549	810.201568	8.197734	-0.025111	1.391538
102.627403	811.834680	8.202739	-0.025159	1.392877
102.791199	813.567773	8.207744	-0.025200	1.394291
102.812321	815.325133	8.212749	-0.025207	1.395704
103.022754	817.065868	8.217754	-0.025259	1.397127
103.161957	818.780131	8.222758	-0.025294	1.398519
103.432639	820.501998	8.227763	-0.025361	1.399933
103.628514	822.281774	8.232768	-0.025410	1.401381
103.742790	823.926999	8.237773	-0.025439	1.402710
103.794904	825.713804	8.242778	-0.025453	1.404141
104.095446	827.449101	8.247782	-0.025528	1.405565
104.369895	829.176596	8.252787	-0.025596	1.406977
104.658939	830.825186	8.257792	-0.025668	1.408326
104.784968	832.576041	8.262797	-0.025699	1.409734
105.030277	834.297346	8.267802	-0.025760	1.411133
105.247057	835.962855	8.272806	-0.025814	1.412482
105.432351	837.642129	8.277811	-0.025861	1.413837
105.705109	839.354047	8.282816	-0.025928	1.415228
105.767936	841.088549	8.287821	-0.025945	1.416607
105.951553	842.726669	8.292826	-0.025991	1.417925
106.158572	844.477594	8.297830	-0.026042	1.419333
106.277338	846.206404	8.302835	-0.026073	1.420711
106.511016	847.889834	8.307840	-0.026131	1.422068
106.534844	849.585293	8.312845	-0.026138	1.423404
106.717367	851.332282	8.317850	-0.026183	1.424801
106.941353	853.101391	8.322854	-0.026239	1.426220
106.987910	854.776828	8.327859	-0.026251	1.427540
107.234520	856.548363	8.332864	-0.026313	1.428960
107.481551	858.267770	8.337869	-0.026374	1.430339
107.725861	860.009543	8.342874	-0.026435	1.431733
107.940299	861.673806	8.347878	-0.026489	1.433061
108.063614	863.407294	8.352883	-0.026520	1.434430
108.363236	865.160003	8.357888	-0.026594	1.435837
108.399421	866.856267	8.362893	-0.026604	1.437162
108.664805	868.556687	8.367898	-0.026670	1.438521
108.884202	870.307626	8.372902	-0.026725	1.439911
108.961976	872.047902	8.377907	-0.026745	1.441272
109.263742	873.691409	8.382912	-0.026819	1.442587
109.435332	875.394174	8.387917	-0.026862	1.443930
109.515667	877.153466	8.392922	-0.026883	1.445303
109.925228	878.851222	8.397926	-0.026984	1.446670
110.205204	880.452770	8.402931	-0.027054	1.447945
110.518607	882.128160	8.407936	-0.027131	1.449280
110.761354	883.765399	8.412941	-0.027192	1.450575
110.963769	885.406778	8.417946	-0.027242	1.451866
111.188875	887.006870	8.422950	-0.027298	1.453128
111.279113	888.672778	8.427955	-0.027321	1.454422
111.667081	890.309003	8.432960	-0.027417	1.455730
111.618262	891.946929	8.437965	-0.027406	1.456982
111.721823	893.607533	8.442970	-0.027432	1.458270
111.945590	895.290528	8.447974	-0.027488	1.459589
112.047524	896.988891	8.452979	-0.027514	1.460904
112.254480	898.640753	8.457984	-0.027566	1.462195
112.324528	900.301670	8.462989	-0.027584	1.463474
112.538766	902.007217	8.467994	-0.027637	1.464805
112.744879	903.705723	8.472998	-0.027689	1.466128
112.920531	905.305525	8.478003	-0.027732	1.467370
113.139418	907.015596	8.483008	-0.027787	1.468702
113.384713	908.686480	8.488013	-0.027848	1.470005
113.638817	910.348790	8.493018	-0.027911	1.471302
113.862099	911.923734	8.498022	-0.027967	1.472528
114.017206	913.572073	8.503027	-0.028006	1.473799
114.303279	915.239813	8.508032	-0.028076	1.475101
114.489312	916.871037	8.513037	-0.028123	1.476361
114.632891	918.466763	8.518042	-0.028159	1.477588
114.970191	920.091300	8.523046	-0.028242	1.478860
115.016817	921.749600	8.528051	-0.028255	1.480120
115.294008	923.375460	8.533056	-0.028324	1.481383
115.369612	924.934467	8.538061	-0.028343	1.482570
115.605335	926.580716	8.543066	-0.028402	1.483841
115.917709	928.208213	8.548070	-0.028479	1.485107
115.980864	929.833057	8.553075	-0.028495	1.486338
116.186167	931.418415	8.558080	-0.028547	1.487557
116.376062	933.046580	8.563085	-0.028594	1.488804
116.568210	934.686173	8.568090	-0.028642	1.490060
116.678287	936.337310	8.573095	-0.028670	1.491313
116.829869	937.906610	8.578099	-0.028708	1.492508
117.092198	939.562540	8.583104	-0.028773	1.493782
117.144791	941.218408	8.588109	-0.028787	1.495028
117.345412	942.879306	8.593114	-0.028837	1.496295
117.504740	944.490517	8.598119	-0.028877	1.497519
117.807332	946.131432	8.603123	-0.028952	1.498782
118.004351	947.792019	8.608128	-0.029001	1.500045
118.222961	949.394256	8.613133	-0.029055	1.501266
118.354028	950.946958	8.618138	-0.029088	1.502439
118.724844	952.552446	8.623143	-0.029180	1.503680
118.888287	954.162967	8.628147	-0.029221	1.504898
119.359939	955.723367	8.633152	-0.029337	1.506116
119.523549	957.176244	8.638157	-0.029378	1.507215
119.775282	958.730342	8.643162	-0.029440	1.508399
119.961949	960.304879	8.648167	-0.029487	1.509589
120.053654	961.857234	8.653171	-0.029510	1.510750
120.353728	963.337576	8.658176	-0.029585	1.511882
120.337132	964.906950	8.663181	-0.029581	1.513041
120.368681	966.542354	8.668186	-0.029590	1.514253
120.550269	968.150276	8.673191	-0.029636	1.515462
120.537081	969.756241	8.678195	-0.029633	1.516645
120.693878	971.389795	8.683200	-0.029673	1.517868
120.967165	973.008969	8.688205	-0.029740	1.519095
121.088998	974.654500	8.693210	-0.029771	1.520320
121.160623	976.294730	8.698215	-0.029790	1.521535
121.376871	977.878450	8.703219	-0.029843	1.522725
121.729949	979.514762	8.708224	-0.029931	1.523970
121.936756	981.132297	8.713229	-0.029982	1.525182
122.276297	982.706980	8.718234	-0.030066	1.526377
122.505657	984.233833	8.723239	-0.030123	1.527524
122.692424	985.804652	8.728243	-0.030170	1.528696
123.111983	987.349492	8.733248	-0.030273	1.529877
123.212813	988.905361	8.738253	-0.030299	1.531026
123.325030	990.389932	8.743258	-0.030327	1.532123
123.265388	992.021632	8.748263	-0.030314	1.533307
123.334848	993.654625	8.753267	-0.030332	1.534505
123.378947	995.358108	8.758272	-0.030343	1.535752
123.347618	996.992772	8.763277	-0.030337	1.536937
123.584438	998.677294	8.768282	-0.030396	1.538191
123.766398	1000.390890	8.773287	-0.030441	1.539458
123.986972	1002.056262	8.778291	-0.030496	1.540694
124.343858	1003.635906	8.783296	-0.030584	1.541883
124.719447	1005.206835	8.788301	-0.030677	1.543068
125.175189	1006.749513	8.793306	-0.030789	1.544240
125.626836	1008.282496	8.798311	-0.030901	1.545404
125.859467	1009.704061	8.803315	-0.030958	1.546460
126.290766	1011.114049	8.808320	-0.031065	1.547531
126.512902	1012.543962	8.813325	-0.031120	1.548591
126.776019	1013.993382	8.818330	-0.031185	1.549669
126.945250	1015.428543	8.823335	-0.031227	1.550724
126.968247	1016.797861	8.828339	-0.031234	1.551714
127.096142	1018.280662	8.833344	-0.031266	1.552797
127.262223	1019.749057	8.838349	-0.031307	1.553874
127.381619	1021.253843	8.843354	-0.031337	1.554970
127.407780	1022.764146	8.848359	-0.031345	1.556059
127.452870	1024.243233	8.853363	-0.031357	1.557127
127.584822	1025.817676	8.858368	-0.031390	1.558272
127.882955	1027.326711	8.863373	-0.031464	1.559390
128.105276	1028.864522	8.868378	-0.031519	1.560519
128.413496	1030.258405	8.873383	-0.031595	1.561554
128.591767	1031.733326	8.878387	-0.031639	1.562631
128.972764	1033.198343	8.883392	-0.031733	1.563724
129.371208	1034.585316	8.888397	-0.031832	1.564762
129.769267	1035.981003	8.893402	-0.031930	1.565806
130.039614	1037.236567	8.898407	-0.031996	1.566734
130.025978	1038.618615	8.903411	-0.031994	1.567719
130.146901	1040.058064	8.908416	-0.032024	1.568759
130.284873	1041.484048	8.913421	-0.032059	1.569791
130.221999	1042.953283	8.918426	-0.032045	1.570830
130.040434	1044.417909	8.923431	-0.032001	1.571850
130.193613	1045.956687	8.928435	-0.032039	1.572962
130.408467	1047.497798	8.933440	-0.032093	1.574082
130.654039	1049.018029	8.938445	-0.032154	1.575191
130.980891	1050.451755	8.943450	-0.032235	1.576246
131.213469	1051.915763	8.948455	-0.032292	1.577311
131.489284	1053.351613	8.953459	-0.032360	1.578361
131.958348	1054.768415	8.958464	-0.032476	1.579419
132.279959	1056.140245	8.963469	-0.032555	1.580427
132.464173	1057.435035	8.968474	-0.032601	1.581364
132.729997	1058.753148	8.973479	-0.032667	1.582327
132.874686	1060.117776	8.978483	-0.032703	1.583307
133.008354	1061.513415	8.983488	-0.032737	1.584308
133.096072	1062.915779	8.988493	-0.032759	1.585307
133.159129	1064.292326	8.993498	-0.032775	1.586285
133.229512	1065.692905	8.998503	-0.032793	1.587280
133.170300	1067.166112	9.003507	-0.032780	1.588310
133.212875	1068.741317	9.008512	-0.032791	1.589423
133.327668	1070.236205	9.013517	-0.032820	1.590488
133.371237	1071.722972	9.018522	-0.032831	1.591537
133.553599	1073.250114	9.023527	-0.032877	1.592631
133.687814	1074.842806	9.028531	-0.032911	1.593764
133.983535	1076.364167	9.033536	-0.032984	1.594864
134.219382	1077.888703	9.038541	-0.033042	1.595960
134.558173	1079.298361	9.043546	-0.033126	1.596986
135.060045	1080.748193	9.048551	-0.033250	1.598058
135.410093	1082.117571	9.053555	-0.033336	1.599056
135.723164	1083.511829	9.058560	-0.033413	1.600066
135.946312	1084.812713	9.063565	-0.033469	1.601000
136.111121	1086.113700	9.068570	-0.033510	1.601927
136.166952	1087.513751	9.073575	-0.033524	1.602910
136.061537	1088.970524	9.078579	-0.033499	1.603913
136.239818	1090.462694	9.083584	-0.033544	1.604973
136.160111	1091.918883	9.088589	-0.033525	1.605978
136.099494	1093.425571	9.093594	-0.033511	1.607019
136.256627	1094.998295	9.098599	-0.033551	1.608131
136.336904	1096.563857	9.103603	-0.033571	1.609228
136.663079	1098.134443	9.108608	-0.033652	1.610355
136.899969	1099.564220	9.113613	-0.033711	1.611374
137.027387	1101.091044	9.118618	-0.033743	1.612448
137.352389	1102.629093	9.123623	-0.033823	1.613550
137.504471	1104.147005	9.128627	-0.033861	1.614619
137.891362	1105.620917	9.133632	-0.033957	1.615682
138.091750	1107.034996	9.138637	-0.034006	1.616683
138.443666	1108.456114	9.143642	-0.034093	1.617705
138.608926	1109.918038	9.148647	-0.034134	1.618733
138.575908	1111.381269	9.153651	-0.034127	1.619740
138.872874	1112.872871	9.158656	-0.034201	1.620802
138.784682	1114.304647	9.163661	-0.034180	1.621779
138.793810	1115.847134	9.168666	-0.034183	1.622843
138.964148	1117.444551	9.173671	-0.034226	1.623962
139.082639	1118.965566	9.178675	-0.034256	1.625021
139.277926	1120.510469	9.183680	-0.034304	1.626106
139.406191	1122.003538	9.188685	-0.034337	1.627146
139.472614	1123.640723	9.193690	-0.034354	1.628277
139.921918	1125.162356	9.198695	-0.034465	1.629372
140.176132	1126.697378	9.203699	-0.034528	1.630453
140.508103	1128.083825	9.208704	-0.034610	1.631440
140.632019	1129.585616	9.213709	-0.034641	1.632482
141.137397	1131.034587	9.218714	-0.034765	1.633530
141.214026	1132.508868	9.223719	-0.034785	1.634547
141.380355	1133.939753	9.228723	-0.034826	1.635544
141.496752	1135.363226	9.233728	-0.034856	1.636529
141.619058	1136.852485	9.238733	-0.034886	1.637559
141.684832	1138.369311	9.243738	-0.034903	1.638601
141.731395	1139.935820	9.248743	-0.034916	1.639675
141.776163	1141.460572	9.253747	-0.034928	1.640718
141.875339	1142.960246	9.258752	-0.034953	1.641751
141.848589	1144.612863	9.263757	-0.034947	1.642872
142.119514	1146.213110	9.268762	-0.035014	1.643990
142.362492	1147.819048	9.273767	-0.035075	1.645108
142.399614	1149.343261	9.278771	-0.035085	1.646148
142.808484	1150.904174	9.283776	-0.035186	1.647252
143.060803	1152.473244	9.288781	-0.035248	1.648344
143.354743	1154.003004	9.293786	-0.035321	1.649413
143.574415	1155.528358	9.298791	-0.035376	1.650470
143.901751	1156.953507	9.303795	-0.035456	1.651471
144.289930	1158.413558	9.308800	-0.035552	1.652501
144.442089	1159.870407	9.313805	-0.035590	1.653503
144.628600	1161.322823	9.318810	-0.035637	1.654504
144.770057	1162.817688	9.323815	-0.035672	1.655529
144.873094	1164.218154	9.328819	-0.035698	1.656485
144.920097	1165.746615	9.333824	-0.035711	1.657521
144.891447	1167.304058	9.338829	-0.035705	1.658568
145.082327	1168.888568	9.343834	-0.035752	1.659656
145.190068	1170.391817	9.348839	-0.035779	1.660679
145.225148	1171.931691	9.353843	-0.035789	1.661719
145.350893	1173.550067	9.358848	-0.035821	1.662821
145.566353	1175.161061	9.363853	-0.035874	1.663926
145.789833	1176.743497	9.368858	-0.035930	1.665013
146.070779	1178.234393	9.373863	-0.035999	1.666044
146.243527	1179.778697	9.378867	-0.036043	1.667098
146.634838	1181.329219	9.383872	-0.036139	1.668179
146.800778	1182.873649	9.388877	-0.036181	1.669231
147.078636	1184.365532	9.393882	-0.036250	1.670260
147.162191	1185.809465	9.398887	-0.036271	1.671234
147.205726	1187.380794	9.403891	-0.036282	1.672289
147.369441	1188.958964	9.408896	-0.036323	1.673361
147.591197	1190.512902	9.413901	-0.036379	1.674422
147.731142	1192.063985	9.418906	-0.036414	1.675472
147.890829	1193.572129	9.423911	-0.036454	1.676495
148.053813	1195.154514	9.428915	-0.036494	1.677566
148.311781	1196.724034	9.433920	-0.036558	1.678639
148.608672	1198.220517	9.438925	-0.036632	1.679667
148.716492	1199.727544	9.443930	-0.036659	1.680680
149.006603	1201.197440	9.448935	-0.036731	1.681688
149.176691	1202.708994	9.453939	-0.036773	1.682710
149.458575	1204.241135	9.458944	-0.036843	1.683758
149.621390	1205.758143	9.463949	-0.036884	1.684781
149.817986	1207.179051	9.468954	-0.036933	1.685744
150.186141	1208.628346	9.473959	-0.037024	1.686744
150.343224	1210.087524	9.478963	-0.037063	1.687727
150.516268	1211.605649	9.483968	-0.037106	1.688750
150.787516	1213.049920	9.488973	-0.037173	1.689734
150.995712	1214.425847	9.493978	-0.037225	1.690665
151.317295	1215.820982	9.498983	-0.037304	1.691621
151.468555	1217.240066	9.503987	-0.037342	1.692574
151.625593	1218.694066	9.508992	-0.037381	1.693550
151.774555	1220.113532	9.513997	-0.037419	1.694502
152.031134	1221.508022	9.519002	-0.037482	1.695449
152.249348	1222.888869	9.524007	-0.037536	1.696381
152.292800	1224.306140	9.529011	-0.037548	1.697319
152.389473	1225.790883	9.534016	-0.037572	1.698306
152.571976	1227.252299	9.539021	-0.037618	1.699286
152.620936	1228.725544	9.544026	-0.037631	1.700260
152.718066	1230.173383	9.549031	-0.037655	1.701221
152.990819	1231.618416	9.554035	-0.037723	1.702198
153.207385	1233.099505	9.559040	-0.037777	1.703193
153.484362	1234.554443	9.564045	-0.037845	1.704176
153.643647	1235.994326	9.569050	-0.037885	1.705136
153.857555	1237.366234	9.574055	-0.037938	1.706057
153.890896	1238.820759	9.579059	-0.037947	1.707013
154.182435	1240.328356	9.584064	-0.038019	1.708030
154.462111	1241.751163	9.589069	-0.038089	1.708989
154.552327	1243.204391	9.594074	-0.038111	1.709949
154.822525	1244.546013	9.599079	-0.038178	1.710853
154.726778	1246.022207	9.604083	-0.038156	1.711807
154.886835	1247.550484	9.609088	-0.038196	1.712820
155.078383	1249.038746	9.614093	-0.038244	1.713811
155.230452	1250.540196	9.619098	-0.038282	1.714805
155.413518	1251.975982	9.624103	-0.038327	1.715759
155.528749	1253.464443	9.629107	-0.038356	1.716740
155.729571	1255.001087	9.634112	-0.038406	1.717760
155.812112	1256.529445	9.639117	-0.038427	1.718762
156.113678	1258.018263	9.644122	-0.038502	1.719761
156.375898	1259.398376	9.649127	-0.038567	1.720684
156.609292	1260.856522	9.654131	-0.038625	1.721655
156.811207	1262.346543	9.659136	-0.038675	1.722642
157.007696	1263.800746	9.664141	-0.038724	1.723605
157.165734	1265.274691	9.669146	-0.038763	1.724576
157.351720	1266.688140	9.674151	-0.038810	1.725511
157.482996	1268.120261	9.679155	-0.038843	1.726451
157.744520	1269.609708	9.684160	-0.038907	1.727441
157.946432	1271.059540	9.689165	-0.038958	1.728399
158.041921	1272.522542	9.694170	-0.038982	1.729354
158.236809	1273.974678	9.699175	-0.039030	1.730312
158.379787	1275.388967	9.704179	-0.039066	1.731239
158.576902	1276.899283	9.709184	-0.039115	1.732234
158.753570	1278.368941	9.714189	-0.039159	1.733199
158.813894	1279.882401	9.719194	-0.039175	1.734180
159.144198	1281.333743	9.724199	-0.039257	1.735149
159.351986	1282.709321	9.729203	-0.039308	1.736055
159.467374	1284.205422	9.734208	-0.039337	1.737029
159.579728	1285.718650	9.739213	-0.039366	1.738013
159.748467	1287.196354	9.744218	-0.039408	1.738980
159.882293	1288.699166	9.749223	-0.039441	1.739959
160.055973	1290.084131	9.754227	-0.039485	1.740865
160.294211	1291.586195	9.759232	-0.039544	1.741853
160.443871	1293.098801	9.764237	-0.039581	1.742838
160.535260	1294.595197	9.769242	-0.039605	1.743806
160.741158	1296.130151	9.774247	-0.039656	1.744809
160.802777	1297.544670	9.779251	-0.039672	1.745721
160.978741	1299.085135	9.784256	-0.039716	1.746724
161.209797	1300.633191	9.789261	-0.039773	1.747737
161.288884	1302.175425	9.794266	-0.039793	1.748730
161.680238	1303.693882	9.799271	-0.039890	1.749739
161.597194	1305.133628	9.804275	-0.039870	1.750649
161.942379	1306.655531	9.809280	-0.039956	1.751655
161.985552	1308.220443	9.814285	-0.039967	1.752657
162.202929	1309.776395	9.819290	-0.040021	1.753670
162.282522	1311.368035	9.824295	-0.040042	1.754691
162.243662	1312.862759	9.829299	-0.040033	1.755638
162.458423	1314.470482	9.834304	-0.040087	1.756682
162.557987	1316.146259	9.839309	-0.040112	1.757757
162.690039	1317.751588	9.844314	-0.040145	1.758790
162.930713	1319.363390	9.849319	-0.040205	1.759838
163.161069	1320.860433	9.854323	-0.040262	1.760810
163.358294	1322.466984	9.859328	-0.040311	1.761849
163.471850	1324.078334	9.864333	-0.040340	1.762881
163.873533	1325.666980	9.869338	-0.040439	1.763928
164.105639	1327.214511	9.874343	-0.040497	1.764930
164.294949	1328.665788	9.879347	-0.040544	1.765867
164.540816	1330.228741	9.884352	-0.040605	1.766880
164.687578	1331.773628	9.889357	-0.040642	1.767870
164.922696	1333.325294	9.894362	-0.040700	1.768874
165.162365	1334.850205	9.899367	-0.040760	1.769860
165.183366	1336.315570	9.904371	-0.040766	1.770786
165.359018	1337.887920	9.909376	-0.040810	1.771795
165.476953	1339.459359	9.914381	-0.040840	1.772797
165.552140	1341.052055	9.919386	-0.040859	1.773807
165.833240	1342.661979	9.924391	-0.040929	1.774848
166.171067	1344.101167	9.929395	-0.041012	1.775787
166.331489	1345.655178	9.934400	-0.041052	1.776780
166.425253	1347.220788	9.939405	-0.041076	1.777773
166.537913	1348.790046	9.944410	-0.041105	1.778769
166.843075	1350.353918	9.949415	-0.041180	1.779781
166.974965	1351.804996	9.954419	-0.041213	1.780704
167.229424	1353.344989	9.959424	-0.041276	1.781695
167.471337	1354.880870	9.964429	-0.041336	1.782681
167.621330	1356.406104	9.969434	-0.041374	1.783650
167.998149	1357.910916	9.974439	-0.041467	1.784629
168.139646	1359.291949	9.979443	-0.041502	1.785507
168.325856	1360.786304	9.984448	-0.041549	1.786459
168.606216	1362.279759	9.989453	-0.041618	1.787420
168.920748	1363.713975	9.994458	-0.041696	1.788347
169.057628	1365.189507	9.999463	-0.041730	1.789281
169.117893	1366.561437	10.004467	-0.041746	1.790143
169.342111	1368.013083	10.009472	-0.041801	1.791070
169.413929	1369.497332	10.014477	-0.041820	1.792002

169.523601	1370.926580	10.019482	-0.041848	1.792903
169.811887	1372.302860	10.024487	-0.041919	1.793788
170.009251	1373.634594	10.029491	-0.041968	1.794636
170.154588	1374.861654	10.034496	-0.042004	1.795413
170.291465	1376.111175	10.039501	-0.042038	1.796203
170.439944	1377.384327	10.044506	-0.042075	1.797009
170.762738	1378.561534	10.049511	-0.042155	1.797772
170.991885	1379.638977	10.054515	-0.042211	1.798463
171.372167	1380.703375	10.059520	-0.042305	1.799160
171.641783	1381.643312	10.064525	-0.042371	1.799770
171.714018	1382.508884	10.069530	-0.042389	1.800313
171.870116	1383.464132	10.074535	-0.042428	1.800921
172.148912	1384.295593	10.079539	-0.042497	1.801463
172.464163	1385.089157	10.084544	-0.042574	1.801985
172.514318	1385.936846	10.089549	-0.042587	1.802515
172.703074	1386.611978	10.094554	-0.042633	1.802951
172.778040	1387.424000	10.099559	-0.042652	1.803461
172.815226	1388.051729	10.104563	-0.042661	1.803854
172.764822	1388.900828	10.109568	-0.042650	1.804374
173.126668	1389.451631	10.114573	-0.042738	1.804750
173.181106	1390.010009	10.119578	-0.042752	1.805100
173.345957	1390.701012	10.124583	-0.042792	1.805543
173.382880	1391.264893	10.129587	-0.042802	1.805896
173.578501	1391.796131	10.134592	-0.042850	1.806243
173.762996	1392.326181	10.139597	-0.042895	1.806588
173.843133	1392.818001	10.144602	-0.042915	1.806900
174.062147	1393.310304	10.149607	-0.042969	1.807225
174.172276	1393.683676	10.154611	-0.042996	1.807466
174.337191	1394.039237	10.159616	-0.043036	1.807701
174.343221	1394.491583	10.164621	-0.043038	1.807981
174.333473	1394.918388	10.169626	-0.043035	1.808244
174.469076	1395.250862	10.174631	-0.043069	1.808462
174.426431	1395.555192	10.179635	-0.043058	1.808646
174.455393	1396.010536	10.184640	-0.043066	1.808930
174.446506	1396.398226	10.189645	-0.043063	1.809168
174.326626	1396.736676	10.194650	-0.043034	1.809365
174.640930	1397.058570	10.199655	-0.043111	1.809594
174.564126	1397.379271	10.204659	-0.043092	1.809784
174.640041	1397.602393	10.209664	-0.043111	1.809929
174.750560	1397.906712	10.214669	-0.043138	1.810128
174.777224	1398.269397	10.219674	-0.043145	1.810354
174.820513	1398.407549	10.224679	-0.043155	1.810443
174.997197	1398.887255	10.229683	-0.043199	1.810756
175.189186	1398.874246	10.234688	-0.043245	1.810766
175.142452	1399.263147	10.239693	-0.043234	1.811001
175.336475	1399.323257	10.244698	-0.043281	1.811057
175.391813	1399.330456	10.249703	-0.043295	1.811066
175.558149	1399.784859	10.254707	-0.043336	1.811362
175.564038	1399.814174	10.259712	-0.043337	1.811381
175.680853	1399.799424	10.264717	-0.043365	1.811383
175.720901	1399.774304	10.269722	-0.043375	1.811371
175.906727	1399.766062	10.274727	-0.043420	1.811384
175.670597	1400.101675	10.279731	-0.043363	1.811568
175.918556	1400.265153	10.284736	-0.043423	1.811693
175.929454	1400.267859	10.289741	-0.043426	1.811695
175.843422	1400.269907	10.294746	-0.043404	1.811688
176.038672	1400.254636	10.299751	-0.043452	1.811697
176.052387	1400.235881	10.304755	-0.043455	1.811687
176.120108	1400.237873	10.309760	-0.043472	1.811695
176.081710	1400.244685	10.314765	-0.043462	1.811695
175.960238	1400.243876	10.319770	-0.043432	1.811683
176.042339	1400.258074	10.324775	-0.043452	1.811700
175.962963	1400.250730	10.329779	-0.043433	1.811687
175.861931	1400.282210	10.334784	-0.043408	1.811697
175.962974	1400.274216	10.339789	-0.043432	1.811702
175.989974	1400.245800	10.344794	-0.043439	1.811687
176.070580	1400.252378	10.349799	-0.043458	1.811699
176.110460	1400.230067	10.354803	-0.043468	1.811689
176.210041	1400.220021	10.359808	-0.043492	1.811692
176.315172	1400.213420	10.364813	-0.043518	1.811698
176.257249	1400.202745	10.369818	-0.043503	1.811686
176.320947	1400.211694	10.374823	-0.043519	1.811697
176.337131	1400.195342	10.379827	-0.043523	1.811689
176.344773	1400.198554	10.384832	-0.043524	1.811691
176.504381	1400.174377	10.389837	-0.043563	1.811691
176.522437	1400.163054	10.394842	-0.043567	1.811686
176.613541	1399.953962	10.399847	-0.043589	1.811566
176.466146	1399.659831	10.404851	-0.043553	1.811371
176.554381	1399.651797	10.409856	-0.043574	1.811374
176.491637	1399.671507	10.414861	-0.043559	1.811380
176.392939	1399.665901	10.419866	-0.043535	1.811367
176.469001	1399.676472	10.424871	-0.043553	1.811381
176.403490	1399.624685	10.429875	-0.043537	1.811343
176.326203	1399.169043	10.434880	-0.043518	1.811054
176.274841	1399.181160	10.439885	-0.043505	1.811057
176.325269	1399.156964	10.444890	-0.043517	1.811047
176.404832	1399.168506	10.449895	-0.043536	1.811061
176.373680	1399.154950	10.454899	-0.043529	1.811050
176.481949	1399.150640	10.459904	-0.043555	1.811058
176.854972	1399.093577	10.464909	-0.043646	1.811058
176.951986	1398.622585	10.469914	-0.043669	1.810777
177.023254	1398.596167	10.474919	-0.043686	1.810767
177.128836	1398.375553	10.479923	-0.043712	1.810641
177.133902	1398.038418	10.484928	-0.043713	1.810434
177.024770	1398.047104	10.489933	-0.043686	1.810429
176.950878	1397.563578	10.494938	-0.043667	1.810123
177.048602	1397.567476	10.499943	-0.043691	1.810135
176.877278	1397.397527	10.504947	-0.043649	1.810014
176.926332	1397.075694	10.509952	-0.043661	1.809820
176.961322	1397.070099	10.514957	-0.043669	1.809820
176.881974	1396.860345	10.519962	-0.043649	1.809683
176.898984	1396.717620	10.524967	-0.043653	1.809596
176.860507	1396.703447	10.529971	-0.043644	1.809584
176.910454	1396.400777	10.534976	-0.043655	1.809402
177.004967	1396.155468	10.539981	-0.043678	1.809259
177.078816	1396.120309	10.544986	-0.043696	1.809245
177.179139	1395.616621	10.549991	-0.043720	1.808944
177.053197	1395.604663	10.554995	-0.043689	1.808924
177.211533	1395.230885	10.560000	-0.043727	1.808708
177.189971	1395.084363	10.565005	-0.043722	1.808616
177.169159	1394.789301	10.570010	-0.043717	1.808432
177.172452	1394.605312	10.575015	-0.043717	1.808318
177.029909	1394.473071	10.580019	-0.043682	1.808223
176.982176	1394.090999	10.585024	-0.043670	1.807982
176.978331	1394.100031	10.590029	-0.043669	1.807988
176.788768	1393.806277	10.595034	-0.043622	1.807788
176.771350	1393.635179	10.600039	-0.043618	1.807681
176.718857	1393.624473	10.605043	-0.043605	1.807669
176.757523	1393.628413	10.610048	-0.043614	1.807675
176.722387	1393.150750	10.615053	-0.043605	1.807376
176.744535	1393.112273	10.620058	-0.043610	1.807355
176.919117	1393.105194	10.625063	-0.043653	1.807367
176.992475	1392.774479	10.630067	-0.043670	1.807170
177.155438	1392.564030	10.635072	-0.043710	1.807055
177.299643	1392.322906	10.640077	-0.043745	1.806920
177.219989	1392.008473	10.645082	-0.043725	1.806718
177.271148	1391.838688	10.650087	-0.043737	1.806618
177.263702	1391.495657	10.655091	-0.043735	1.806405
177.322877	1391.288031	10.660096	-0.043749	1.806283
177.339561	1390.989293	10.665101	-0.043753	1.806100
177.311656	1390.709891	10.670106	-0.043746	1.805924
177.170068	1390.530506	10.675111	-0.043711	1.805799
177.150435	1390.307177	10.680115	-0.043706	1.805659
177.156399	1389.997334	10.685120	-0.043707	1.805468
176.989721	1390.005172	10.690125	-0.043666	1.805457
176.940186	1389.514946	10.695130	-0.043653	1.805149
177.090811	1389.517608	10.700135	-0.043690	1.805165
177.119977	1389.234527	10.705139	-0.043697	1.804993
177.011843	1389.013205	10.710144	-0.043670	1.804846
177.006968	1389.019355	10.715149	-0.043669	1.804849
177.057217	1388.626309	10.720154	-0.043680	1.804610
177.154402	1388.626928	10.725159	-0.043704	1.804620
177.124295	1388.270144	10.730163	-0.043696	1.804396
177.259553	1388.060737	10.735168	-0.043729	1.804280
177.234433	1387.795065	10.740173	-0.043723	1.804113
177.065727	1387.565631	10.745178	-0.043681	1.803955
177.325751	1387.338368	10.750183	-0.043744	1.803839
177.210530	1387.030544	10.755187	-0.043716	1.803637
177.239973	1386.851546	10.760192	-0.043723	1.803529
177.331686	1386.542591	10.765197	-0.043745	1.803347
177.243995	1386.342264	10.770202	-0.043723	1.803214
177.227283	1386.024267	10.775207	-0.043719	1.803016
177.098837	1385.904942	10.780211	-0.043687	1.802929
176.950625	1385.558566	10.785216	-0.043650	1.802701
176.983042	1385.562434	10.790221	-0.043658	1.802706
176.866545	1385.274933	10.795226	-0.043629	1.802517
177.058186	1385.044586	10.800231	-0.043676	1.802392
176.951272	1385.049476	10.805235	-0.043650	1.802385
176.939730	1384.617940	10.810240	-0.043646	1.802117
177.020637	1384.565373	10.815245	-0.043666	1.802092
176.843289	1384.531343	10.820250	-0.043622	1.802054
176.957502	1384.040000	10.825255	-0.043650	1.801760
176.903210	1384.033682	10.830259	-0.043636	1.801751
177.024721	1383.865974	10.835264	-0.043666	1.801659
177.156349	1383.500224	10.840269	-0.043698	1.801445
177.119657	1383.472782	10.845274	-0.043688	1.801424
177.185622	1382.989111	10.850279	-0.043704	1.801131
176.938972	1383.003939	10.855283	-0.043644	1.801116
177.001083	1382.692931	10.860288	-0.043658	1.800929
177.059151	1382.526101	10.865293	-0.043672	1.800831
177.007807	1382.470235	10.870298	-0.043660	1.800791
177.028042	1382.003923	10.875303	-0.043664	1.800504
177.091907	1381.975691	10.880307	-0.043680	1.800493
176.929147	1381.678916	10.885312	-0.043639	1.800293
176.926447	1381.513300	10.890317	-0.043639	1.800190
176.743486	1381.524775	10.895322	-0.043594	1.800179
176.856326	1381.297380	10.900327	-0.043621	1.800049
176.879725	1380.999625	10.905331	-0.043626	1.799867
176.849461	1381.013743	10.910336	-0.043619	1.799873
176.957729	1380.858309	10.915341	-0.043645	1.799787
176.894341	1380.656146	10.920346	-0.043629	1.799655
176.944152	1380.669112	10.925351	-0.043641	1.799668
177.011314	1380.316544	10.930355	-0.043657	1.799455
176.969709	1380.114046	10.935360	-0.043647	1.799326
177.040594	1380.085483	10.940365	-0.043664	1.799315
177.051802	1379.568133	10.945370	-0.043666	1.798995
177.039446	1379.596310	10.950375	-0.043663	1.799011
177.036172	1379.308664	10.955379	-0.043662	1.798832
177.025116	1379.071047	10.960384	-0.043659	1.798684
177.121310	1378.993277	10.965389	-0.043682	1.798644
177.059313	1378.580059	10.970394	-0.043667	1.798382
176.962898	1378.613282	10.975399	-0.043643	1.798393
176.973688	1378.260938	10.980403	-0.043645	1.798175
176.973894	1378.074449	10.985408	-0.043645	1.798060
176.929849	1378.086938	10.990413	-0.043634	1.798063
176.838919	1377.640414	10.995418	-0.043611	1.797777
176.870095	1377.597188	11.000423	-0.043619	1.797753
176.777609	1377.597621	11.005427	-0.043596	1.797744
176.956300	1377.247633	11.010432	-0.043639	1.797544
177.017736	1377.062471	11.015437	-0.043654	1.797435
176.908380	1377.062522	11.020442	-0.043627	1.797424
177.048973	1376.600423	11.025447	-0.043661	1.797151
177.082377	1376.563647	11.030451	-0.043669	1.797131
177.218451	1376.220908	11.035456	-0.043702	1.796931
177.180364	1376.023685	11.040461	-0.043692	1.796805
177.199000	1375.754076	11.045466	-0.043697	1.796639
177.282830	1375.499193	11.050471	-0.043717	1.796489
177.178304	1375.310623	11.055475	-0.043691	1.796362
177.109070	1375.000285	11.060480	-0.043674	1.796162
177.156174	1374.934516	11.065485	-0.043685	1.796126
176.957382	1374.546246	11.070490	-0.043636	1.795865
176.986436	1374.559886	11.075495	-0.043643	1.795876
176.806142	1374.336759	11.080499	-0.043599	1.795720
176.723174	1374.060315	11.085504	-0.043578	1.795540
176.757547	1374.064586	11.090509	-0.043586	1.795546
176.736193	1374.045917	11.095514	-0.043581	1.795532
176.581265	1373.760648	11.100519	-0.043543	1.795340
176.730343	1373.563784	11.105523	-0.043579	1.795232
176.977881	1373.514469	11.110528	-0.043639	1.795225
177.021104	1373.348182	11.115533	-0.043649	1.795126
177.035525	1372.996409	11.120538	-0.043652	1.794908
177.182965	1372.982284	11.125543	-0.043688	1.794914
177.104377	1372.620470	11.130547	-0.043669	1.794681
177.140958	1372.617114	11.135552	-0.043678	1.794682
177.159704	1372.206292	11.140557	-0.043682	1.794429
176.920000	1372.104540	11.145562	-0.043623	1.794342
176.889819	1372.052392	11.150567	-0.043615	1.794306
176.645009	1371.642650	11.155571	-0.043555	1.794028
176.521664	1371.660987	11.160576	-0.043525	1.794027
176.457510	1371.681877	11.165581	-0.043509	1.794034
176.304159	1371.692856	11.170586	-0.043471	1.794026
176.431808	1371.680555	11.175591	-0.043502	1.794030
176.479086	1371.664741	11.180595	-0.043514	1.794025
176.697751	1371.141617	11.185600	-0.043567	1.793721
176.845131	1371.113693	11.190605	-0.043603	1.793718
177.020773	1371.064806	11.195610	-0.043645	1.793704
177.253809	1370.642578	11.200615	-0.043702	1.793464
177.234847	1370.566891	11.205619	-0.043697	1.793415
177.430392	1370.088393	11.210624	-0.043744	1.793136
177.441257	1369.947644	11.215629	-0.043747	1.793049
177.426391	1369.491799	11.220634	-0.043743	1.792764
177.288537	1369.363767	11.225639	-0.043709	1.792671
177.003265	1369.061513	11.230643	-0.043639	1.792455
176.828002	1369.082953	11.235648	-0.043596	1.792451
176.627581	1368.939660	11.240653	-0.043546	1.792342
176.501376	1368.649979	11.245658	-0.043515	1.792149
176.408807	1368.689583	11.250663	-0.043493	1.792165
176.393755	1368.676740	11.255667	-0.043489	1.792155
176.370267	1368.677744	11.260672	-0.043483	1.792154
176.572385	1368.662566	11.265677	-0.043532	1.792164
176.634534	1368.548216	11.270682	-0.043547	1.792099
176.850166	1368.082940	11.275687	-0.043599	1.791830
177.059411	1368.040588	11.280691	-0.043650	1.791824
177.123405	1367.785426	11.285696	-0.043665	1.791671
177.291415	1367.511034	11.290701	-0.043706	1.791516
177.313845	1367.268665	11.295706	-0.043711	1.791367
177.451661	1366.972479	11.300711	-0.043745	1.791196
177.302042	1366.694917	11.305715	-0.043708	1.791008
177.273775	1366.509111	11.310720	-0.043701	1.790890
177.182380	1366.216250	11.315725	-0.043678	1.790698
177.093629	1366.002622	11.320730	-0.043656	1.790556
177.012887	1365.891404	11.325735	-0.043636	1.790479
176.810803	1365.564345	11.330739	-0.043586	1.790255
176.605779	1365.596967	11.335744	-0.043536	1.790256
176.584518	1365.614899	11.340749	-0.043531	1.790265
176.524450	1365.593087	11.345754	-0.043516	1.790245
176.574531	1365.120570	11.350759	-0.043528	1.789955
176.506281	1365.118312	11.355763	-0.043511	1.789947
176.496892	1365.107858	11.360768	-0.043508	1.789940
176.625553	1365.107871	11.365773	-0.043540	1.789952
176.621813	1365.084272	11.370778	-0.043539	1.789937
176.610608	1364.784560	11.375783	-0.043535	1.789749
176.823919	1364.706531	11.380787	-0.043587	1.789721
176.990908	1364.674027	11.385792	-0.043628	1.789717
177.036655	1364.349937	11.390797	-0.043639	1.789519
176.970071	1364.137755	11.395802	-0.043622	1.789380
177.194861	1364.015406	11.400807	-0.043677	1.789326
177.192439	1363.599099	11.405811	-0.043676	1.789066
177.071394	1363.609603	11.410816	-0.043646	1.789060
177.055627	1363.120413	11.415821	-0.043642	1.788753
177.006070	1363.102491	11.420826	-0.043630	1.788737
176.815870	1362.969750	11.425831	-0.043583	1.788636
176.637386	1362.700904	11.430835	-0.043539	1.788451
176.651897	1362.686726	11.435840	-0.043542	1.788443
176.489363	1362.731478	11.440845	-0.043502	1.788455
176.304596	1362.739446	11.445850	-0.043457	1.788442
176.371210	1362.748131	11.450855	-0.043473	1.788454
176.400314	1362.531134	11.455859	-0.043480	1.788321
176.429904	1362.194819	11.460864	-0.043487	1.788114
176.403186	1362.218589	11.465869	-0.043480	1.788126
176.663590	1362.166475	11.470874	-0.043544	1.788119
176.761748	1362.161724	11.475879	-0.043568	1.788126
176.814848	1361.928512	11.480883	-0.043580	1.787985
176.897886	1361.629894	11.485888	-0.043600	1.787807
177.195598	1361.594193	11.490893	-0.043673	1.787813
177.154925	1361.152978	11.495898	-0.043662	1.787534
177.148324	1361.100367	11.500903	-0.043661	1.787500
177.006521	1360.839976	11.505907	-0.043626	1.787324
176.994579	1360.629276	11.510912	-0.043622	1.787191
177.065509	1360.609032	11.515917	-0.043640	1.787185
176.791780	1360.119725	11.520922	-0.043572	1.786853
176.775046	1360.143172	11.525927	-0.043568	1.786865
176.497824	1360.183868	11.530931	-0.043500	1.786864
176.573182	1360.161933	11.535936	-0.043518	1.786857
176.436536	1359.785936	11.540941	-0.043485	1.786609
176.280043	1359.692850	11.545946	-0.043446	1.786535
176.401936	1359.696111	11.550951	-0.043476	1.786549
176.249009	1359.712377	11.555955	-0.043438	1.786545
176.299555	1359.695572	11.560960	-0.043450	1.786539
176.552986	1359.672516	11.565965	-0.043512	1.786549
176.481647	1359.665032	11.570970	-0.043495	1.786538
176.634166	1359.637775	11.575975	-0.043532	1.786535
176.756713	1359.129902	11.580979	-0.043561	1.786230
176.749173	1359.118937	11.585984	-0.043559	1.786222
176.976687	1359.100178	11.590989	-0.043615	1.786233
176.907076	1358.696104	11.595994	-0.043597	1.785973
176.896805	1358.632129	11.600999	-0.043594	1.785932
176.877927	1358.637422	11.606003	-0.043590	1.785934
176.852527	1358.189553	11.611008	-0.043583	1.785651
176.729124	1358.148781	11.616013	-0.043553	1.785613
176.722777	1358.129145	11.621018	-0.043551	1.785600
176.543057	1358.131388	11.626023	-0.043507	1.785584
176.452417	1357.677593	11.631027	-0.043484	1.785292
176.404640	1357.682664	11.636032	-0.043473	1.785290
176.306536	1357.716827	11.641037	-0.043448	1.785302
176.271374	1357.698957	11.646042	-0.043440	1.785287
176.335266	1357.699538	11.651047	-0.043455	1.785294
176.329770	1357.695998	11.656051	-0.043454	1.785291
176.404499	1357.684399	11.661056	-0.043472	1.785291
176.483247	1357.687898	11.666061	-0.043491	1.785301
176.532597	1357.542734	11.671066	-0.043503	1.785215
176.810826	1357.140884	11.676071	-0.043570	1.784990
176.837105	1357.127131	11.681075	-0.043577	1.784984
176.787654	1357.124480	11.686080	-0.043564	1.784978
176.921754	1356.794384	11.691085	-0.043597	1.784784
176.736696	1356.771778	11.696090	-0.043551	1.784752
176.720053	1356.787701	11.701095	-0.043547	1.784760
176.655116	1356.631016	11.706099	-0.043531	1.784656
176.587695	1356.256914	11.711104	-0.043514	1.784415
176.624084	1356.274765	11.716109	-0.043523	1.784430
176.474523	1356.276557	11.721114	-0.043486	1.784416
176.538668	1356.286321	11.726119	-0.043502	1.784429
176.564023	1356.136995	11.731123	-0.043508	1.784338
176.699156	1355.729516	11.736128	-0.043540	1.784096
176.765901	1355.737872	11.741133	-0.043556	1.784108
176.857128	1355.706475	11.746138	-0.043579	1.784097
177.028489	1355.305845	11.751143	-0.043620	1.783863
176.930107	1355.194884	11.756147	-0.043596	1.783784
176.921983	1355.151356	11.761152	-0.043594	1.783756
176.881479	1354.741066	11.766157	-0.043583	1.783495
176.655217	1354.751390	11.771162	-0.043528	1.783479
176.692851	1354.760305	11.776167	-0.043537	1.783488
176.534360	1354.708903	11.781171	-0.043498	1.783440
176.450443	1354.260361	11.786176	-0.043477	1.783151
176.378130	1354.288978	11.791181	-0.043459	1.783162
176.326508	1354.277456	11.796186	-0.043446	1.783150
176.207407	1354.309158	11.801191	-0.043417	1.783158
176.366216	1354.288628	11.806195	-0.043456	1.783160
176.438373	1354.268949	11.811200	-0.043473	1.783155
176.356625	1354.301286	11.816205	-0.043453	1.783167
176.309824	1354.283026	11.821210	-0.043442	1.783151
176.416854	1354.248413	11.826215	-0.043468	1.783140
176.472420	1353.777366	11.831219	-0.043481	1.782850
176.498964	1353.751617	11.836224	-0.043487	1.782837
176.590719	1353.762022	11.841229	-0.043509	1.782852
176.497097	1353.754837	11.846234	-0.043486	1.782839
176.646714	1353.740230	11.851239	-0.043523	1.782844
176.383120	1353.701328	11.856243	-0.043458	1.782794
176.464943	1353.253674	11.861248	-0.043478	1.782521
176.492599	1353.277849	11.866253	-0.043484	1.782539
176.568636	1353.245350	11.871258	-0.043503	1.782526
176.457833	1353.276500	11.876263	-0.043475	1.782535
176.474927	1353.273418	11.881267	-0.043479	1.782534
176.331444	1353.279030	11.886272	-0.043444	1.782524
176.292833	1353.094267	11.891277	-0.043435	1.782404
176.350870	1352.800439	11.896282	-0.043448	1.782226
176.348335	1352.808903	11.901287	-0.043448	1.782231
176.453976	1352.798683	11.906291	-0.043473	1.782235
176.465754	1352.780236	11.911296	-0.043476	1.782224
176.635079	1352.774995	11.916301	-0.043517	1.782238
176.687744	1352.743667	11.921306	-0.043530	1.782223
176.508554	1352.263525	11.926311	-0.043486	1.781905
176.533952	1352.247433	11.931315	-0.043492	1.781897
176.406756	1352.251252	11.936320	-0.043461	1.781887
176.460007	1352.261940	11.941325	-0.043473	1.781899
176.605696	1352.221528	11.946330	-0.043509	1.781888
176.547459	1352.098700	11.951335	-0.043494	1.781805
176.494333	1351.752129	11.956339	-0.043481	1.781582
176.509015	1351.730244	11.961344	-0.043484	1.781570
176.531540	1351.751220	11.966349	-0.043490	1.781585
176.508611	1351.731988	11.971354	-0.043484	1.781571
176.604460	1351.728278	11.976359	-0.043507	1.781578
176.585803	1351.381832	11.981363	-0.043502	1.781359
176.510705	1351.228064	11.986368	-0.043484	1.781255
176.630672	1351.234520	11.991373	-0.043513	1.781271
176.456027	1351.232083	11.996378	-0.043470	1.781252
176.616464	1351.218004	12.001383	-0.043509	1.781259
176.544084	1351.083992	12.006387	-0.043491	1.781168
176.584193	1350.745355	12.011392	-0.043501	1.780960
176.683676	1350.751777	12.016397	-0.043525	1.780973
176.568441	1350.745020	12.021402	-0.043496	1.780958
176.501652	1350.765287	12.026407	-0.043480	1.780964
176.522938	1350.518026	12.031411	-0.043485	1.780811
176.511452	1350.229364	12.036416	-0.043482	1.780629
176.455949	1350.261554	12.041421	-0.043468	1.780643
176.454187	1350.244247	12.046426	-0.043467	1.780632
176.420370	1350.258103	12.051431	-0.043459	1.780638
176.318135	1350.274461	12.056435	-0.043434	1.780638
176.309291	1350.261998	12.061440	-0.043432	1.780629
176.345051	1350.276904	12.066445	-0.043440	1.780642
176.329777	1349.985877	12.071450	-0.043436	1.780458
176.408771	1349.766733	12.076455	-0.043455	1.780328
176.397544	1349.774311	12.081459	-0.043452	1.780332
176.366194	1349.760149	12.086464	-0.043444	1.780320
176.560297	1349.751237	12.091469	-0.043492	1.780333
176.399409	1349.755379	12.096474	-0.043452	1.780320
176.574082	1349.741298	12.101479	-0.043495	1.780328
176.532397	1349.397712	12.106483	-0.043484	1.780108
176.385500	1349.255315	12.111488	-0.043448	1.780005
176.470416	1349.273212	12.116493	-0.043469	1.780024
176.435663	1349.262076	12.121498	-0.043460	1.780014
176.514279	1349.249104	12.126503	-0.043479	1.780013
176.374073	1349.277885	12.131507	-0.043445	1.780017
176.457123	1349.243811	12.136512	-0.043465	1.780004
176.466010	1349.034459	12.141517	-0.043467	1.779874
176.454556	1348.913414	12.146522	-0.043464	1.779796
176.530210	1348.909864	12.151527	-0.043482	1.779802
176.694117	1348.886761	12.156531	-0.043522	1.779803
176.661376	1348.874068	12.161536	-0.043514	1.779792
176.739605	1348.498608	12.166541	-0.043533	1.779564
176.687904	1348.335375	12.171546	-0.043520	1.779457
176.624131	1348.348696	12.176551	-0.043504	1.779459
176.806524	1348.326177	12.181555	-0.043548	1.779462
176.542376	1347.937772	12.186560	-0.043483	1.779193
176.637470	1347.850075	12.191565	-0.043506	1.779147
176.458355	1347.874261	12.196570	-0.043462	1.779144
176.304619	1347.901186	12.201575	-0.043425	1.779146
176.300846	1347.909333	12.206579	-0.043424	1.779151
176.167365	1347.912188	12.211584	-0.043391	1.779139
176.081990	1347.945811	12.216589	-0.043370	1.779152
176.131077	1347.929504	12.221594	-0.043382	1.779146
176.255114	1347.912892	12.226599	-0.043412	1.779148
176.383013	1347.893437	12.231603	-0.043443	1.779149
176.496290	1347.731999	12.236608	-0.043470	1.779058
176.479115	1347.366917	12.241613	-0.043466	1.778827
176.538960	1347.341463	12.246618	-0.043480	1.778817
176.687590	1347.326715	12.251623	-0.043517	1.778823
176.730402	1347.329300	12.256627	-0.043527	1.778828
176.525207	1347.169558	12.261632	-0.043476	1.778708
176.719595	1346.866623	12.266637	-0.043524	1.778537
176.579217	1346.872061	12.271642	-0.043489	1.778526
176.633021	1346.871180	12.276647	-0.043502	1.778531
176.612840	1346.878166	12.281651	-0.043497	1.778533
176.542690	1346.384750	12.286656	-0.043479	1.778217
176.533211	1346.357489	12.291661	-0.043477	1.778198
176.307609	1346.384249	12.296666	-0.043422	1.778193
176.334071	1346.379945	12.301671	-0.043428	1.778193
176.404074	1346.380002	12.306675	-0.043445	1.778200
176.334420	1346.369385	12.311680	-0.043428	1.778186
176.410509	1346.374207	12.316685	-0.043446	1.778197
176.377029	1346.364632	12.321690	-0.043438	1.778187
176.401486	1345.877614	12.326695	-0.043443	1.777884
176.407806	1345.882433	12.331699	-0.043445	1.777887
176.321615	1345.891068	12.336704	-0.043424	1.777884
176.348645	1345.893884	12.341709	-0.043430	1.777889
176.436107	1345.866592	12.346714	-0.043451	1.777880
176.348778	1345.878637	12.351719	-0.043430	1.777879
176.429035	1345.878078	12.356723	-0.043449	1.777886
176.320237	1345.878824	12.361728	-0.043423	1.777876
176.382222	1345.728010	12.366733	-0.043437	1.777787
176.301133	1345.385145	12.371738	-0.043417	1.777564
176.249500	1345.394826	12.376743	-0.043404	1.777565
176.361515	1345.386053	12.381747	-0.043432	1.777571
176.472717	1345.351560	12.386752	-0.043459	1.777560
176.506644	1345.368453	12.391757	-0.043467	1.777574
176.448147	1345.366038	12.396762	-0.043452	1.777566
176.424394	1345.376069	12.401767	-0.043446	1.777570
176.430744	1345.298121	12.406771	-0.043448	1.777522
176.426698	1344.894524	12.411776	-0.043446	1.777268
176.486137	1344.898963	12.416781	-0.043461	1.777276
176.482047	1344.892739	12.421786	-0.043460	1.777272
176.365623	1344.913575	12.426791	-0.043431	1.777274
176.375987	1344.921237	12.431795	-0.043433	1.777279
176.339799	1344.905883	12.436800	-0.043424	1.777266
176.263235	1344.941093	12.441805	-0.043406	1.777281
176.309627	1344.920989	12.446810	-0.043417	1.777273
176.250288	1344.699797	12.451815	-0.043402	1.777128
176.142316	1344.422152	12.456819	-0.043375	1.776943
176.299762	1344.386124	12.461824	-0.043414	1.776935
176.386407	1344.393001	12.466829	-0.043435	1.776948
176.406551	1344.374283	12.471834	-0.043439	1.776938
176.483327	1344.369043	12.476839	-0.043458	1.776943
176.659997	1344.344410	12.481843	-0.043501	1.776944
176.597117	1344.335234	12.486848	-0.043485	1.776932
176.668952	1343.965327	12.491853	-0.043503	1.776707
176.488663	1343.857321	12.496858	-0.043458	1.776621
176.453942	1343.859382	12.501863	-0.043450	1.776619
176.473257	1343.868618	12.506867	-0.043454	1.776627
176.480884	1343.845904	12.511872	-0.043456	1.776613
176.540886	1343.862419	12.516877	-0.043471	1.776629
176.238244	1343.395092	12.521882	-0.043396	1.776306
176.361515	1343.360699	12.526887	-0.043426	1.776296
176.353203	1343.378239	12.531891	-0.043424	1.776306
176.349808	1343.356016	12.536896	-0.043423	1.776292
176.448349	1343.363997	12.541901	-0.043447	1.776307
176.348095	1343.364915	12.546906	-0.043422	1.776297
176.328614	1343.368064	12.551911	-0.043417	1.776297
176.453651	1343.364935	12.556915	-0.043448	1.776308
176.282944	1343.367715	12.561920	-0.043406	1.776293
176.374787	1343.230717	12.566925	-0.043428	1.776215
176.380352	1342.893451	12.571930	-0.043429	1.776004
176.425952	1342.898806	12.576935	-0.043440	1.776012
176.430990	1342.897860	12.581939	-0.043441	1.776012
176.480187	1342.871364	12.586944	-0.043453	1.776000
176.494772	1342.886303	12.591949	-0.043456	1.776010
176.331648	1342.911241	12.596954	-0.043416	1.776010
176.308043	1342.915037	12.601959	-0.043410	1.776010
176.329718	1342.812406	12.606963	-0.043416	1.775948
176.139568	1342.404353	12.611968	-0.043369	1.775672
176.325885	1342.395324	12.616973	-0.043414	1.775685
176.214625	1342.401701	12.621978	-0.043387	1.775678
176.419966	1342.369827	12.626983	-0.043437	1.775678
176.489508	1342.370181	12.631987	-0.043454	1.775685
176.441620	1342.358423	12.636992	-0.043442	1.775673
176.555013	1342.360090	12.641997	-0.043469	1.775685
176.484827	1342.354064	12.647002	-0.043452	1.775674
176.499348	1341.985209	12.652007	-0.043455	1.775444
176.487995	1341.874386	12.657011	-0.043452	1.775373
176.487951	1341.849664	12.662016	-0.043452	1.775357
176.453670	1341.875739	12.667021	-0.043443	1.775370
176.275792	1341.893565	12.672026	-0.043400	1.775364
176.219099	1341.905780	12.677031	-0.043386	1.775366
176.369969	1341.889648	12.682035	-0.043423	1.775370
176.200406	1341.897233	12.687040	-0.043381	1.775358
176.306853	1341.904950	12.692045	-0.043407	1.775374
176.274706	1341.893952	12.697050	-0.043399	1.775364
176.461858	1341.397310	12.702055	-0.043444	1.775070
176.474850	1341.380226	12.707059	-0.043447	1.775060
176.352533	1341.374694	12.712064	-0.043417	1.775044
176.612688	1341.356797	12.717069	-0.043480	1.775059
176.625648	1341.343936	12.722074	-0.043483	1.775052
176.573024	1341.278578	12.727079	-0.043470	1.775006
176.605508	1340.983718	12.732083	-0.043478	1.774823
176.568773	1340.967739	12.737088	-0.043469	1.774810
176.529161	1340.993901	12.742093	-0.043459	1.774822
176.447393	1340.998885	12.747098	-0.043439	1.774817
176.547935	1340.977741	12.752103	-0.043463	1.774814
176.532781	1340.617689	12.757107	-0.043459	1.774586
176.416230	1340.451978	12.762112	-0.043431	1.774470
176.422148	1340.471486	12.767117	-0.043432	1.774483
176.387450	1340.468838	12.772122	-0.043423	1.774477
176.228470	1340.482966	12.777127	-0.043384	1.774471
176.272854	1340.491227	12.782131	-0.043395	1.774480
176.339971	1340.460443	12.787136	-0.043411	1.774467
176.222559	1340.498563	12.792141	-0.043382	1.774480
176.158639	1340.493802	12.797146	-0.043367	1.774470
176.212216	1340.491937	12.802151	-0.043380	1.774474
176.336927	1340.483870	12.807155	-0.043410	1.774481
176.387406	1340.111355	12.812160	-0.043422	1.774252
176.434918	1339.956641	12.817165	-0.043433	1.774159
176.626187	1339.920015	12.822170	-0.043480	1.774155
176.562431	1339.927387	12.827175	-0.043464	1.774153
176.502989	1339.954918	12.832179	-0.043449	1.774165
176.441010	1339.945143	12.837184	-0.043434	1.774152
176.410542	1339.788539	12.842189	-0.043426	1.774051
176.306746	1339.454961	12.847194	-0.043401	1.773830
176.381205	1339.450310	12.852199	-0.043419	1.773835
176.274020	1339.476405	12.857203	-0.043392	1.773841
176.195254	1339.465302	12.862208	-0.043373	1.773826
176.120879	1339.499143	12.867213	-0.043355	1.773840
176.227559	1339.474802	12.872218	-0.043381	1.773835
176.154184	1339.480957	12.877223	-0.043362	1.773831
176.209300	1339.485295	12.882227	-0.043376	1.773840
176.294193	1339.452221	12.887232	-0.043396	1.773827
176.358874	1339.466466	12.892237	-0.043412	1.773842
176.295806	1339.456866	12.897242	-0.043396	1.773830
176.348274	1339.448723	12.902247	-0.043409	1.773830
176.481584	1339.449715	12.907251	-0.043442	1.773844
176.340451	1338.992844	12.912256	-0.043407	1.773542
176.516235	1338.967077	12.917261	-0.043449	1.773543
176.412606	1338.978727	12.922266	-0.043424	1.773540
176.435378	1338.969542	12.927271	-0.043429	1.773537
176.275049	1339.008196	12.932275	-0.043390	1.773545
176.247923	1338.996925	12.937280	-0.043383	1.773535
176.368013	1338.995524	12.942285	-0.043413	1.773546
176.297409	1338.996038	12.947290	-0.043395	1.773540
176.169298	1339.016243	12.952295	-0.043364	1.773540
176.323463	1339.006517	12.957299	-0.043401	1.773549
176.262261	1338.921495	12.962304	-0.043386	1.773489
176.417559	1338.459091	12.967309	-0.043424	1.773213
176.518783	1338.440069	12.972314	-0.043448	1.773211
176.486550	1338.438033	12.977319	-0.043440	1.773207
176.467370	1338.451055	12.982323	-0.043435	1.773213
176.510748	1338.427479	12.987328	-0.043446	1.773202
176.583260	1338.381478	12.992333	-0.043463	1.773180
176.449014	1337.949239	12.997338	-0.043430	1.772895
176.307686	1337.965823	13.002343	-0.043395	1.772891
176.391543	1337.969852	13.007347	-0.043416	1.772902
176.300385	1337.966908	13.012352	-0.043393	1.772891
176.281070	1337.985154	13.017357	-0.043388	1.772901
176.337252	1337.972955	13.022362	-0.043402	1.772898
176.300274	1337.972162	13.027367	-0.043393	1.772894
176.419295	1337.967448	13.032371	-0.043422	1.772903
176.420126	1337.944358	13.037376	-0.043422	1.772888
176.413651	1337.569213	13.042381	-0.043420	1.772651
176.391294	1337.455836	13.047386	-0.043414	1.772578
176.382783	1337.449336	13.052391	-0.043412	1.772573
176.322526	1337.478966	13.057395	-0.043397	1.772585
176.256510	1337.463403	13.062400	-0.043381	1.772569
176.308662	1337.474638	13.067405	-0.043393	1.772581
176.212611	1337.478909	13.072410	-0.043370	1.772574
176.278774	1337.463904	13.077415	-0.043386	1.772571
176.290532	1337.483465	13.082419	-0.043388	1.772585
176.348362	1337.453906	13.087424	-0.043402	1.772572
176.398689	1337.457497	13.092429	-0.043415	1.772579
176.539970	1337.026504	13.097434	-0.043449	1.772321
176.429163	1336.972881	13.102439	-0.043421	1.772277
176.598975	1336.965387	13.107443	-0.043463	1.772289
176.613922	1336.941574	13.112448	-0.043466	1.772275
176.655698	1336.950718	13.117453	-0.043476	1.772285
176.489470	1336.538106	13.122458	-0.043435	1.772008
176.568194	1336.422523	13.127463	-0.043454	1.771943
176.470325	1336.451118	13.132467	-0.043430	1.771952
176.540540	1336.415904	13.137472	-0.043447	1.771936
176.346884	1336.466728	13.142477	-0.043400	1.771949
176.375257	1336.457162	13.147482	-0.043407	1.771946
176.288368	1336.458763	13.152487	-0.043385	1.771938
176.264359	1336.192103	13.157491	-0.043379	1.771768
176.184119	1335.976411	13.162496	-0.043359	1.771624
176.227638	1335.987007	13.167501	-0.043370	1.771635
176.290784	1335.969255	13.172506	-0.043385	1.771630
176.125223	1335.991143	13.177511	-0.043344	1.771627
176.190015	1336.001371	13.182515	-0.043360	1.771640
176.266524	1335.961208	13.187520	-0.043378	1.771622
176.375219	1335.964787	13.192525	-0.043405	1.771635
176.467196	1335.943498	13.197530	-0.043427	1.771631
176.529203	1335.929888	13.202535	-0.043442	1.771628
176.457306	1335.956137	13.207539	-0.043424	1.771638
176.533131	1335.759290	13.212544	-0.043443	1.771521
176.568358	1335.424196	13.217549	-0.043451	1.771313
176.314653	1335.455228	13.222554	-0.043389	1.771308
176.316788	1335.453748	13.227559	-0.043389	1.771307
176.357355	1335.473720	13.232563	-0.043399	1.771323
176.341531	1335.448066	13.237568	-0.043395	1.771306
176.224710	1335.482113	13.242573	-0.043366	1.771315
176.239446	1335.472958	13.247578	-0.043370	1.771311
176.186755	1335.471669	13.252583	-0.043357	1.771305
176.372037	1335.461974	13.257587	-0.043402	1.771317
176.262892	1335.458162	13.262592	-0.043375	1.771304
176.379611	1335.183854	13.267597	-0.043403	1.771142
176.287855	1335.004720	13.272602	-0.043381	1.771020
176.130611	1335.019117	13.277607	-0.043342	1.771014
176.338943	1335.005794	13.282611	-0.043393	1.771026
176.179360	1335.010902	13.287616	-0.043354	1.771013
176.242693	1335.018378	13.292621	-0.043369	1.771024
176.377171	1334.991649	13.297626	-0.043402	1.771021
176.388546	1334.984755	13.302631	-0.043404	1.771017
176.547104	1334.971577	13.307635	-0.043443	1.771025
176.625038	1334.938874	13.312640	-0.043462	1.771012
176.556302	1334.536276	13.317645	-0.043444	1.770751
176.595909	1334.432601	13.322650	-0.043454	1.770690
176.746313	1334.401636	13.327655	-0.043491	1.770685
176.699150	1334.428946	13.332659	-0.043479	1.770697
176.483125	1334.282506	13.337664	-0.043426	1.770584
176.455236	1333.966661	13.342669	-0.043419	1.770382
176.432391	1333.973067	13.347674	-0.043413	1.770383
176.342918	1333.974348	13.352679	-0.043391	1.770375
176.310195	1333.996415	13.357683	-0.043383	1.770386
176.287406	1333.977069	13.362688	-0.043377	1.770371
176.134461	1334.020007	13.367693	-0.043340	1.770383
176.156692	1334.014875	13.372698	-0.043345	1.770382
175.994434	1334.026850	13.377703	-0.043305	1.770374
175.993994	1334.049290	13.382707	-0.043305	1.770388
176.049501	1334.018631	13.387712	-0.043318	1.770374
176.081407	1334.030295	13.392717	-0.043326	1.770384
176.084093	1334.031452	13.397722	-0.043326	1.770385
175.977166	1334.030772	13.402727	-0.043300	1.770374
176.264695	1334.008705	13.407731	-0.043370	1.770388
176.302475	1333.977367	13.412736	-0.043379	1.770372
176.395658	1333.974204	13.417741	-0.043402	1.770380
176.344686	1333.982802	13.422746	-0.043389	1.770380
176.486990	1333.949396	13.427751	-0.043424	1.770373
176.568218	1333.600356	13.432755	-0.043443	1.770161
176.364876	1333.479949	13.437760	-0.043393	1.770065
176.404701	1333.479971	13.442765	-0.043403	1.770068
176.398071	1333.485561	13.447770	-0.043401	1.770071
176.369162	1333.476585	13.452775	-0.043394	1.770063
176.448776	1333.487679	13.457779	-0.043413	1.770078
176.452333	1333.464197	13.462784	-0.043414	1.770063
176.432654	1333.373836	13.467789	-0.043409	1.770004
176.411146	1333.119204	13.472794	-0.043404	1.769841
176.276628	1333.128066	13.477799	-0.043370	1.769833
176.407086	1333.124731	13.482803	-0.043402	1.769844
176.479788	1333.099541	13.487808	-0.043420	1.769835
176.431481	1333.115145	13.492813	-0.043408	1.769840
176.499129	1333.104606	13.497818	-0.043424	1.769840
176.496419	1333.094238	13.502823	-0.043423	1.769834
176.445913	1332.632150	13.507827	-0.043411	1.769537
176.235010	1332.599087	13.512832	-0.043359	1.769495
176.299827	1332.600868	13.517837	-0.043375	1.769503
176.432247	1332.585344	13.522842	-0.043407	1.769506
176.297837	1332.591471	13.527847	-0.043374	1.769496
176.407642	1332.598305	13.532851	-0.043401	1.769512
176.358363	1332.587588	13.537856	-0.043388	1.769500
176.391809	1332.594795	13.542861	-0.043396	1.769508
176.466342	1332.581689	13.547866	-0.043414	1.769507
176.432991	1332.090773	13.552871	-0.043406	1.769194
176.504462	1332.073200	13.557875	-0.043423	1.769189
176.547412	1332.049227	13.562880	-0.043433	1.769179
176.509520	1332.063687	13.567885	-0.043424	1.769184
176.562113	1332.057245	13.572890	-0.043437	1.769185
176.452414	1332.058503	13.577895	-0.043410	1.769175
176.564443	1331.587366	13.582899	-0.043437	1.768889
176.665905	1331.520561	13.587904	-0.043461	1.768856
176.626693	1331.539679	13.592909	-0.043452	1.768864
176.551477	1331.550360	13.597914	-0.043433	1.768864
176.469283	1331.550761	13.602919	-0.043413	1.768856
176.470159	1331.123143	13.607923	-0.043413	1.768586
176.372279	1331.097082	13.612928	-0.043389	1.768560
176.419201	1331.100926	13.617933	-0.043400	1.768567
176.503799	1331.090687	13.622938	-0.043420	1.768569
176.474945	1331.079738	13.627943	-0.043413	1.768559
176.398184	1331.120830	13.632947	-0.043394	1.768577
176.442438	1331.084046	13.637952	-0.043405	1.768558
176.422609	1330.629098	13.642957	-0.043400	1.768269
176.335604	1330.595156	13.647962	-0.043378	1.768239
176.223201	1330.592403	13.652967	-0.043351	1.768226
176.237714	1330.611970	13.657971	-0.043354	1.768239
176.275708	1330.589525	13.662976	-0.043363	1.768229
176.281604	1330.599322	13.667981	-0.043364	1.768236
176.204615	1330.612015	13.672986	-0.043345	1.768236
176.265526	1330.594126	13.677991	-0.043360	1.768231
176.305754	1330.606931	13.682995	-0.043370	1.768243
176.327741	1330.586261	13.688000	-0.043375	1.768232
176.287613	1330.593653	13.693005	-0.043365	1.768232
176.302153	1330.593685	13.698010	-0.043369	1.768234
176.210368	1330.596590	13.703015	-0.043346	1.768227
176.409716	1330.362869	13.708019	-0.043394	1.768099
176.305660	1330.091342	13.713024	-0.043369	1.767917
176.419173	1330.079271	13.718029	-0.043396	1.767920
176.284128	1330.101341	13.723034	-0.043363	1.767921
176.154798	1330.107929	13.728039	-0.043331	1.767912
176.168131	1330.131385	13.733043	-0.043334	1.767928
176.144249	1330.117190	13.738048	-0.043328	1.767917
176.047828	1330.138871	13.743053	-0.043305	1.767921
176.157682	1330.121444	13.748058	-0.043331	1.767921
176.029325	1330.129856	13.753063	-0.043300	1.767913
176.207983	1330.121878	13.758067	-0.043343	1.767926
176.139856	1330.108213	13.763072	-0.043327	1.767910
176.303715	1330.094652	13.768077	-0.043367	1.767918
176.418535	1330.082870	13.773082	-0.043394	1.767922
176.436698	1330.062310	13.778087	-0.043399	1.767911
176.343020	1330.101852	13.783091	-0.043376	1.767926
176.274248	1330.097187	13.788096	-0.043359	1.767916
176.284913	1330.025157	13.793101	-0.043361	1.767872
176.358954	1329.593193	13.798106	-0.043379	1.767606
176.210952	1329.601486	13.803111	-0.043343	1.767597
176.173283	1329.631970	13.808115	-0.043333	1.767612
176.094510	1329.626657	13.813120	-0.043314	1.767601
176.211672	1329.612774	13.818125	-0.043342	1.767604
176.395248	1329.592154	13.823130	-0.043387	1.767609
176.256614	1329.591806	13.828135	-0.043353	1.767595
176.312538	1329.606830	13.833139	-0.043366	1.767610
176.317421	1329.587373	13.838144	-0.043368	1.767598
176.352567	1329.586635	13.843149	-0.043376	1.767601
176.384066	1329.583505	13.848154	-0.043383	1.767602
176.310723	1329.585000	13.853159	-0.043365	1.767596
176.417217	1329.566616	13.858163	-0.043391	1.767595
176.274780	1329.122060	13.863168	-0.043356	1.767300
176.153394	1329.150139	13.868173	-0.043326	1.767305
176.213506	1329.142755	13.873178	-0.043341	1.767307
176.217227	1329.124473	13.878183	-0.043342	1.767295
176.368968	1329.124670	13.883187	-0.043378	1.767311
176.248302	1329.127926	13.888192	-0.043349	1.767301
176.067736	1329.160618	13.893197	-0.043305	1.767303
176.182664	1329.149061	13.898202	-0.043333	1.767307
176.056129	1329.152500	13.903207	-0.043301	1.767297
176.103688	1329.163893	13.908211	-0.043313	1.767309
176.044165	1329.160745	13.913216	-0.043298	1.767301
175.966203	1329.178536	13.918221	-0.043279	1.767304
176.099386	1329.168308	13.923226	-0.043311	1.767311
176.057568	1329.152987	13.928231	-0.043301	1.767297
176.118529	1329.172897	13.933235	-0.043316	1.767316
176.146395	1329.145628	13.938240	-0.043323	1.767301
176.150112	1329.142419	13.943245	-0.043323	1.767299
176.199457	1329.143894	13.948250	-0.043335	1.767305
176.131076	1329.148812	13.953255	-0.043318	1.767301
176.204040	1329.150279	13.958259	-0.043336	1.767309
176.103873	1329.155748	13.963264	-0.043311	1.767303
176.196766	1329.141973	13.968269	-0.043334	1.767303
176.224242	1329.138733	13.973274	-0.043341	1.767304
176.143848	1329.138127	13.978279	-0.043321	1.767296
176.316109	1329.133120	13.983283	-0.043363	1.767309
176.231876	1329.130894	13.988288	-0.043342	1.767300
176.244363	1329.132977	13.993293	-0.043345	1.767302
176.223753	1329.143478	13.998298	-0.043340	1.767307
176.275659	1329.118852	14.003303	-0.043352	1.767296
176.221243	1329.151472	14.008307	-0.043339	1.767311
176.162935	1329.146157	14.013312	-0.043324	1.767302
176.072951	1329.165097	14.018317	-0.043302	1.767305
176.165825	1329.157750	14.023322	-0.043325	1.767310
176.088596	1329.140091	14.028327	-0.043306	1.767291
176.147874	1329.155077	14.033331	-0.043320	1.767306
176.287714	1329.124776	14.038336	-0.043354	1.767301
176.166854	1329.150302	14.043341	-0.043324	1.767305
176.124601	1329.160994	14.048346	-0.043314	1.767307
176.125104	1329.140746	14.053351	-0.043314	1.767294
176.308768	1329.134193	14.058355	-0.043359	1.767308
176.201251	1328.913500	14.063360	-0.043332	1.767158
176.241119	1328.602695	14.068365	-0.043341	1.766966
176.335733	1328.598036	14.073370	-0.043364	1.766972
176.166107	1328.610234	14.078375	-0.043323	1.766963
176.325544	1328.603531	14.083379	-0.043362	1.766975
176.392800	1328.587117	14.088384	-0.043378	1.766971
176.440176	1328.579017	14.093389	-0.043389	1.766970
176.382349	1328.593394	14.098394	-0.043375	1.766974
176.419232	1328.572122	14.103399	-0.043384	1.766964
176.371650	1328.602675	14.108403	-0.043372	1.766978
176.507608	1328.434392	14.113408	-0.043405	1.766885
176.431102	1328.077469	14.118413	-0.043386	1.766652
176.417728	1328.095474	14.123418	-0.043383	1.766662
176.335334	1328.085557	14.128423	-0.043362	1.766648
176.182517	1328.129449	14.133427	-0.043325	1.766660
176.143852	1328.118087	14.138432	-0.043315	1.766649
176.038761	1328.141381	14.143437	-0.043290	1.766653
176.085006	1328.144574	14.148442	-0.043301	1.766660
176.104231	1328.129540	14.153447	-0.043305	1.766652
176.111517	1328.145284	14.158451	-0.043307	1.766663
176.139779	1328.126111	14.163456	-0.043314	1.766653
176.127389	1328.128153	14.168461	-0.043310	1.766653
176.269594	1328.118722	14.173466	-0.043345	1.766662
176.227942	1328.097950	14.178471	-0.043335	1.766644
176.261785	1328.116185	14.183475	-0.043343	1.766659
176.371920	1328.091544	14.188480	-0.043370	1.766654
176.416971	1328.082821	14.193485	-0.043380	1.766653
176.459818	1328.087537	14.198490	-0.043391	1.766661
176.433990	1327.590808	14.203495	-0.043384	1.766344
176.422024	1327.594760	14.208499	-0.043381	1.766345
176.374854	1327.580048	14.213504	-0.043369	1.766331
176.307141	1327.592028	14.218509	-0.043353	1.766332
176.461637	1327.581893	14.223514	-0.043390	1.766341
176.316138	1327.580674	14.228519	-0.043354	1.766326
176.265948	1327.615582	14.233523	-0.043342	1.766343
176.232449	1327.609338	14.238528	-0.043334	1.766335
176.110159	1327.622249	14.243533	-0.043304	1.766331
176.213268	1327.624396	14.248538	-0.043329	1.766343
176.201150	1327.601700	14.253543	-0.043326	1.766327
176.155267	1327.628275	14.258547	-0.043314	1.766339
176.170070	1327.609740	14.263552	-0.043318	1.766329
176.236356	1327.449012	14.268557	-0.043334	1.766234
176.243750	1327.152363	14.273562	-0.043335	1.766047
176.353783	1327.111194	14.278567	-0.043362	1.766032
176.428254	1327.119818	14.283571	-0.043380	1.766045
176.497213	1327.101161	14.288576	-0.043397	1.766040
176.515792	1327.095368	14.293581	-0.043401	1.766038
176.536950	1327.102257	14.298586	-0.043406	1.766044
176.413102	1327.108254	14.303591	-0.043376	1.766036
176.468534	1326.766305	14.308595	-0.043389	1.765825
176.370181	1326.600416	14.313600	-0.043365	1.765710
176.342897	1326.602827	14.318605	-0.043358	1.765709
176.276845	1326.623682	14.323610	-0.043341	1.765715
176.193676	1326.619581	14.328615	-0.043321	1.765705
176.097861	1326.649316	14.333619	-0.043297	1.765714
176.011971	1326.660949	14.338624	-0.043276	1.765713
175.966156	1326.660598	14.343629	-0.043265	1.765708
176.148124	1326.643662	14.348634	-0.043309	1.765715
176.039257	1326.640395	14.353639	-0.043283	1.765702
176.144234	1326.642486	14.358643	-0.043308	1.765714
176.063054	1326.647700	14.363648	-0.043288	1.765709
176.277852	1326.611280	14.368653	-0.043340	1.765707
176.360951	1326.615086	14.373658	-0.043361	1.765718
176.356504	1326.597610	14.378663	-0.043359	1.765706
176.567107	1326.579132	14.383667	-0.043411	1.765715
176.575289	1326.564854	14.388672	-0.043412	1.765707
176.594320	1326.179323	14.393677	-0.043417	1.765465
176.634365	1326.083020	14.398682	-0.043426	1.765408
176.570518	1326.073661	14.403687	-0.043410	1.765396
176.562356	1326.094785	14.408691	-0.043408	1.765408
176.392669	1326.107017	14.413696	-0.043367	1.765399
176.237765	1326.127043	14.418701	-0.043329	1.765396
176.203679	1326.151013	14.423706	-0.043320	1.765408
176.112277	1325.743196	14.428711	-0.043298	1.765141
175.946492	1326.141812	14.433715	-0.043257	1.765377
176.009527	1326.169256	14.438720	-0.043272	1.765400
176.093767	1326.151651	14.443725	-0.043293	1.765397
176.079776	1326.165300	14.448730	-0.043289	1.765405
175.970635	1326.163809	14.453735	-0.043263	1.765393
176.025646	1326.173511	14.458739	-0.043276	1.765404
176.169828	1326.146720	14.463744	-0.043311	1.765402
176.341488	1326.111162	14.468749	-0.043353	1.765396
176.395938	1326.114535	14.473754	-0.043366	1.765404
176.274471	1325.626554	14.478759	-0.043336	1.765083
176.550791	1325.604139	14.483763	-0.043403	1.765096
176.457597	1325.604585	14.488768	-0.043380	1.765087
176.491498	1325.599096	14.493773	-0.043388	1.765087
176.431990	1325.618426	14.498778	-0.043374	1.765093
176.350072	1325.609694	14.503783	-0.043353	1.765079
176.263661	1325.649792	14.508787	-0.043332	1.765096
176.242515	1325.641861	14.513792	-0.043327	1.765089
176.126820	1325.659175	14.518797	-0.043298	1.765088
175.954153	1325.694339	14.523802	-0.043256	1.765093
175.957766	1325.679057	14.528807	-0.043257	1.765084
175.991253	1325.692389	14.533811	-0.043265	1.765096
176.035371	1325.678876	14.538816	-0.043276	1.765091
176.230709	1325.640085	14.543821	-0.043323	1.765086
176.363869	1325.634276	14.548826	-0.043355	1.765096
176.457427	1325.591019	14.553831	-0.043378	1.765078
176.612862	1325.229561	14.558835	-0.043416	1.764864
176.579321	1325.230985	14.563840	-0.043407	1.764862
176.689662	1325.207544	14.568845	-0.043434	1.764858
176.667356	1325.227927	14.573850	-0.043429	1.764869
176.614013	1324.839166	14.578855	-0.043415	1.764617
176.635650	1324.698186	14.583859	-0.043420	1.764530
176.467938	1324.714562	14.588864	-0.043379	1.764524
176.273557	1324.739576	14.593869	-0.043331	1.764520
176.182946	1324.775149	14.598874	-0.043309	1.764534
175.931141	1324.791439	14.603879	-0.043248	1.764519
175.832894	1324.829940	14.608883	-0.043223	1.764533
175.817281	1324.817936	14.613888	-0.043219	1.764524
175.912457	1324.801815	14.618893	-0.043243	1.764523
175.902995	1324.813266	14.623898	-0.043240	1.764530
175.994665	1324.784128	14.628903	-0.043262	1.764520
176.239646	1324.759477	14.633907	-0.043322	1.764529
176.415998	1324.720465	14.638912	-0.043365	1.764522
176.384979	1324.722973	14.643917	-0.043357	1.764520
176.447587	1324.725547	14.648922	-0.043372	1.764528
176.619246	1324.687027	14.653927	-0.043414	1.764521
176.591093	1324.706354	14.658931	-0.043407	1.764530
176.564564	1324.355138	14.663936	-0.043400	1.764305
176.420768	1324.210871	14.668941	-0.043365	1.764199
176.265263	1324.252216	14.673946	-0.043327	1.764210
176.132150	1324.251804	14.678951	-0.043294	1.764196
176.140624	1324.271036	14.683955	-0.043296	1.764209
176.019319	1324.284798	14.688960	-0.043266	1.764206
175.888947	1324.289134	14.693965	-0.043234	1.764196
175.791735	1324.325496	14.698970	-0.043210	1.764209
175.732968	1324.564489	14.703975	-0.043196	1.764354
175.840422	1324.820509	14.708979	-0.043222	1.764527
175.968904	1324.796186	14.713984	-0.043254	1.764524
176.202174	1324.754875	14.718989	-0.043310	1.764521
176.357281	1324.750785	14.723994	-0.043348	1.764534
176.524982	1324.586328	14.728999	-0.043389	1.764447
176.490973	1324.215587	14.734003	-0.043380	1.764209
176.560767	1324.198281	14.739008	-0.043397	1.764205
176.556893	1324.196764	14.744013	-0.043396	1.764203
176.564425	1324.210225	14.749018	-0.043398	1.764212
176.432950	1324.213008	14.754023	-0.043365	1.764201
176.324140	1324.048940	14.759027	-0.043339	1.764086
176.085566	1323.764491	14.764032	-0.043280	1.763882
176.065063	1323.786062	14.769037	-0.043275	1.763894
175.888516	1324.315857	14.774042	-0.043232	1.764212
175.889012	1324.294413	14.779047	-0.043232	1.764198
175.948206	1324.297028	14.784051	-0.043246	1.764206
176.077310	1324.278525	14.789056	-0.043278	1.764207
176.202686	1324.248029	14.794061	-0.043308	1.764200
176.355934	1324.241266	14.799066	-0.043345	1.764211
176.437335	1324.204126	14.804071	-0.043365	1.764195
176.458770	1323.774647	14.809075	-0.043370	1.763925
176.531394	1323.693760	14.814080	-0.043387	1.763881
176.794485	1323.647997	14.819085	-0.043451	1.763879
176.757956	1323.667651	14.824090	-0.043442	1.763887
176.685023	1323.434837	14.829095	-0.043424	1.763733
176.399118	1323.254562	14.834099	-0.043354	1.763590
176.358636	1323.260535	14.839104	-0.043344	1.763590
176.136531	1323.283022	14.844109	-0.043290	1.763582
176.076888	1323.307547	14.849114	-0.043275	1.763591
175.832788	1323.327579	14.854119	-0.043215	1.763580
175.733947	1323.357782	14.859123	-0.043191	1.763589
175.697811	1323.644671	14.864128	-0.043182	1.763767
175.584135	1323.833310	14.869133	-0.043154	1.763875
175.588521	1323.847510	14.874138	-0.043155	1.763884
175.775580	1323.802864	14.879143	-0.043201	1.763874
175.975291	1323.784588	14.884147	-0.043249	1.763883
176.184525	1323.752728	14.889152	-0.043300	1.763883
176.458631	1323.702271	14.894157	-0.043367	1.763879
176.681385	1323.679381	14.899162	-0.043422	1.763886
176.723769	1323.650853	14.904167	-0.043432	1.763872
176.765903	1323.384883	14.909171	-0.043442	1.763708
176.664098	1323.211626	14.914176	-0.043417	1.763588
176.678234	1323.199137	14.919181	-0.043420	1.763582
176.568822	1323.235937	14.924186	-0.043393	1.763594
176.345251	1323.251010	14.929191	-0.043338	1.763581
176.169878	1323.289564	14.934195	-0.043295	1.763588
175.953957	1323.324146	14.939200	-0.043242	1.763588
175.786571	1323.341963	14.944205	-0.043201	1.763583
175.874721	1323.349383	14.949210	-0.043223	1.763596
175.774567	1323.343547	14.954215	-0.043198	1.763583
175.952623	1323.322757	14.959219	-0.043241	1.763587
176.066767	1323.313263	14.964224	-0.043269	1.763593
176.074306	1323.293430	14.969229	-0.043271	1.763581
176.114270	1323.307450	14.974234	-0.043280	1.763593
176.357987	1323.247227	14.979239	-0.043340	1.763580
176.523377	1323.235829	14.984243	-0.043380	1.763589
176.448720	1323.250143	14.989248	-0.043362	1.763590
176.555794	1323.169269	14.994253	-0.043388	1.763550
176.487511	1322.727198	14.999258	-0.043371	1.763263
176.368739	1322.724792	15.004263	-0.043341	1.763250
176.336190	1322.745542	15.009267	-0.043333	1.763259
176.261094	1322.753022	15.014272	-0.043315	1.763257
176.037456	1322.777482	15.019277	-0.043260	1.763250

175.942469	1322.813979	15.024282	-0.043237	1.763263
175.792031	1322.815327	15.029287	-0.043200	1.763249
175.834669	1322.826456	15.034291	-0.043210	1.763260
175.762299	1322.836959	15.039296	-0.043192	1.763260
175.836917	1322.546989	15.044301	-0.043210	1.763083
176.004344	1322.318594	15.049306	-0.043251	1.762955
176.020372	1322.197853	15.054311	-0.043254	1.762881
176.167986	1321.779383	15.059315	-0.043290	1.762630
176.348559	1321.427726	15.064320	-0.043334	1.762425
176.313332	1320.991338	15.069325	-0.043325	1.762145
176.373146	1320.532414	15.074330	-0.043339	1.761860
176.350383	1320.015146	15.079335	-0.043333	1.761530
176.331679	1319.502754	15.084339	-0.043328	1.761204
176.230386	1318.980575	15.089344	-0.043302	1.760862
176.029216	1318.410491	15.094349	-0.043253	1.760481
175.882104	1317.895024	15.099354	-0.043216	1.760139
175.619883	1317.478758	15.104359	-0.043152	1.759849
175.610224	1316.886971	15.109363	-0.043149	1.759472
175.461207	1316.326135	15.114368	-0.043112	1.759101
175.500257	1315.739710	15.119373	-0.043121	1.758733
175.368648	1315.107056	15.124378	-0.043088	1.758318
175.477611	1314.364367	15.129383	-0.043114	1.757857
175.652985	1313.678221	15.134387	-0.043156	1.757439
175.716272	1312.806513	15.139392	-0.043171	1.756891
175.927794	1311.892530	15.144397	-0.043222	1.756331
176.178008	1310.930981	15.149402	-0.043282	1.755745
176.024837	1309.971060	15.154407	-0.043244	1.755119
176.262931	1308.951209	15.159411	-0.043301	1.754494
176.248844	1307.803541	15.164416	-0.043297	1.753762
176.068208	1306.682901	15.169421	-0.043252	1.753030
176.070381	1305.584102	15.174426	-0.043251	1.752331
175.620751	1304.446428	15.179431	-0.043141	1.751560
175.506613	1303.362538	15.184435	-0.043112	1.750858
175.354759	1302.330816	15.189440	-0.043074	1.750184
175.131561	1301.294644	15.194445	-0.043018	1.749500
174.879153	1300.207045	15.199450	-0.042956	1.748781
174.668467	1299.125059	15.204455	-0.042903	1.748068
174.672128	1298.053610	15.209459	-0.042903	1.747384
174.778066	1296.853335	15.214464	-0.042928	1.746628
174.639133	1295.665223	15.219469	-0.042893	1.745854
174.751152	1294.529672	15.224474	-0.042920	1.745139
174.764114	1293.259538	15.229479	-0.042922	1.744327
174.888449	1291.915075	15.234483	-0.042951	1.743479
174.900869	1290.552672	15.239488	-0.042953	1.742608
174.894027	1289.099764	15.244493	-0.042950	1.741676
174.993010	1287.660799	15.249498	-0.042973	1.740763
174.844807	1286.282188	15.254503	-0.042936	1.739863
174.883478	1284.776465	15.259507	-0.042944	1.738901
174.690180	1283.271670	15.264512	-0.042896	1.737914
174.505311	1281.741415	15.269517	-0.042849	1.736912
174.389287	1280.244351	15.274522	-0.042820	1.735938
174.144516	1278.788475	15.279527	-0.042759	1.734976
174.113232	1277.261006	15.284531	-0.042750	1.733989
173.981331	1275.730768	15.289536	-0.042717	1.732990
173.912076	1274.140393	15.294541	-0.042698	1.731958
173.998839	1272.526428	15.299546	-0.042718	1.730926
173.709279	1271.010957	15.304551	-0.042646	1.729918
173.620688	1269.416851	15.309555	-0.042623	1.728880
173.599532	1267.756712	15.314560	-0.042617	1.727805
173.527133	1266.080417	15.319565	-0.042598	1.726714
173.640408	1264.370337	15.324570	-0.042624	1.725619
173.498608	1262.739297	15.329575	-0.042588	1.724549
173.438304	1260.953925	15.334579	-0.042572	1.723386
173.398013	1259.175972	15.339584	-0.042561	1.722230
173.178051	1257.402829	15.344589	-0.042506	1.721057
173.274770	1255.691067	15.349594	-0.042528	1.719956
173.008206	1253.877554	15.354599	-0.042461	1.718751
173.005492	1252.047537	15.359603	-0.042459	1.717561
172.885999	1250.193751	15.364608	-0.042429	1.716343
172.744139	1248.390435	15.369613	-0.042393	1.715155
172.735186	1246.539624	15.374618	-0.042389	1.713948
172.643817	1244.619718	15.379623	-0.042365	1.712687
172.697285	1242.658725	15.384627	-0.042377	1.711414
172.769514	1240.738019	15.389632	-0.042393	1.710168
172.605580	1238.746086	15.394637	-0.042351	1.708850
172.626644	1236.713248	15.399642	-0.042355	1.707523
172.430135	1234.653114	15.404647	-0.042305	1.706155
172.351455	1232.708331	15.409651	-0.042284	1.704873
172.209694	1230.664390	15.414656	-0.042248	1.703519
172.021023	1228.572514	15.419661	-0.042200	1.702127
171.969360	1226.544370	15.424666	-0.042186	1.700791
171.616410	1224.574207	15.429671	-0.042098	1.699459
171.393876	1222.545117	15.434675	-0.042042	1.698102
171.227565	1220.533115	15.439680	-0.042000	1.696761
171.089226	1218.523943	15.444685	-0.041965	1.695423
171.275364	1216.435644	15.449690	-0.042009	1.694067
171.116882	1214.329780	15.454695	-0.041968	1.692662
171.027126	1212.180620	15.459699	-0.041945	1.691234
171.113081	1210.108523	15.464704	-0.041964	1.689874
171.061958	1207.883325	15.469709	-0.041950	1.688397
171.150068	1205.622599	15.474714	-0.041970	1.686911
171.022926	1203.414971	15.479719	-0.041937	1.685435
171.064991	1201.135227	15.484723	-0.041945	1.683929
171.104072	1198.786025	15.489728	-0.041953	1.682374
170.843688	1196.486762	15.494733	-0.041888	1.680819
170.638528	1194.266950	15.499738	-0.041836	1.679322
170.438659	1191.939966	15.504743	-0.041785	1.677752
170.093219	1189.669628	15.509747	-0.041699	1.676203
169.822020	1187.537221	15.514752	-0.041631	1.674753
169.510020	1185.277895	15.519757	-0.041553	1.673212
169.418712	1183.050989	15.524762	-0.041529	1.671715
169.346103	1180.865106	15.529767	-0.041510	1.670246
169.147635	1178.643892	15.534771	-0.041460	1.668739
169.090541	1176.374612	15.539776	-0.041444	1.667213
168.961885	1174.124822	15.544781	-0.041411	1.665692
169.110831	1171.842432	15.549786	-0.041445	1.664177
168.934045	1169.476768	15.554791	-0.041400	1.662569
169.052063	1167.112592	15.559795	-0.041427	1.660994
169.105044	1164.751886	15.564800	-0.041438	1.659411
168.926340	1162.297034	15.569805	-0.041393	1.657739
168.910705	1159.865723	15.574810	-0.041387	1.656098
168.740707	1157.434812	15.579815	-0.041344	1.654440
168.725676	1154.943117	15.584819	-0.041338	1.652755
168.507355	1152.476824	15.589824	-0.041283	1.651064
168.301759	1150.062701	15.594829	-0.041231	1.649407
168.197647	1147.583440	15.599834	-0.041204	1.647716
168.107967	1145.105329	15.604839	-0.041180	1.646026
167.938456	1142.664613	15.609843	-0.041136	1.644350
167.782872	1140.161487	15.614848	-0.041097	1.642632
167.722561	1137.686800	15.619853	-0.041080	1.640942
167.518495	1135.244514	15.624858	-0.041028	1.639256
167.416895	1132.714631	15.629863	-0.041001	1.637521
167.334960	1130.202547	15.634867	-0.040979	1.635797
167.229802	1127.701949	15.639872	-0.040952	1.634077
167.034647	1125.140216	15.644877	-0.040902	1.632304
166.985147	1122.641192	15.649882	-0.040888	1.630587
166.908553	1120.080712	15.654887	-0.040868	1.628824
166.760414	1117.489236	15.659891	-0.040829	1.627030
166.477690	1115.027620	15.664896	-0.040758	1.625307
166.402258	1112.434952	15.669901	-0.040738	1.623516
166.370754	1109.837301	15.674906	-0.040728	1.621724
166.174207	1107.328644	15.679911	-0.040678	1.619974
165.983170	1104.720535	15.684915	-0.040630	1.618153
165.884519	1102.144791	15.689920	-0.040604	1.616363
165.627210	1099.587334	15.694925	-0.040539	1.614566
165.565909	1096.995929	15.699930	-0.040522	1.612765
165.523491	1094.399161	15.704935	-0.040509	1.610961
165.394071	1091.793058	15.709939	-0.040476	1.609138
165.290109	1089.158812	15.714944	-0.040448	1.607297
165.120403	1086.568714	15.719949	-0.040405	1.605476
165.159371	1083.897101	15.724954	-0.040412	1.603621
164.965694	1081.221605	15.729959	-0.040363	1.601734
164.910756	1078.629134	15.734963	-0.040348	1.599919
164.718999	1075.938633	15.739968	-0.040299	1.598018
164.433137	1073.299468	15.744973	-0.040227	1.596139
164.472758	1070.643747	15.749978	-0.040235	1.594284
164.338798	1067.923349	15.754983	-0.040200	1.592362
164.046981	1065.317231	15.759987	-0.040127	1.590499
163.831826	1062.678081	15.764992	-0.040072	1.588619
163.690957	1059.992388	15.769997	-0.040035	1.586714
163.712960	1057.377427	15.775002	-0.040039	1.584874
163.408350	1054.686720	15.780007	-0.039962	1.582941
163.342022	1052.045748	15.785011	-0.039944	1.581069
163.269788	1049.383082	15.790016	-0.039924	1.579178
163.237641	1046.607442	15.795021	-0.039915	1.577210
163.038635	1043.976499	15.800026	-0.039864	1.575322
162.977359	1041.211186	15.805031	-0.039847	1.573353
162.972228	1038.441589	15.810035	-0.039843	1.571385
162.825142	1035.738257	15.815040	-0.039805	1.569445
162.625228	1032.945000	15.820045	-0.039754	1.567432
162.432949	1030.269432	15.825050	-0.039705	1.565501
162.195522	1027.517107	15.830055	-0.039645	1.563508
162.157432	1024.784151	15.835059	-0.039634	1.561550
161.974732	1022.089564	15.840064	-0.039587	1.559599
161.736879	1019.322254	15.845069	-0.039527	1.557587
161.731145	1016.609127	15.850074	-0.039524	1.555640
161.622007	1013.821725	15.855079	-0.039495	1.553624
161.554747	1011.040765	15.860083	-0.039476	1.551615
161.357341	1008.312178	15.865088	-0.039426	1.549626
161.173642	1005.504213	15.870093	-0.039379	1.547578
161.118113	1002.781472	15.875098	-0.039363	1.545605
160.817923	1000.015676	15.880103	-0.039288	1.543568
160.787369	997.228030	15.885107	-0.039278	1.541546
160.716043	994.475816	15.890112	-0.039259	1.539542
160.464779	991.637813	15.895117	-0.039195	1.537451
160.383456	988.900666	15.900122	-0.039173	1.535451
160.107395	986.093394	15.905127	-0.039104	1.533373
159.826766	983.364195	15.910131	-0.039033	1.531349
159.763064	980.626547	15.915136	-0.039015	1.529343
159.586695	977.820890	15.920141	-0.038970	1.527271
159.484000	975.132087	15.925146	-0.038943	1.525290
159.247793	972.320193	15.930151	-0.038883	1.523200
159.048234	969.635341	15.935155	-0.038832	1.521205
159.068728	966.855812	15.940160	-0.038835	1.519165
158.985794	964.023595	15.945165	-0.038813	1.517071
158.831835	961.283883	15.950170	-0.038773	1.515033
158.577254	958.477720	15.955175	-0.038709	1.512931
158.529500	955.727767	15.960179	-0.038695	1.510893
158.478010	952.899733	15.965184	-0.038680	1.508794
158.288548	950.103079	15.970189	-0.038632	1.506698
158.171140	947.310033	15.975194	-0.038601	1.504611
157.886663	944.503277	15.980199	-0.038529	1.502490
157.744866	941.796894	15.985203	-0.038493	1.500459
157.593491	938.985297	15.990208	-0.038454	1.498345
157.419697	936.193842	15.995213	-0.038409	1.496240
157.410306	933.375089	16.000218	-0.038405	1.494133
157.248494	930.568745	16.005223	-0.038363	1.492012
157.071927	927.780187	16.010227	-0.038318	1.489900
156.898716	924.956210	16.015232	-0.038273	1.487759
156.756831	922.187116	16.020237	-0.038236	1.485660
156.696098	919.348357	16.025242	-0.038219	1.483516
156.507746	916.575063	16.030247	-0.038171	1.481402
156.360509	913.754815	16.035251	-0.038133	1.479255
156.222712	910.956727	16.040256	-0.038097	1.477123
156.009549	908.157371	16.045261	-0.038043	1.474976
155.999250	905.290528	16.050266	-0.038038	1.472802
155.892055	902.521415	16.055271	-0.038010	1.470686
155.795319	899.615644	16.060275	-0.037984	1.468464
155.654539	896.827090	16.065280	-0.037948	1.466323
155.427781	893.961738	16.070285	-0.037890	1.464109
155.291108	891.158013	16.075290	-0.037855	1.461950
155.235163	888.303351	16.080295	-0.037839	1.459759
155.000640	885.447944	16.085299	-0.037779	1.457541
154.813691	882.645205	16.090304	-0.037732	1.455367
154.527143	879.791820	16.095309	-0.037659	1.453137
154.396167	877.030558	16.100314	-0.037625	1.450995
154.311840	874.165880	16.105319	-0.037602	1.448777
154.129282	871.367043	16.110323	-0.037556	1.446593
154.031287	868.530633	16.115328	-0.037530	1.444387
153.932937	865.699460	16.120333	-0.037503	1.442182
153.879900	862.877992	16.125338	-0.037488	1.439988
153.791226	859.973529	16.130343	-0.037465	1.437721
153.582502	857.147955	16.135347	-0.037411	1.435495
153.579458	854.237003	16.140352	-0.037408	1.433227
153.325324	851.417809	16.145357	-0.037344	1.430994
153.304331	848.496936	16.150362	-0.037337	1.428709
152.953849	845.703345	16.155367	-0.037249	1.426475
152.875793	842.810685	16.160371	-0.037228	1.424197
152.625723	840.025283	16.165376	-0.037165	1.421976
152.398481	837.192817	16.170381	-0.037107	1.419718
152.309122	834.356142	16.175386	-0.037083	1.417472
151.937549	831.579180	16.180391	-0.036990	1.415231
151.885330	828.726845	16.185395	-0.036975	1.412970
151.863919	825.922282	16.190400	-0.036968	1.410747
151.629666	823.053078	16.195405	-0.036908	1.408441
151.568057	820.268395	16.200410	-0.036891	1.406221
151.356490	817.407440	16.205415	-0.036837	1.403917
151.199516	814.629987	16.210419	-0.036797	1.401683
151.180429	811.767585	16.215424	-0.036790	1.399397
150.962257	808.933055	16.220429	-0.036735	1.397101
150.824494	806.095646	16.225434	-0.036699	1.394811
150.760600	803.252157	16.230439	-0.036681	1.392522
150.499225	800.423761	16.235443	-0.036615	1.390215
150.429952	797.579992	16.240448	-0.036596	1.387917
150.287922	794.754304	16.245453	-0.036559	1.385621
150.214217	791.868795	16.250458	-0.036539	1.383281
149.876294	789.106234	16.255463	-0.036454	1.381000
149.735627	786.230284	16.260467	-0.036418	1.378652
149.574682	783.455671	16.265472	-0.036376	1.376378
149.441847	780.560877	16.270477	-0.036341	1.374007
149.327943	777.784933	16.275482	-0.036312	1.371732
149.044082	774.951664	16.280487	-0.036240	1.369381
149.031154	772.137317	16.285491	-0.036235	1.367081
149.058656	769.261404	16.290496	-0.036239	1.364732
148.914848	766.415597	16.295501	-0.036202	1.362379
148.617715	763.601017	16.300506	-0.036127	1.360026
148.460406	760.763353	16.305511	-0.036087	1.357670
148.342276	757.916680	16.310515	-0.036056	1.355308
148.069587	755.127226	16.315520	-0.035987	1.352967
147.932922	752.313772	16.320525	-0.035951	1.350621
147.770206	749.485317	16.325530	-0.035909	1.348255
147.632496	746.719209	16.330535	-0.035874	1.345940
147.376338	743.881715	16.335539	-0.035809	1.343545
147.208329	741.174728	16.340544	-0.035766	1.341267
146.996444	738.344284	16.345549	-0.035712	1.338876
146.747374	735.634228	16.350554	-0.035649	1.336576
146.605807	732.824452	16.355559	-0.035612	1.334203
146.291732	730.130882	16.360563	-0.035533	1.331899
146.254318	727.354031	16.365568	-0.035522	1.329562
145.943989	724.656295	16.370573	-0.035444	1.327246
145.827703	721.906615	16.375578	-0.035414	1.324912
145.723992	719.196209	16.380583	-0.035386	1.322608
145.551509	716.455028	16.385587	-0.035342	1.320264
145.484266	713.716746	16.390592	-0.035324	1.317934
145.308280	710.961317	16.395597	-0.035279	1.315569
145.277477	708.201247	16.400602	-0.035269	1.313218
145.061508	705.488215	16.405607	-0.035214	1.310875
144.990675	702.683026	16.410611	-0.035195	1.308470
144.860927	699.973084	16.415616	-0.035161	1.306134
144.714504	697.185662	16.420621	-0.035123	1.303724
144.609786	694.505555	16.425626	-0.035095	1.301409
144.340147	691.731607	16.430631	-0.035027	1.298984
144.074061	689.030615	16.435635	-0.034960	1.296617
143.769546	686.310345	16.440640	-0.034884	1.294224
143.517956	683.660453	16.445645	-0.034820	1.291895
143.372796	680.943403	16.450650	-0.034783	1.289520
143.123965	678.316202	16.455655	-0.034720	1.287203
142.978324	675.613570	16.460659	-0.034682	1.284832
142.939577	672.972913	16.465664	-0.034671	1.282527
142.699865	670.295583	16.470669	-0.034610	1.280154
142.503335	667.636855	16.475674	-0.034560	1.277800
142.355596	664.969068	16.480679	-0.034522	1.275442
142.205848	662.309394	16.485683	-0.034483	1.273086
142.180393	659.646060	16.490688	-0.034475	1.270741
142.113447	656.929174	16.495693	-0.034457	1.268339
142.093708	654.222906	16.500698	-0.034450	1.265948
141.774080	651.564491	16.505703	-0.034370	1.263549
141.684159	648.890520	16.510707	-0.034346	1.261167
141.575241	646.192306	16.515712	-0.034317	1.258756
141.201613	643.538750	16.520717	-0.034224	1.256339
140.949396	640.898470	16.525722	-0.034160	1.253948
140.698361	638.315136	16.530727	-0.034097	1.251603
140.461509	635.667426	16.535731	-0.034037	1.249199
140.103239	633.174283	16.540736	-0.033948	1.246909
139.614859	630.620865	16.545741	-0.033826	1.244540
139.452567	628.169627	16.550746	-0.033785	1.242310
139.148393	625.658974	16.555751	-0.033708	1.240000
138.755635	623.223334	16.560755	-0.033611	1.237740
138.643670	620.749893	16.565760	-0.033581	1.235486
138.348712	618.324506	16.570765	-0.033507	1.233242
138.119936	615.911055	16.575770	-0.033450	1.231015
137.922379	613.485618	16.580775	-0.033400	1.228778
137.862537	611.048719	16.585779	-0.033383	1.226550
137.664805	608.611780	16.590784	-0.033333	1.224294
137.545945	606.212630	16.595789	-0.033302	1.222082
137.465358	603.734737	16.600794	-0.033280	1.219800
137.158458	601.348305	16.605799	-0.033204	1.217561
136.884997	598.918518	16.610803	-0.033135	1.215283
136.717562	596.567561	16.615808	-0.033092	1.213091
136.337555	594.203012	16.620813	-0.032998	1.210847
136.191148	591.853936	16.625818	-0.032960	1.208652
135.804208	589.553449	16.630823	-0.032864	1.206459
135.432663	587.258940	16.635827	-0.032771	1.204269
135.107319	585.071040	16.640832	-0.032690	1.202182
134.622756	582.843601	16.645837	-0.032570	1.200028
134.178009	580.731338	16.650842	-0.032459	1.197984
133.799965	578.588382	16.655847	-0.032365	1.195919
133.520076	576.481797	16.660851	-0.032295	1.193901
133.483025	574.354262	16.665856	-0.032285	1.191901
133.233321	572.213940	16.670861	-0.032222	1.189849
133.045890	570.135488	16.675866	-0.032175	1.187863
132.764828	568.033756	16.680871	-0.032104	1.185836
132.486804	565.962133	16.685875	-0.032035	1.183834
132.343508	563.927534	16.690880	-0.031998	1.181886
132.014822	561.841748	16.695885	-0.031916	1.179855
131.717643	559.845302	16.700890	-0.031842	1.177911
131.407096	557.835219	16.705895	-0.031765	1.175949
131.033590	555.865996	16.710899	-0.031672	1.174011
130.684790	553.965855	16.715904	-0.031585	1.172140
130.154397	552.051632	16.720909	-0.031454	1.170221
129.765565	550.245052	16.725914	-0.031358	1.168427
129.475777	548.415753	16.730919	-0.031285	1.166625
129.212675	546.554827	16.735923	-0.031220	1.164794
128.922940	544.834537	16.740928	-0.031147	1.163091
128.427639	543.056946	16.745933	-0.031025	1.161295
128.216704	541.299773	16.750938	-0.030972	1.159565
127.815261	539.638954	16.755943	-0.030873	1.157893
127.619408	537.899794	16.760947	-0.030823	1.156178
127.435068	536.173215	16.765952	-0.030777	1.154474
127.115578	534.548380	16.770957	-0.030698	1.152844
126.810308	532.866661	16.775962	-0.030622	1.151158
126.587007	531.194866	16.780967	-0.030566	1.149493
126.227319	529.621016	16.785971	-0.030477	1.147898
126.003420	527.993515	16.790976	-0.030421	1.146272
125.618459	526.394295	16.795981	-0.030325	1.144642
125.418606	524.877731	16.800986	-0.030275	1.143124
125.220014	523.270754	16.805991	-0.030226	1.141516
124.869561	521.699845	16.810995	-0.030139	1.139914
124.731007	520.181461	16.816000	-0.030104	1.138399
124.425090	518.637011	16.821005	-0.030028	1.136826
124.103838	517.109936	16.826010	-0.029948	1.135265
123.833012	515.647475	16.831015	-0.029881	1.133775
123.581106	514.152700	16.836019	-0.029818	1.132255
123.418079	512.667286	16.841024	-0.029777	1.130758
123.212079	511.184421	16.846029	-0.029725	1.129253
122.975601	509.743357	16.851034	-0.029666	1.127782
122.782108	508.261088	16.856039	-0.029618	1.126277
122.390265	506.818217	16.861043	-0.029521	1.124772
122.250203	505.461752	16.866048	-0.029486	1.123397
122.150982	503.984171	16.871053	-0.029460	1.121907
122.055824	502.486344	16.876058	-0.029436	1.120396
121.904441	501.061439	16.881063	-0.029398	1.118945
121.610580	499.624503	16.886067	-0.029325	1.117455
121.372761	498.198180	16.891072	-0.029265	1.115983
121.173244	496.758540	16.896077	-0.029215	1.114503
120.981848	495.386049	16.901082	-0.029168	1.113089
120.673629	493.995299	16.906087	-0.029091	1.111635
120.444261	492.563637	16.911091	-0.029034	1.110151
120.127326	491.269177	16.916096	-0.028955	1.108788
119.805843	489.925222	16.921101	-0.028876	1.107373
119.435485	488.612342	16.926106	-0.028784	1.105978
119.252483	487.285057	16.931111	-0.028738	1.104601
119.132063	486.016315	16.936115	-0.028708	1.103293
119.009169	484.674356	16.941120	-0.028677	1.101909
118.684614	483.353598	16.946125	-0.028596	1.100507
118.685476	482.028955	16.951130	-0.028596	1.099160
118.396462	480.727735	16.956135	-0.028524	1.097782
118.144466	479.415761	16.961139	-0.028461	1.096397
117.947027	478.116830	16.966144	-0.028412	1.095035
117.785434	476.852962	16.971149	-0.028371	1.093713
117.563717	475.571129	16.976154	-0.028316	1.092359
117.247165	474.299547	16.981159	-0.028238	1.090997
116.929802	473.046142	16.986163	-0.028159	1.089652
116.739554	471.866523	16.991168	-0.028112	1.088405
116.590247	470.596874	16.996173	-0.028074	1.087071
116.319950	469.358006	17.001178	-0.028007	1.085745
116.156753	468.137748	17.006183	-0.027966	1.084456
115.790513	466.981036	17.011187	-0.027876	1.083193
115.715097	465.756267	17.016192	-0.027856	1.081913
115.470589	464.526572	17.021197	-0.027796	1.080595
115.392607	463.318818	17.026202	-0.027776	1.079329
115.234895	462.124647	17.031207	-0.027736	1.078061
114.934718	460.907071	17.036211	-0.027662	1.076740
114.760830	459.696831	17.041216	-0.027618	1.075448
114.624740	458.516568	17.046221	-0.027584	1.074194
114.368337	457.343826	17.051226	-0.027520	1.072923
114.276078	456.129922	17.056231	-0.027497	1.071639
114.022257	454.920435	17.061235	-0.027434	1.070327
113.966215	453.765418	17.066240	-0.027419	1.069109
113.874320	452.543036	17.071245	-0.027396	1.067811
113.693660	451.313542	17.076250	-0.027350	1.066488
113.554419	450.083702	17.081255	-0.027315	1.065170
113.264159	448.936935	17.086259	-0.027244	1.063909
113.055780	447.758393	17.091264	-0.027192	1.062629
112.882132	446.548095	17.096269	-0.027148	1.061320
112.640646	445.360335	17.101274	-0.027088	1.060021
112.405595	444.236081	17.106279	-0.027030	1.058788
112.244649	443.041715	17.111283	-0.026990	1.057494
112.115650	441.849934	17.116288	-0.026957	1.056207
111.926933	440.665428	17.121293	-0.026910	1.054915
111.725920	439.545474	17.126298	-0.026860	1.053688
111.498934	438.383766	17.131303	-0.026803	1.052409
111.321279	437.199095	17.136307	-0.026759	1.051114
111.250344	436.033142	17.141312	-0.026741	1.049859
111.176187	434.873218	17.146317	-0.026722	1.048607
110.833293	433.717869	17.151322	-0.026637	1.047307
110.620429	432.560569	17.156327	-0.026584	1.046028
110.411931	431.419689	17.161331	-0.026532	1.044766
110.189808	430.346666	17.166336	-0.026477	1.043572
110.015913	429.183838	17.171341	-0.026433	1.042291
109.686064	428.060410	17.176346	-0.026352	1.041019
109.450251	426.971746	17.181351	-0.026293	1.039802
109.208228	425.900343	17.186355	-0.026233	1.038600
108.960662	424.816355	17.191360	-0.026172	1.037383
108.736572	423.715880	17.196365	-0.026116	1.036151
108.392202	422.677354	17.201370	-0.026031	1.034960
108.201373	421.691092	17.206375	-0.025984	1.033855
107.911111	420.624141	17.211379	-0.025912	1.032642
107.895617	419.548750	17.216384	-0.025907	1.031473
107.650081	418.494516	17.221389	-0.025846	1.030280
107.535113	417.483037	17.226394	-0.025817	1.029158
107.536695	416.395253	17.231399	-0.025817	1.027974
107.543045	415.243453	17.236403	-0.025818	1.026721
107.465389	414.130112	17.241408	-0.025798	1.025492
107.245294	413.077201	17.246413	-0.025743	1.024298
107.068601	411.984121	17.251418	-0.025699	1.023067
107.129975	410.825425	17.256423	-0.025713	1.021812
106.845698	409.701718	17.261427	-0.025642	1.020523
106.562823	408.662374	17.266432	-0.025572	1.019326
106.231616	407.590760	17.271437	-0.025491	1.018081
106.118128	406.485844	17.276442	-0.025462	1.016843
105.804843	405.433845	17.281447	-0.025385	1.015621
105.516264	404.423440	17.286451	-0.025313	1.014449
105.391747	403.379739	17.291456	-0.025282	1.013271
105.199149	402.318487	17.296461	-0.025234	1.012059
105.096123	401.233730	17.301466	-0.025208	1.010838
104.950038	400.202407	17.306471	-0.025171	1.009666
104.903619	399.116170	17.311475	-0.025159	1.008452
104.893676	398.002536	17.316480	-0.025156	1.007213
104.741767	396.886357	17.321485	-0.025118	1.005941
104.489469	395.847131	17.326490	-0.025055	1.004733
104.267711	394.799741	17.331495	-0.025000	1.003520
104.022225	393.717720	17.336499	-0.024939	1.002262
103.901545	392.635109	17.341504	-0.024909	1.001027
103.637486	391.599515	17.346509	-0.024843	0.999814
103.313001	390.581634	17.351514	-0.024763	0.998607
103.039015	389.571819	17.356519	-0.024695	0.997418
102.813226	388.534163	17.361523	-0.024639	0.996206
102.632431	387.540601	17.366528	-0.024594	0.995052
102.576580	386.519470	17.371533	-0.024580	0.993891
102.451999	385.459696	17.376538	-0.024548	0.992671
102.383089	384.397747	17.381543	-0.024531	0.991459
102.229491	383.340685	17.386547	-0.024492	0.990233
102.173068	382.323505	17.391552	-0.024478	0.989071
101.905007	381.263923	17.396557	-0.024411	0.987815
101.709891	380.206864	17.401562	-0.024363	0.986576
101.657610	379.138581	17.406567	-0.024349	0.985352
101.396652	378.132006	17.411571	-0.024284	0.984153
101.143449	377.098149	17.416576	-0.024222	0.982924
100.832311	376.073368	17.421581	-0.024145	0.981690
100.495743	375.081275	17.426586	-0.024062	0.980487
100.374715	374.114998	17.431591	-0.024031	0.979358
99.964756	373.144287	17.436595	-0.023930	0.978161
99.843520	372.158545	17.441600	-0.023900	0.977007
99.619599	371.163621	17.446605	-0.023844	0.975819
99.650182	370.181962	17.451610	-0.023851	0.974699
99.737009	369.143066	17.456615	-0.023871	0.973524
99.614418	368.082159	17.461619	-0.023840	0.972277
99.570701	367.014532	17.466624	-0.023829	0.971038
99.339408	366.009091	17.471629	-0.023771	0.969829
99.305797	364.939745	17.476634	-0.023762	0.968587
99.324710	363.843083	17.481639	-0.023766	0.967323
98.935321	362.794671	17.486643	-0.023670	0.966025
98.770601	361.796677	17.491648	-0.023629	0.964833
98.651581	360.747266	17.496653	-0.023599	0.963589
98.384025	359.704525	17.501658	-0.023533	0.962319
98.155040	358.672370	17.506663	-0.023476	0.961069
97.899516	357.675203	17.511667	-0.023413	0.959851
97.782240	356.652573	17.516672	-0.023383	0.958633
97.421709	355.666897	17.521677	-0.023294	0.957403
97.156024	354.655112	17.526682	-0.023228	0.956161
96.953428	353.709455	17.531687	-0.023178	0.955010
96.733487	352.741143	17.536691	-0.023123	0.953826
96.755960	351.716435	17.541696	-0.023128	0.952628
96.550361	350.704538	17.546701	-0.023077	0.951393
96.408536	349.711981	17.551706	-0.023041	0.950194
96.360549	348.715386	17.556711	-0.023029	0.949008
96.136169	347.694349	17.561715	-0.022973	0.947754
96.098278	346.645072	17.566720	-0.022963	0.946506
95.750525	345.686985	17.571725	-0.022877	0.945295
95.598460	344.719306	17.576730	-0.022839	0.944115
95.462422	343.706634	17.581735	-0.022805	0.942884
95.234994	342.690267	17.586739	-0.022749	0.941626
95.167747	341.684733	17.591744	-0.022731	0.940415
94.903711	340.713866	17.596749	-0.022666	0.939200
94.597459	339.737344	17.601754	-0.022590	0.937967
94.241137	338.792619	17.606759	-0.022503	0.936760
94.023896	337.840019	17.611763	-0.022449	0.935572
94.073152	336.885907	17.616768	-0.022460	0.934441
93.919973	335.890795	17.621773	-0.022422	0.933214
93.767982	334.885702	17.626778	-0.022384	0.931974
93.607731	333.909298	17.631783	-0.022344	0.930764
93.498830	332.950763	17.636787	-0.022316	0.929586
93.424944	331.938138	17.641792	-0.022297	0.928349
93.361354	330.905441	17.646797	-0.022281	0.927089
92.948239	329.945984	17.651802	-0.022179	0.925836
93.048184	328.970358	17.656807	-0.022203	0.924678
92.896802	327.937646	17.661811	-0.022165	0.923393
92.693968	326.925983	17.666816	-0.022114	0.922120
92.414584	325.939180	17.671821	-0.022045	0.920858
92.158481	325.001988	17.676826	-0.021982	0.919660
92.091671	323.995483	17.681831	-0.021965	0.918418
91.869140	322.994483	17.686835	-0.021909	0.917147
92.043998	321.931869	17.691840	-0.021951	0.915889
91.643554	321.003645	17.696845	-0.021853	0.914662
91.576803	319.974927	17.701850	-0.021835	0.913387
91.557877	318.922961	17.706855	-0.021830	0.912092
91.313147	317.903878	17.711859	-0.021769	0.910784
91.124268	316.952637	17.716864	-0.021722	0.909571
90.843286	315.952485	17.721869	-0.021653	0.908274
90.673090	314.937321	17.726874	-0.021610	0.906983
90.575687	313.934615	17.731879	-0.021586	0.905722
90.067183	313.043486	17.736883	-0.021461	0.904502
89.913872	312.066648	17.741888	-0.021422	0.903256
89.746135	311.086481	17.746893	-0.021381	0.902002
89.666475	310.096470	17.751898	-0.021360	0.900753
89.355088	309.188455	17.756903	-0.021283	0.899552
89.351644	308.164135	17.761907	-0.021282	0.898275
89.140367	307.194670	17.766912	-0.021229	0.897017
89.043508	306.207467	17.771917	-0.021205	0.895761
88.889257	305.255122	17.776922	-0.021166	0.894534
88.564653	304.311048	17.781927	-0.021086	0.893275
88.326678	303.341305	17.786931	-0.021027	0.892003
88.114057	302.406466	17.791936	-0.020974	0.890779
87.855158	301.509243	17.796941	-0.020910	0.889589
87.515171	300.597644	17.801946	-0.020826	0.888361
87.391324	299.670794	17.806951	-0.020795	0.887163
87.176106	298.743576	17.811955	-0.020742	0.885941
87.234624	297.834874	17.816960	-0.020756	0.884805
87.197046	296.854775	17.821965	-0.020746	0.883555
87.224632	295.837718	17.826970	-0.020751	0.882272
87.310864	294.804318	17.831975	-0.020772	0.880980
87.260497	293.802188	17.836979	-0.020758	0.879694
87.096983	292.787792	17.841984	-0.020718	0.878362
86.946944	291.758216	17.846989	-0.020680	0.877013
86.777824	290.742158	17.851994	-0.020638	0.875674
86.749140	289.738361	17.856999	-0.020630	0.874383
86.340283	288.747569	17.862003	-0.020529	0.873015
86.010537	287.777898	17.867008	-0.020448	0.871691
85.871450	286.818560	17.872013	-0.020413	0.870424
85.537017	285.874920	17.877018	-0.020331	0.869129
85.257554	284.936150	17.882023	-0.020261	0.867851
84.885738	284.012212	17.887027	-0.020170	0.866567
84.747381	283.121259	17.892032	-0.020135	0.865382
84.513829	282.213366	17.897037	-0.020077	0.864149
84.384374	281.261539	17.902042	-0.020045	0.862884
84.352883	280.297667	17.907047	-0.020036	0.861624
84.162637	279.375366	17.912051	-0.019989	0.860378
84.239295	278.387044	17.917056	-0.020007	0.859110
84.118440	277.404160	17.922061	-0.019977	0.857798
83.958165	276.408499	17.927066	-0.019937	0.856458
83.828523	275.476410	17.932071	-0.019904	0.855206
83.459788	274.539863	17.937075	-0.019813	0.853888
83.385253	273.565711	17.942080	-0.019794	0.852591
83.112120	272.623131	17.947085	-0.019727	0.851285
83.086041	271.677613	17.952090	-0.019719	0.850034
82.862451	270.723512	17.957095	-0.019664	0.848720
82.556179	269.779911	17.962099	-0.019588	0.847398
82.386866	268.851150	17.967104	-0.019546	0.846128
82.324681	267.934470	17.972109	-0.019530	0.844898
82.058926	266.993321	17.977114	-0.019464	0.843584
81.964195	266.038430	17.982119	-0.019441	0.842291
81.788914	265.093526	17.987123	-0.019397	0.840990
81.768727	264.133743	17.992128	-0.019391	0.839706
81.475098	263.195048	17.997133	-0.019319	0.838379
81.194971	262.258140	18.002138	-0.019249	0.837056
81.032782	261.358081	18.007143	-0.019209	0.835810
80.879387	260.434142	18.012147	-0.019171	0.834533
80.636676	259.510679	18.017152	-0.019111	0.833231
80.314898	258.609334	18.022157	-0.019031	0.831937
80.232520	257.702625	18.027162	-0.019010	0.830695
80.127781	256.790359	18.032167	-0.018984	0.829437
79.862069	255.875936	18.037171	-0.018918	0.828134
79.787518	254.941444	18.042176	-0.018899	0.826850
79.704762	254.034029	18.047181	-0.018878	0.825599
79.727411	253.065435	18.052186	-0.018883	0.824290
79.653501	252.088833	18.057191	-0.018864	0.822943
79.430051	251.132752	18.062195	-0.018808	0.821583
79.390622	250.193730	18.067200	-0.018798	0.820292
79.175789	249.230185	18.072205	-0.018745	0.818920
78.794003	248.305678	18.077210	-0.018651	0.817556
78.865827	247.340406	18.082215	-0.018667	0.816251
78.694782	246.404528	18.087219	-0.018625	0.814922
78.583811	245.421292	18.092224	-0.018597	0.813540
78.333661	244.479655	18.097229	-0.018535	0.812178
78.130108	243.548627	18.102234	-0.018484	0.810840
77.952943	242.621837	18.107239	-0.018440	0.809512
77.697904	241.684262	18.112243	-0.018377	0.808147
77.498850	240.756447	18.117248	-0.018328	0.806808
77.270123	239.881554	18.122253	-0.018271	0.805533
77.094391	238.952869	18.127258	-0.018227	0.804194
76.898787	238.034982	18.132263	-0.018179	0.802863
76.638102	237.126922	18.137267	-0.018114	0.801526
76.414218	236.263647	18.142272	-0.018059	0.800260
76.379562	235.324409	18.147277	-0.018049	0.798935
76.183435	234.399238	18.152282	-0.018001	0.797585
76.019347	233.510150	18.157287	-0.017960	0.796292
75.886159	232.609679	18.162291	-0.017927	0.794989
75.874560	231.654132	18.167296	-0.017923	0.793638
75.996847	230.661109	18.172301	-0.017952	0.792268
75.882264	229.699630	18.177306	-0.017923	0.790877
75.858384	228.737944	18.182311	-0.017916	0.789507
75.715379	227.735365	18.187315	-0.017881	0.788045
75.682710	226.737093	18.192320	-0.017872	0.786616
75.460802	225.824342	18.197325	-0.017817	0.785256
75.156981	224.851377	18.202330	-0.017742	0.783784
74.892346	223.914697	18.207335	-0.017676	0.782373
74.379873	223.046345	18.212339	-0.017550	0.780989
73.988378	222.189115	18.217344	-0.017454	0.779652
73.729967	221.312980	18.222349	-0.017390	0.778322
73.435832	220.435252	18.227354	-0.017317	0.776977
73.113891	219.638377	18.232359	-0.017238	0.775739
72.976483	218.761026	18.237363	-0.017204	0.774434
72.945573	217.861923	18.242368	-0.017195	0.773124
73.067228	216.925072	18.247373	-0.017224	0.771799
73.039093	216.019128	18.252378	-0.017217	0.770475
73.119151	215.051117	18.257383	-0.017235	0.769088
73.125722	214.058703	18.262387	-0.017236	0.767643
73.084381	213.109664	18.267392	-0.017225	0.766246
72.867646	212.177189	18.272397	-0.017171	0.764821
72.680407	211.216412	18.277402	-0.017125	0.763361
72.464442	210.273096	18.282407	-0.017071	0.761915
72.157511	209.389538	18.287411	-0.016995	0.760529
71.816102	208.493211	18.292416	-0.016911	0.759112
71.535806	207.595845	18.297421	-0.016842	0.757708
71.031292	206.776450	18.302426	-0.016718	0.756353
70.959678	205.918399	18.307431	-0.016700	0.755061
70.748179	205.030667	18.312435	-0.016647	0.753683
70.581424	204.147404	18.317440	-0.016606	0.752322
70.505077	203.293560	18.322445	-0.016586	0.751028
70.369798	202.398096	18.327450	-0.016553	0.749652
70.410408	201.470187	18.332455	-0.016562	0.748276
70.301227	200.549362	18.337459	-0.016534	0.746865
70.319877	199.644952	18.342464	-0.016538	0.745513
70.202889	198.703697	18.347469	-0.016509	0.744063
70.039660	197.762829	18.352474	-0.016468	0.742599
69.908777	196.848972	18.357479	-0.016435	0.741181
69.793827	195.914037	18.362483	-0.016406	0.739734
69.451901	195.017159	18.367488	-0.016322	0.738275
69.448924	194.069702	18.372493	-0.016320	0.736835
68.997814	193.239187	18.377498	-0.016209	0.735441
68.950891	192.302788	18.382503	-0.016197	0.733999
68.657266	191.409132	18.387507	-0.016125	0.732548
68.502759	190.538184	18.392512	-0.016086	0.731170
68.348278	189.646359	18.397517	-0.016048	0.729757
68.107218	188.752530	18.402522	-0.015988	0.728313
68.007920	187.855984	18.407527	-0.015963	0.726903
67.842517	187.005669	18.412531	-0.015922	0.725543
67.543634	186.123238	18.417536	-0.015848	0.724091
67.456451	185.226192	18.422541	-0.015826	0.722676
67.361872	184.334008	18.427546	-0.015802	0.721263
67.317860	183.432909	18.432551	-0.015790	0.719849
67.077329	182.533906	18.437555	-0.015731	0.718377
66.977014	181.621480	18.442560	-0.015706	0.716923
66.864151	180.755418	18.447565	-0.015677	0.715535
66.797678	179.816502	18.452570	-0.015660	0.714043
66.713344	178.881993	18.457575	-0.015639	0.712550
66.403215	178.025640	18.462579	-0.015562	0.711109
66.088789	177.163919	18.467584	-0.015485	0.709655
65.928405	176.271373	18.472589	-0.015445	0.708196
65.711349	175.403133	18.477594	-0.015391	0.706755
65.550370	174.560835	18.482599	-0.015351	0.705370
65.283732	173.685176	18.487603	-0.015285	0.703897
65.055707	172.826553	18.492608	-0.015228	0.702459
65.059159	171.954409	18.497613	-0.015228	0.701068
64.955118	171.047804	18.502618	-0.015202	0.699586
64.860006	170.149970	18.507623	-0.015178	0.698117
64.689118	169.278846	18.512627	-0.015136	0.696665
64.607551	168.378194	18.517632	-0.015115	0.695190
64.316925	167.512564	18.522637	-0.015043	0.693703
63.921796	166.679473	18.527642	-0.014946	0.692234
63.795816	165.854445	18.532647	-0.014914	0.690858
63.641551	164.975670	18.537651	-0.014876	0.689384
63.538232	164.095565	18.542656	-0.014850	0.687920
63.208777	163.292558	18.547661	-0.014769	0.686508
62.996079	162.461720	18.552666	-0.014716	0.685084
63.011171	161.575949	18.557671	-0.014719	0.683638
62.810060	160.717066	18.562675	-0.014669	0.682166
62.738832	159.865679	18.567680	-0.014651	0.680743
62.647367	158.987442	18.572685	-0.014628	0.679267
62.447019	158.109819	18.577690	-0.014578	0.677755
62.345031	157.268031	18.582695	-0.014552	0.676329
62.315171	156.370025	18.587699	-0.014544	0.674830
62.117088	155.492683	18.592704	-0.014495	0.673309
62.041090	154.619971	18.597709	-0.014476	0.671830
61.946043	153.734279	18.602714	-0.014452	0.670321
61.786591	152.843823	18.607719	-0.014412	0.668780
61.736249	151.940177	18.612723	-0.014399	0.667248
61.492276	151.095330	18.617728	-0.014339	0.665749
61.477097	150.174567	18.622733	-0.014334	0.664192
61.117700	149.309297	18.627738	-0.014246	0.662614
60.945010	148.463987	18.632743	-0.014203	0.661127
60.664993	147.602746	18.637747	-0.014134	0.659575
60.241723	146.786561	18.642752	-0.014029	0.658048
60.018376	145.991281	18.647757	-0.013974	0.656619
59.816715	145.149860	18.652762	-0.013924	0.655116
59.891262	144.264596	18.657767	-0.013942	0.653624
59.582309	143.448739	18.662771	-0.013865	0.652122
59.444133	142.619274	18.667776	-0.013831	0.650649
59.472748	141.734559	18.672781	-0.013837	0.649133
59.240496	140.886138	18.677786	-0.013780	0.647590
59.221743	140.056408	18.682791	-0.013774	0.646146
59.060337	139.183222	18.687795	-0.013734	0.644576
58.969131	138.301690	18.692800	-0.013711	0.643011
58.976164	137.434884	18.697805	-0.013712	0.641501
58.727671	136.569049	18.702810	-0.013650	0.639903
58.642138	135.687479	18.707815	-0.013629	0.638329
58.447890	134.843949	18.712819	-0.013581	0.636780
58.173022	134.005879	18.717824	-0.013513	0.635210
58.066678	133.135985	18.722829	-0.013486	0.633638
57.584224	132.353446	18.727834	-0.013367	0.632088
57.281084	131.572208	18.732839	-0.013293	0.630597
56.923455	130.784848	18.737843	-0.013205	0.629074
56.756310	129.979213	18.742848	-0.013163	0.627580
56.739159	129.193755	18.747853	-0.013158	0.626170
56.477805	128.383899	18.752858	-0.013094	0.624628
56.316743	127.572802	18.757863	-0.013053	0.623116
56.357768	126.742718	18.762867	-0.013063	0.621635
56.413507	125.872169	18.767872	-0.013076	0.620083
56.421806	124.997457	18.772877	-0.013077	0.618503
56.349894	124.140825	18.777882	-0.013059	0.616924
56.218952	123.297320	18.782887	-0.013026	0.615343
56.130722	122.417793	18.787891	-0.013003	0.613708
56.038412	121.558303	18.792896	-0.012980	0.612104
56.046255	120.678906	18.797901	-0.012981	0.610495
55.853517	119.802727	18.802906	-0.012933	0.608816
55.633906	118.966857	18.807911	-0.012879	0.607197
55.277223	118.161463	18.812915	-0.012791	0.605582
54.642737	117.413542	18.817920	-0.012636	0.603969
54.228612	116.674622	18.822925	-0.012534	0.602448
54.041180	115.894792	18.827930	-0.012487	0.600928
53.875876	115.108486	18.832935	-0.012446	0.599400
53.699280	114.318371	18.837939	-0.012402	0.597857
53.614381	113.550416	18.842944	-0.012381	0.596384
53.443301	112.759136	18.847949	-0.012338	0.594833
53.244607	111.967922	18.852954	-0.012289	0.593268
53.225497	111.188331	18.857959	-0.012284	0.591786
53.442447	110.315776	18.862963	-0.012336	0.590211
53.334830	109.471231	18.867968	-0.012309	0.588566
53.360514	108.636715	18.872973	-0.012314	0.586984
53.170485	107.811806	18.877978	-0.012267	0.585336
53.085141	106.965866	18.882983	-0.012246	0.583682
52.822411	106.162985	18.887987	-0.012181	0.582041
52.683382	105.331742	18.892992	-0.012146	0.580386
52.564883	104.503761	18.897997	-0.012116	0.578741
52.321062	103.700560	18.903002	-0.012056	0.577092
52.151410	102.895548	18.908007	-0.012014	0.575462
51.797619	102.115884	18.913011	-0.011927	0.573808
51.525918	101.353478	18.918016	-0.011860	0.572214
51.238219	100.599902	18.923021	-0.011789	0.570627
50.942628	99.834182	18.928026	-0.011716	0.569008
50.997743	99.035444	18.933031	-0.011729	0.567453
50.789645	98.275165	18.938035	-0.011677	0.565870
50.576895	97.495025	18.943040	-0.011624	0.564241
50.530113	96.710461	18.948045	-0.011612	0.562662
50.322216	95.942071	18.953050	-0.011561	0.561049
50.314904	95.129424	18.958055	-0.011558	0.559420
50.156108	94.344292	18.963059	-0.011519	0.557783
50.019434	93.572461	18.968064	-0.011485	0.556176
49.935101	92.769410	18.973069	-0.011463	0.554522
49.770494	91.977522	18.978074	-0.011422	0.552855
49.662521	91.201558	18.983079	-0.011395	0.551237
49.318679	90.445362	18.988083	-0.011311	0.549561
49.077119	89.694018	18.993088	-0.011251	0.547931
49.120394	88.908078	18.998093	-0.011261	0.546338
48.771430	88.159249	19.003098	-0.011175	0.544660
48.589945	87.403543	19.008103	-0.011130	0.543030
48.228483	86.696799	19.013107	-0.011041	0.541424
47.912328	85.971003	19.018112	-0.010963	0.539792
47.820506	85.219899	19.023117	-0.010940	0.538193
47.765448	84.476794	19.028122	-0.010926	0.536621
47.818823	83.683238	19.033127	-0.010938	0.534982
47.619750	82.923578	19.038131	-0.010889	0.533307
47.499549	82.180485	19.043136	-0.010859	0.531693
47.413906	81.411024	19.048141	-0.010837	0.530033
47.084448	80.678319	19.053146	-0.010756	0.528346
47.036138	79.944900	19.058151	-0.010743	0.526767
46.902744	79.178023	19.063155	-0.010710	0.525078
46.617074	78.446782	19.068160	-0.010640	0.523395
46.353968	77.752249	19.073165	-0.010575	0.521796
46.120724	77.017890	19.078170	-0.010517	0.520118
45.899208	76.302946	19.083175	-0.010462	0.518482
45.740064	75.610998	19.088179	-0.010423	0.516917
45.487158	74.892198	19.093184	-0.010360	0.515249
45.218915	74.202578	19.098189	-0.010294	0.513633
44.997827	73.532549	19.103194	-0.010240	0.512074
45.022955	72.790944	19.108199	-0.010245	0.510459
44.720906	72.104351	19.113203	-0.010171	0.508819
44.525888	71.431122	19.118208	-0.010122	0.507250
44.447977	70.721588	19.123213	-0.010103	0.505646
44.328010	69.995235	19.128218	-0.010073	0.503981
44.256571	69.294691	19.133223	-0.010055	0.502389
44.248311	68.551716	19.138227	-0.010052	0.500725
44.097051	67.820015	19.143232	-0.010014	0.499018
44.031565	67.114273	19.148237	-0.009998	0.497401
43.824384	66.399252	19.153242	-0.009946	0.495696
43.660600	65.684319	19.158247	-0.009906	0.494004
43.307243	65.033036	19.163251	-0.009819	0.492367
43.076058	64.344801	19.168256	-0.009762	0.490695
42.734050	63.693192	19.173261	-0.009678	0.489051
42.346677	63.083283	19.178266	-0.009582	0.487478
42.113043	62.441736	19.183271	-0.009525	0.485895
41.685689	61.829138	19.188275	-0.009420	0.484287
41.449411	61.216040	19.193280	-0.009361	0.482759
41.405868	60.563702	19.198285	-0.009350	0.481222
41.235848	59.910588	19.203290	-0.009308	0.479620
41.110917	59.275727	19.208295	-0.009277	0.478077
40.772495	58.682318	19.213299	-0.009194	0.476528
40.601060	58.047085	19.218304	-0.009151	0.474952
40.530902	57.408689	19.223309	-0.009133	0.473410
40.293950	56.807137	19.228314	-0.009075	0.471874
40.201979	56.165425	19.233319	-0.009052	0.470304
40.037675	55.530822	19.238323	-0.009011	0.468712
39.828657	54.945859	19.243328	-0.008959	0.467213
39.787415	54.296503	19.248333	-0.008949	0.465632
39.551999	53.672282	19.253338	-0.008891	0.464016
39.391704	53.069242	19.258343	-0.008851	0.462481
39.173926	52.460008	19.263347	-0.008797	0.460898
38.552071	51.933444	19.268352	-0.008645	0.459320
38.198337	51.405160	19.273357	-0.008558	0.457859
37.822391	50.876064	19.278362	-0.008465	0.456382
37.643535	50.313010	19.283367	-0.008421	0.454910
37.192789	49.814924	19.288371	-0.008310	0.453464
36.689731	49.358460	19.293376	-0.008187	0.452091
36.396248	48.860997	19.298381	-0.008115	0.450713
36.287325	48.326978	19.303386	-0.008088	0.449329
35.955384	47.859815	19.308391	-0.008006	0.448000
35.773449	47.365178	19.313395	-0.007961	0.446671
35.514359	46.873611	19.318400	-0.007897	0.445308
35.462433	46.345511	19.323405	-0.007884	0.443950
35.228928	45.871425	19.328410	-0.007827	0.442635
35.109548	45.362434	19.333415	-0.007797	0.441285
35.016073	44.839260	19.338419	-0.007774	0.439907
35.062362	44.291999	19.343424	-0.007784	0.438532
34.958758	43.781186	19.348429	-0.007759	0.437172
34.447873	43.330754	19.353434	-0.007633	0.435759
34.248178	42.839138	19.358439	-0.007584	0.434391
34.113942	42.352346	19.363443	-0.007551	0.433065
33.890069	41.876120	19.368448	-0.007496	0.431716
33.654683	41.400878	19.373453	-0.007438	0.430360
33.444144	40.914537	19.378458	-0.007386	0.428983
33.308846	40.451471	19.383463	-0.007352	0.427702
32.920584	40.015394	19.388467	-0.007257	0.426358
32.528005	39.583484	19.393472	-0.007160	0.425018
32.254652	39.155904	19.398477	-0.007093	0.423747
31.965010	38.743405	19.403482	-0.007022	0.422503
31.864987	38.282533	19.408487	-0.006997	0.421226
31.703055	37.829107	19.413491	-0.006957	0.419933
31.438433	37.406240	19.418496	-0.006892	0.418663
31.319297	36.976073	19.423501	-0.006862	0.417447
31.072792	36.546615	19.428506	-0.006802	0.416161
31.046446	36.077217	19.433511	-0.006795	0.414880
31.032697	35.607457	19.438515	-0.006791	0.413601
30.783120	35.185718	19.443520	-0.006730	0.412323
30.694267	34.727822	19.448525	-0.006707	0.411028
30.399823	34.300820	19.453530	-0.006635	0.409704
30.119029	33.898379	19.458535	-0.006566	0.408450
29.765231	33.522274	19.463539	-0.006479	0.407226
29.406076	33.137105	19.468544	-0.006391	0.405970
29.363043	32.698956	19.473549	-0.006380	0.404734
29.093366	32.307483	19.478554	-0.006314	0.403501
28.818335	31.931646	19.483559	-0.006246	0.402305
28.492661	31.559448	19.488563	-0.006166	0.401088
28.406200	31.138183	19.493568	-0.006144	0.399861
28.339260	30.729597	19.498573	-0.006128	0.398676
28.233872	30.322987	19.503578	-0.006101	0.397472
28.187379	29.892181	19.508583	-0.006090	0.396228
28.147670	29.451396	19.513587	-0.006079	0.394957
28.050553	29.024672	19.518592	-0.006055	0.393689
27.777447	28.646781	19.523597	-0.005988	0.392458
27.302461	28.296695	19.528602	-0.005872	0.391190
27.155251	27.896628	19.533607	-0.005835	0.389958
27.076260	27.488936	19.538611	-0.005816	0.388739
26.913637	27.104411	19.543616	-0.005775	0.387535
26.767383	26.705223	19.548621	-0.005739	0.386295
26.480782	26.324830	19.553626	-0.005669	0.385026
26.344267	25.933307	19.558631	-0.005635	0.383805
26.233813	25.542785	19.563635	-0.005608	0.382599
25.920509	25.172665	19.568640	-0.005531	0.381331
25.801093	24.779660	19.573645	-0.005501	0.380105
25.711277	24.376542	19.578650	-0.005479	0.378861
25.547808	24.003009	19.583655	-0.005438	0.377658
25.319709	23.624289	19.588659	-0.005382	0.376398
25.106156	23.243544	19.593664	-0.005330	0.375137
24.946926	22.868478	19.598669	-0.005290	0.373920
24.629700	22.532701	19.603674	-0.005212	0.372725
24.673980	22.112003	19.608679	-0.005223	0.371482
24.523403	21.725037	19.613683	-0.005186	0.370222
24.348407	21.346192	19.618688	-0.005142	0.368968
24.193208	20.987387	19.623693	-0.005104	0.367783
23.784368	20.652489	19.628698	-0.005004	0.366515
23.528909	20.302995	19.633703	-0.004941	0.365290
23.396162	19.936476	19.638707	-0.004908	0.364083
23.139407	19.604523	19.643712	-0.004845	0.362903
22.933757	19.258011	19.648717	-0.004794	0.361705
22.650310	18.916937	19.653722	-0.004725	0.360473
22.569426	18.548367	19.658727	-0.004705	0.359275
22.205366	18.259993	19.663731	-0.004615	0.358150
21.850271	17.954810	19.668736	-0.004528	0.356974
21.911136	17.572261	19.673741	-0.004543	0.355807
21.783682	17.212565	19.678746	-0.004511	0.354592
21.667891	16.874889	19.683751	-0.004482	0.353450
21.427591	16.551162	19.688755	-0.004423	0.352271
21.251018	16.208656	19.693760	-0.004380	0.351067
21.311775	15.820244	19.698765	-0.004394	0.349862
21.161333	15.476876	19.703770	-0.004357	0.348664
21.011054	15.130951	19.708775	-0.004320	0.347454
20.891372	14.769266	19.713779	-0.004290	0.346208
20.644136	14.432167	19.718784	-0.004230	0.344956
20.459556	14.102599	19.723789	-0.004184	0.343765
20.254220	13.768369	19.728794	-0.004134	0.342540
20.170726	13.411002	19.733799	-0.004113	0.341314
20.008567	13.066055	19.738803	-0.004073	0.340073
19.924052	12.710146	19.743808	-0.004052	0.338842
19.806676	12.366434	19.748813	-0.004023	0.337625
19.545538	12.036507	19.753818	-0.003958	0.336356
19.388149	11.692923	19.758823	-0.003920	0.335105
19.150857	11.376614	19.763827	-0.003861	0.333887
18.908124	11.061371	19.768832	-0.003802	0.332666
18.835142	10.712317	19.773837	-0.003783	0.331438
18.761305	10.351670	19.778842	-0.003765	0.330165
18.573986	10.028800	19.783847	-0.003719	0.328941
18.303300	9.730381	19.788851	-0.003652	0.327740
18.074889	9.407394	19.793856	-0.003596	0.326478
18.029357	9.055653	19.798861	-0.003585	0.325236
18.013759	8.696811	19.803866	-0.003580	0.323985
17.805314	8.378166	19.808871	-0.003529	0.322737
17.672889	8.037306	19.813875	-0.003496	0.321459
17.283379	7.744012	19.818880	-0.003401	0.320166
17.281141	7.399722	19.823885	-0.003400	0.318955
17.146351	7.071120	19.828890	-0.003367	0.317704
17.041532	6.727262	19.833895	-0.003341	0.316414
16.830275	6.406584	19.838899	-0.003289	0.315127
16.581297	6.105322	19.843904	-0.003227	0.313878
16.442715	5.786246	19.848909	-0.003193	0.312637
16.353066	5.440912	19.853914	-0.003171	0.311332
16.107616	5.133025	19.858919	-0.003111	0.310046
15.942762	4.829274	19.863923	-0.003070	0.308827
15.582502	4.555670	19.868928	-0.002982	0.307573
15.391392	4.249691	19.873933	-0.002934	0.306317
15.097507	3.963348	19.878938	-0.002862	0.305054
14.751523	3.709037	19.883943	-0.002777	0.303866
14.599269	3.413265	19.888947	-0.002740	0.302661
14.310901	3.139086	19.893952	-0.002669	0.301432
14.020370	2.875733	19.898957	-0.002598	0.300237
13.776340	2.615230	19.903962	-0.002538	0.299082
13.646680	2.336435	19.908967	-0.002506	0.297938
13.556062	2.039703	19.913971	-0.002483	0.296751
13.301919	1.766321	19.918976	-0.002421	0.295525
13.301971	1.459159	19.923981	-0.002421	0.294356
13.151753	1.183521	19.928986	-0.002383	0.293191
13.115186	0.870320	19.933991	-0.002374	0.291962
12.954162	0.583818	19.938995	-0.002334	0.290736
12.658116	0.324625	19.944000	-0.002262	0.289508
12.722778	0.016912	19.949005	-0.002277	0.288362
12.724681	-0.311706	19.954010	-0.002277	0.287082
12.420317	-0.576048	19.959015	-0.002203	0.285812
12.382157	-0.886159	19.964019	-0.002193	0.284562
12.253086	-1.174609	19.969024	-0.002161	0.283321
12.127068	-1.471810	19.974029	-0.002130	0.282043
11.848519	-1.742275	19.979034	-0.002062	0.280746
11.864629	-2.060671	19.984039	-0.002065	0.279483
11.630045	-2.322044	19.989043	-0.002007	0.278245
11.290449	-2.576630	19.994048	-0.001924	0.276946
11.009016	-2.831842	19.999053	-0.001855	0.275685
10.773700	-3.089355	20.004058	-0.001797	0.274445
10.504610	-3.325522	20.009063	-0.001731	0.273261
10.148113	-3.554907	20.014067	-0.001644	0.272028
7.044644	-3.222779	20.019072	-0.000886	0.270880
