Sun Feb 26 15:47:29 2017

Number of Points = 3613
Depth (nm)	Load (µN)	Time (s)	Depth (V)	Load (V)
0.557327	-0.002496	0.000000	0.000005	0.284198

0.574527	-0.052429	0.005005	0.000001	0.284014
0.575900	-0.064639	0.010010	0.000001	0.283966
0.475343	-0.047853	0.015014	0.000026	0.283955
0.524107	-0.054042	0.020019	0.000014	0.283968
0.319389	-0.016059	0.025024	0.000064	0.283959
0.395221	-0.029959	0.030029	0.000045	0.283963
0.302494	-0.011684	0.035034	0.000068	0.283963
0.208431	-0.057864	0.040038	0.000091	0.283707
0.170176	-0.069444	0.045043	0.000101	0.283631
0.082248	-0.054459	0.050048	0.000122	0.283622
0.039978	-0.044692	0.055053	0.000132	0.283628
0.283661	-0.139824	0.060058	0.000073	0.283440
0.188188	-0.156555	0.065062	0.000096	0.283300
0.341309	-0.213217	0.070067	0.000059	0.283194
0.347061	-0.266908	0.075072	0.000058	0.282986
0.387812	-0.321833	0.080077	0.000048	0.282799
0.458892	-0.372796	0.085082	0.000031	0.282652
0.315278	-0.419844	0.090086	0.000066	0.282353
0.351198	-0.475041	0.095091	0.000057	0.282162
0.254974	-0.510575	0.100096	0.000081	0.281945
0.215334	-0.558307	0.105101	0.000090	0.281724
0.221220	-0.631964	0.110106	0.000089	0.281435
0.048816	-0.666911	0.115110	0.000131	0.281160
0.084438	-0.731835	0.120115	0.000123	0.280929
0.107233	-0.802401	0.125120	0.000117	0.280664
0.175288	-0.889507	0.130125	0.000101	0.280369
0.271925	-0.984867	0.135130	0.000077	0.280063
0.270778	-1.074659	0.140134	0.000078	0.279702
0.276304	-1.154857	0.145139	0.000076	0.279384
0.213431	-1.219559	0.150144	0.000092	0.279075
0.039286	-1.270379	0.155149	0.000134	0.278732
-0.062070	-1.341064	0.160154	0.000159	0.278367
-0.116913	-1.426940	0.165158	0.000173	0.277977
-0.175924	-1.498938	0.170163	0.000187	0.277639
-0.298265	-1.567285	0.175168	0.000217	0.277265
-0.417614	-1.631391	0.180173	0.000247	0.276911
-0.471757	-1.705615	0.185178	0.000260	0.276566
-0.531646	-1.788767	0.190182	0.000275	0.276181
-0.526494	-1.891804	0.195187	0.000274	0.275766
-0.666231	-1.953809	0.200192	0.000308	0.275401
-0.628780	-2.054702	0.205197	0.000299	0.275020
-1.439992	-1.984819	0.210202	0.000497	0.274654
-2.120351	-1.919105	0.215206	0.000663	0.274376
-2.656499	-1.840501	0.220211	0.000794	0.274267
-2.806588	-1.868202	0.225216	0.000831	0.274033
-2.918895	-1.847623	0.230221	0.000858	0.274026
-3.192365	-1.871832	0.235226	0.000925	0.273707
-2.771451	-1.967057	0.240230	0.000823	0.273655
-2.846531	-2.018621	0.245235	0.000841	0.273383
-2.725308	-2.092126	0.250240	0.000811	0.273179
-2.666282	-2.156881	0.255245	0.000797	0.272960
-2.814734	-2.185521	0.260250	0.000833	0.272722
-2.898715	-2.240864	0.265254	0.000854	0.272426
-3.505725	-2.187590	0.270259	0.001002	0.272154
-4.159326	-2.068725	0.275264	0.001162	0.272115
-4.325371	-2.096675	0.280269	0.001203	0.271864
-4.612083	-2.052785	0.285274	0.001273	0.271813
-5.051713	-1.968962	0.290278	0.001380	0.271802
-4.775864	-2.020838	0.295283	0.001313	0.271812
-5.239114	-1.931453	0.300288	0.001426	0.271805
-5.154155	-2.019733	0.305293	0.001405	0.271509
-5.579232	-1.938016	0.310298	0.001509	0.271501
-5.520302	-1.951825	0.315302	0.001495	0.271492
-5.169436	-2.017074	0.320307	0.001409	0.271507
-5.219620	-2.009945	0.325312	0.001422	0.271495
-5.258346	-2.079423	0.330317	0.001431	0.271176
-5.414092	-2.049513	0.335322	0.001469	0.271173
-5.209906	-2.119442	0.340326	0.001419	0.271050
-5.558482	-2.098179	0.345331	0.001505	0.270854
-5.592999	-2.093250	0.350336	0.001513	0.270846
-5.708897	-2.127167	0.355341	0.001542	0.270611
-6.469559	-1.994613	0.360346	0.001727	0.270541
-7.068966	-1.879898	0.365350	0.001874	0.270528
-7.254129	-1.840381	0.370355	0.001919	0.270541
-7.599821	-1.751067	0.375360	0.002003	0.270629
-7.205929	-1.775288	0.380365	0.001907	0.270849
-7.458425	-1.723867	0.385370	0.001969	0.270857
-7.008067	-1.815173	0.390374	0.001859	0.270845
-6.391285	-1.975484	0.395379	0.001709	0.270683
-6.595597	-1.971237	0.400384	0.001759	0.270534
-5.805833	-2.165747	0.405389	0.001566	0.270370
-5.982507	-2.173354	0.410394	0.001609	0.270194
-5.948958	-2.248910	0.415398	0.001601	0.269907
-6.277431	-2.252955	0.420403	0.001681	0.269622
-6.765657	-2.185466	0.425408	0.001800	0.269503
-7.225909	-2.145401	0.430413	0.001913	0.269293
-7.106150	-2.180315	0.435418	0.001884	0.269246
-7.869653	-2.075960	0.440422	0.002070	0.269055
-8.297124	-1.988833	0.445427	0.002175	0.269068
-8.642243	-1.923116	0.450432	0.002259	0.269059
-8.498492	-1.950892	0.455437	0.002224	0.269061
-8.982895	-1.853696	0.460442	0.002342	0.269069
-9.364682	-1.781368	0.465446	0.002436	0.269058
-9.141379	-1.768045	0.470451	0.002381	0.269296
-9.177909	-1.761432	0.475456	0.002390	0.269294
-8.915574	-1.813234	0.480461	0.002326	0.269292
-8.686898	-1.870302	0.485466	0.002270	0.269242
-8.491211	-1.953733	0.490470	0.002223	0.269054
-8.027162	-2.046505	0.495475	0.002109	0.269047
-8.379203	-2.054953	0.500480	0.002195	0.268723
-8.127088	-2.120427	0.505485	0.002134	0.268656
-8.590252	-2.087677	0.510490	0.002247	0.268412
-8.445484	-2.153797	0.515494	0.002212	0.268255
-8.768127	-2.128324	0.520499	0.002291	0.268096
-8.822802	-2.159238	0.525504	0.002304	0.267921
-9.212986	-2.114118	0.530509	0.002399	0.267789
-9.540858	-2.048323	0.535514	0.002480	0.267794
-9.804282	-2.065629	0.540518	0.002544	0.267504
-10.485899	-1.940031	0.545523	0.002710	0.267469
-11.032996	-1.816124	0.550528	0.002844	0.267538
-10.227155	-1.941135	0.555533	0.002647	0.267678
-10.884850	-1.861227	0.560538	0.002808	0.267470
-10.796399	-1.882669	0.565542	0.002786	0.267453
-10.763880	-1.885151	0.570547	0.002779	0.267469
-10.751678	-1.889829	0.575552	0.002776	0.267460
-10.457000	-1.947351	0.580557	0.002704	0.267461
-10.517703	-1.934793	0.585562	0.002719	0.267464
-10.062400	-2.071386	0.590566	0.002607	0.267266
-10.010462	-2.107523	0.595571	0.002595	0.267157
-10.254273	-2.128576	0.600576	0.002655	0.266866
-10.363068	-2.119295	0.605581	0.002681	0.266815
-10.907661	-2.077765	0.610586	0.002814	0.266540
-11.156202	-2.032696	0.615590	0.002875	0.266524
-11.409432	-1.979563	0.620595	0.002937	0.266538
-11.930405	-1.894313	0.625600	0.003064	0.266465
-12.046668	-1.874603	0.630605	0.003093	0.266452
-12.488207	-1.801178	0.635610	0.003200	0.266395
-11.834755	-1.938640	0.640614	0.003041	0.266357
-12.309782	-1.881866	0.645619	0.003157	0.266203
-12.261053	-1.892545	0.650624	0.003145	0.266198
-11.853322	-1.973237	0.655629	0.003046	0.266195
-11.950465	-1.952011	0.660634	0.003069	0.266204
-11.917759	-2.025262	0.665638	0.003062	0.265922
-11.912229	-2.034342	0.670643	0.003060	0.265888
-12.223507	-1.996216	0.675648	0.003136	0.265791
-12.494456	-1.996406	0.680653	0.003203	0.265565
-12.140759	-2.063968	0.685658	0.003116	0.265573
-12.274808	-2.089813	0.690662	0.003149	0.265352
-12.723102	-2.019240	0.695667	0.003259	0.265278
-12.861291	-1.994782	0.700672	0.003292	0.265266
-12.700955	-2.085886	0.705677	0.003253	0.265014
-13.107207	-2.022009	0.710682	0.003353	0.264946
-13.512202	-1.945210	0.715686	0.003452	0.264934
-13.457213	-1.953790	0.720691	0.003438	0.264943
-13.506609	-1.976274	0.725696	0.003450	0.264806
-13.722743	-1.975568	0.730701	0.003503	0.264629
-14.110414	-1.897497	0.735706	0.003598	0.264637
-14.444696	-1.833754	0.740710	0.003680	0.264629
-14.085989	-1.901776	0.745715	0.003592	0.264639
-13.850466	-1.949936	0.750720	0.003535	0.264631
-13.748410	-2.006982	0.755725	0.003510	0.264474
-14.258861	-1.940535	0.760730	0.003634	0.264330
-13.986246	-1.997637	0.765734	0.003568	0.264314
-13.662252	-2.086984	0.770739	0.003489	0.264205
-14.482355	-1.956988	0.775744	0.003689	0.264073
-14.658661	-1.923617	0.780749	0.003732	0.264067
-14.963178	-1.861215	0.785754	0.003807	0.264078
-15.239835	-1.809695	0.790758	0.003874	0.264065
-15.218666	-1.856470	0.795763	0.003869	0.263884
-15.704836	-1.756994	0.800768	0.003988	0.263901
-14.936707	-1.934948	0.805773	0.003800	0.263785
-14.836517	-1.965766	0.810778	0.003776	0.263738
-14.574258	-2.049041	0.815782	0.003712	0.263603
-14.458638	-2.114570	0.820787	0.003684	0.263420
-14.121289	-2.236544	0.825792	0.003602	0.263183
-14.319182	-2.253283	0.830797	0.003650	0.262945
-14.835966	-2.190067	0.835802	0.003776	0.262781
-15.246863	-2.183912	0.840806	0.003877	0.262462
-15.515482	-2.129404	0.845811	0.003942	0.262469
-16.184690	-2.059827	0.850816	0.004106	0.262204
-16.664259	-1.978053	0.855821	0.004223	0.262150
-17.273434	-1.825669	0.860826	0.004372	0.262290
-17.008233	-1.837351	0.865830	0.004307	0.262463
-17.046784	-1.827691	0.870835	0.004317	0.262471
-17.348042	-1.769632	0.875840	0.004390	0.262466
-17.629280	-1.715121	0.880845	0.004459	0.262463
-17.895424	-1.660529	0.885850	0.004524	0.262473
-17.894299	-1.649889	0.890854	0.004524	0.262519
-16.993041	-1.786985	0.895859	0.004304	0.262690
-17.276637	-1.783841	0.900864	0.004373	0.262465
-16.765393	-1.885144	0.905869	0.004248	0.262461
-16.430105	-1.962637	0.910874	0.004166	0.262411
-15.891550	-2.128836	0.915878	0.004035	0.262153
-15.568300	-2.266009	0.920883	0.003956	0.261837
-16.589271	-2.134688	0.925888	0.004206	0.261539
-16.890416	-2.107918	0.930893	0.004279	0.261400
-16.973791	-2.135647	0.935898	0.004300	0.261210
-16.654412	-2.253831	0.940902	0.004222	0.260972
-17.465153	-2.111282	0.945907	0.004420	0.260899
-18.180680	-2.038533	0.950912	0.004595	0.260607
-17.967668	-2.088867	0.955917	0.004543	0.260570
-18.187337	-2.043966	0.960922	0.004596	0.260577
-19.147947	-1.858058	0.965926	0.004831	0.260565
-19.464978	-1.792911	0.970931	0.004908	0.260577
-19.393823	-1.808614	0.975936	0.004891	0.260569
-19.554575	-1.777291	0.980941	0.004930	0.260568
-19.888194	-1.652977	0.985946	0.005012	0.260821
-19.612187	-1.693017	0.990950	0.004944	0.260882
-19.025694	-1.805537	0.995955	0.004801	0.260893
-18.970435	-1.853950	1.000960	0.004788	0.260732

-18.400764	-2.002743	1.010957	0.004649	0.260573
-18.318548	-2.085263	1.020954	0.004629	0.260286
-18.727231	-2.067701	1.030950	0.004729	0.260015
-19.275600	-1.976248	1.040947	0.004863	0.259944
-19.797103	-1.831670	1.050944	0.004990	0.260125
-20.047635	-1.738717	1.060941	0.005052	0.260314
-19.614186	-1.763365	1.070938	0.004946	0.260574
-18.833886	-1.916616	1.080934	0.004755	0.260575
-18.678241	-1.948040	1.090931	0.004717	0.260571
-17.830827	-2.150926	1.100928	0.004511	0.260414
-17.968560	-2.197539	1.110925	0.004544	0.260095
-18.637185	-2.099691	1.120922	0.004708	0.259950
-19.519673	-1.914816	1.130918	0.004923	0.259999
-20.045710	-1.732748	1.140915	0.005052	0.260338
-20.528302	-1.542892	1.150912	0.005170	0.260747
-20.074208	-1.515933	1.160909	0.005059	0.261247
-18.642073	-1.729006	1.170906	0.004709	0.261541
-17.308092	-2.032959	1.180902	0.004384	0.261361
-17.179421	-2.141053	1.190899	0.004352	0.261005
-17.299713	-2.200865	1.200896	0.004382	0.260645
-17.802219	-2.141192	1.210893	0.004505	0.260476
-18.673558	-2.001648	1.220890	0.004718	0.260339
-18.647882	-1.952071	1.230886	0.004711	0.260574
-18.769212	-1.925351	1.240883	0.004741	0.260586
-18.962539	-1.817098	1.250880	0.004788	0.260888
-19.138730	-1.729906	1.260877	0.004831	0.261114
-18.965801	-1.694168	1.270874	0.004789	0.261413
-18.276524	-1.799990	1.280870	0.004621	0.261540
-17.956357	-1.863357	1.290867	0.004543	0.261538
-17.425426	-1.968195	1.300864	0.004413	0.261536
-16.974344	-2.100199	1.310861	0.004303	0.261349
-17.240109	-2.081357	1.320858	0.004368	0.261206
-17.895660	-1.952470	1.330854	0.004529	0.261205
-18.418890	-1.849973	1.340851	0.004656	0.261204
-18.218249	-1.826200	1.350848	0.004608	0.261475
-17.673346	-1.918253	1.360845	0.004475	0.261539
-17.259519	-1.998595	1.370842	0.004374	0.261543
-17.058218	-2.055305	1.380838	0.004325	0.261469
-17.482905	-2.033052	1.390835	0.004428	0.261206
-18.039822	-1.862561	1.400832	0.004564	0.261467
-18.343618	-1.769890	1.410829	0.004639	0.261609
-18.444079	-1.676662	1.420826	0.004663	0.261923
-18.082974	-1.686337	1.430822	0.004575	0.262186
-17.174365	-1.798765	1.440819	0.004353	0.262469
-16.542341	-1.985661	1.450816	0.004199	0.262200
-16.252295	-2.077629	1.460813	0.004128	0.262050
-16.032142	-2.169353	1.470810	0.004075	0.261842
-16.028498	-2.240007	1.480806	0.004074	0.261542
-17.019989	-2.045422	1.490803	0.004316	0.261540
-18.257003	-1.788170	1.500800	0.004618	0.261600
-18.300732	-1.687269	1.510797	0.004629	0.261996
-17.723733	-1.721613	1.520794	0.004488	0.262334
-17.134751	-1.805699	1.530790	0.004345	0.262469
-16.525336	-1.925756	1.540787	0.004196	0.262468
-15.853654	-2.057931	1.550784	0.004032	0.262467
-16.187054	-2.064585	1.560781	0.004114	0.262157
-17.099984	-1.877759	1.570778	0.004337	0.262189
-17.464633	-1.740157	1.580774	0.004426	0.262470
-16.926096	-1.777541	1.590771	0.004294	0.262763
-16.263137	-1.899674	1.600768	0.004132	0.262797
-15.588593	-2.064081	1.610765	0.003968	0.262661
-15.097291	-2.231741	1.620762	0.003848	0.262357
-15.720058	-2.154226	1.630758	0.004000	0.262164
-16.341153	-2.032153	1.640755	0.004152	0.262164
-17.451078	-1.795329	1.650752	0.004423	0.262243
-17.441934	-1.712282	1.660749	0.004421	0.262606
-17.516884	-1.606184	1.670746	0.004439	0.262996
-16.240033	-1.772610	1.680742	0.004127	0.263356
-15.641796	-1.896915	1.690739	0.003981	0.263327
-15.511152	-1.976878	1.700736	0.003950	0.263095
-15.449300	-1.989522	1.710733	0.003935	0.263093
-15.532666	-2.020276	1.720730	0.003955	0.262891
-15.806684	-1.940447	1.730726	0.004022	0.263002
-15.527640	-1.996226	1.740723	0.003954	0.262998
-15.267162	-2.094276	1.750720	0.003891	0.262797
-14.971758	-2.151971	1.760717	0.003819	0.262798
-15.512974	-2.108177	1.770714	0.003951	0.262531
-16.558750	-1.839922	1.780710	0.004206	0.262798
-17.785166	-1.504249	1.790707	0.004506	0.263202
-17.538369	-1.391396	1.800704	0.004446	0.263889
-15.737152	-1.655490	1.810701	0.004006	0.264271
-14.366402	-1.947812	1.820698	0.003671	0.264173
-13.368892	-2.228699	1.830694	0.003428	0.263812
-13.191007	-2.394604	1.840691	0.003384	0.263254
-14.039483	-2.327125	1.850688	0.003592	0.262830
-15.295583	-2.087213	1.860685	0.003899	0.262800
-16.401704	-1.851562	1.870682	0.004169	0.262877
-16.897257	-1.645462	1.880678	0.004290	0.263341
-16.078735	-1.705941	1.890675	0.004090	0.263768
-15.682100	-1.711558	1.900672	0.003993	0.264076
-14.855725	-1.874438	1.910669	0.003792	0.264073
-14.195307	-2.003603	1.920666	0.003630	0.264076
-14.090945	-2.065873	1.930662	0.003605	0.263898
-14.734773	-1.976037	1.940659	0.003762	0.263741
-14.654370	-1.992650	1.950656	0.003743	0.263737
-14.652195	-1.992521	1.960653	0.003742	0.263739
-14.503380	-2.021339	1.970650	0.003706	0.263741
-14.632722	-1.992127	1.980646	0.003738	0.263757
-14.474852	-1.979108	1.990643	0.003699	0.263944
-15.127972	-1.820283	2.000640	0.003859	0.264073
-15.528683	-1.704617	2.010637	0.003957	0.264230
-15.260491	-1.683252	2.020634	0.003891	0.264544
-14.676690	-1.776282	2.030630	0.003749	0.264635
-13.643980	-1.979147	2.040627	0.003497	0.264636
-12.296342	-2.288780	2.050624	0.003168	0.264445
-12.370755	-2.396807	2.060621	0.003186	0.263924
-13.714175	-2.176159	2.070618	0.003514	0.263739
-14.813405	-1.959706	2.080614	0.003783	0.263740
-15.778093	-1.689539	2.090611	0.004019	0.264083
-16.004307	-1.533137	2.100608	0.004074	0.264558
-15.303818	-1.539814	2.110605	0.003903	0.265113
-14.107834	-1.736988	2.120602	0.003611	0.265273
-13.051801	-1.944635	2.130598	0.003353	0.265272
-11.993697	-2.220954	2.140595	0.003095	0.264982
-12.022083	-2.324408	2.150592	0.003102	0.264519
-12.697968	-2.268300	2.160589	0.003267	0.264193
-13.747924	-2.089827	2.170586	0.003524	0.264074
-14.494928	-1.904269	2.180582	0.003706	0.264239
-14.685104	-1.798586	2.190579	0.003753	0.264528
-14.652652	-1.724399	2.200576	0.003745	0.264870
-14.574812	-1.655359	2.210573	0.003726	0.265227
-13.619942	-1.770843	2.220570	0.003493	0.265532
-12.911434	-1.906025	2.230566	0.003320	0.265548
-13.012314	-1.952395	2.240563	0.003344	0.265268
-12.187668	-2.115369	2.250560	0.003143	0.265264
-11.977449	-2.231062	2.260557	0.003092	0.264949
-12.566871	-2.182940	2.270554	0.003236	0.264661
-13.171355	-2.069831	2.280550	0.003384	0.264637
-13.690905	-1.923224	2.290547	0.003511	0.264825
-13.991193	-1.799237	2.300544	0.003584	0.265100
-13.426248	-1.870141	2.310541	0.003446	0.265270
-12.939722	-1.920568	2.320538	0.003327	0.265460
-13.118302	-1.860136	2.330534	0.003371	0.265567
-13.151267	-1.853523	2.340531	0.003379	0.265567
-13.026917	-1.854518	2.350528	0.003349	0.265666
-12.464942	-1.912886	2.360525	0.003212	0.265886
-12.475539	-1.975429	2.370522	0.003215	0.265612
-11.821054	-2.114572	2.380518	0.003055	0.265568
-11.523155	-2.209844	2.390515	0.002982	0.265412
-12.210381	-2.108597	2.400512	0.003150	0.265269
-12.611592	-2.030235	2.410509	0.003248	0.265266
-12.732193	-1.992414	2.420506	0.003278	0.265326
-12.817695	-1.918265	2.430502	0.003299	0.265568
-13.350727	-1.772218	2.440499	0.003429	0.265742
-13.576095	-1.641195	2.450496	0.003484	0.266108
-12.979553	-1.668783	2.460493	0.003338	0.266485
-11.953526	-1.859051	2.470490	0.003088	0.266533
-10.509667	-2.176355	2.480486	0.002736	0.266391
-10.311474	-2.312090	2.490483	0.002687	0.265983
-10.739997	-2.328666	2.500480	0.002792	0.265557
-12.050427	-2.131688	2.510477	0.003112	0.265300
-12.738810	-1.933557	2.520474	0.003280	0.265566
-13.222432	-1.757915	2.530470	0.003399	0.265906
-12.963758	-1.715935	2.540467	0.003335	0.266297
-12.125766	-1.825385	2.550464	0.003131	0.266530
-11.664494	-1.915928	2.560461	0.003018	0.266530
-11.534501	-1.941093	2.570458	0.002987	0.266531
-11.390157	-1.968850	2.580454	0.002951	0.266533
-11.442076	-1.958730	2.590451	0.002964	0.266532
-11.327485	-1.981879	2.600448	0.002936	0.266529
-11.020423	-2.041413	2.610445	0.002861	0.266532
-10.419877	-2.185447	2.620442	0.002715	0.266423
-10.755787	-2.171645	2.630438	0.002797	0.266202
-11.426039	-2.040240	2.640435	0.002961	0.266201
-12.289487	-1.822933	2.650432	0.003172	0.266401
-12.298163	-1.756377	2.660429	0.003174	0.266674
-12.246605	-1.679375	2.670426	0.003161	0.267040
-11.260446	-1.846300	2.680422	0.002921	0.267153
-10.875709	-1.892399	2.690419	0.002827	0.267276
-10.338870	-2.028317	2.700416	0.002696	0.267148
-10.071523	-2.106412	2.710413	0.002631	0.267040
-9.579637	-2.271735	2.720410	0.002511	0.266751
-10.596899	-2.123373	2.730406	0.002759	0.266534
-11.198645	-2.004885	2.740403	0.002906	0.266534
-11.774505	-1.820131	2.750400	0.003047	0.266835
-11.749793	-1.752321	2.760397	0.003041	0.267141
-11.483632	-1.729468	2.770394	0.002976	0.267456
-10.702247	-1.840398	2.780390	0.002785	0.267634
-10.135513	-1.984266	2.790387	0.002647	0.267498
-10.058219	-2.008733	2.800384	0.002628	0.267459
-9.410006	-2.159503	2.810381	0.002470	0.267360
-9.903545	-2.112426	2.820378	0.002591	0.267150
-10.436497	-2.006836	2.830374	0.002721	0.267153
-10.510926	-1.992368	2.840371	0.002739	0.267152
-11.040654	-1.831995	2.850368	0.002869	0.267388
-10.631340	-1.878734	2.860365	0.002769	0.267529
-10.626246	-1.817501	2.870362	0.002768	0.267790
-10.044061	-1.931745	2.880358	0.002626	0.267790
-9.610223	-2.017391	2.890355	0.002520	0.267788
-9.508585	-2.037998	2.900352	0.002495	0.267785
-9.838830	-2.003135	2.910349	0.002576	0.267659
-9.858971	-1.967360	2.920346	0.002581	0.267792
-9.878554	-1.963507	2.930342	0.002586	0.267792
-10.173754	-1.906100	2.940339	0.002658	0.267789
-9.674009	-2.004973	2.950336	0.002536	0.267786
-9.442882	-2.050400	2.960333	0.002480	0.267786
-9.510743	-2.035918	2.970330	0.002496	0.267790
-9.896007	-1.957993	2.980326	0.002590	0.267799
-9.556647	-1.955731	2.990323	0.002508	0.268088
-10.157469	-1.838289	3.000320	0.002654	0.268085
-9.705773	-1.883322	3.010317	0.002544	0.268267
-9.248725	-1.938658	3.020314	0.002433	0.268411
-9.358157	-1.955149	3.030310	0.002459	0.268252
-8.978035	-1.992690	3.040307	0.002367	0.268407
-9.055011	-2.040229	3.050304	0.002386	0.268144
-8.481909	-2.166332	3.060301	0.002246	0.268088
-9.210141	-2.023008	3.070298	0.002424	0.268088
-9.483707	-1.958258	3.080294	0.002491	0.268134
-9.290204	-1.930803	3.090291	0.002443	0.268408
-9.578602	-1.874473	3.100288	0.002514	0.268406
-9.518892	-1.814451	3.110285	0.002499	0.268705
-8.866462	-1.937784	3.120282	0.002340	0.268725
-8.520571	-2.005372	3.130278	0.002256	0.268727
-8.169016	-2.075424	3.140275	0.002170	0.268722
-8.536969	-2.006285	3.150272	0.002260	0.268709
-8.495366	-2.087390	3.160269	0.002250	0.268404
-8.892377	-1.945184	3.170266	0.002347	0.268672
-8.840875	-1.942377	3.180262	0.002335	0.268725
-8.699238	-1.970031	3.190259	0.002300	0.268726
-8.658271	-1.975719	3.200256	0.002290	0.268735
-8.751262	-1.879565	3.210253	0.002313	0.269060
-8.273296	-1.972777	3.220250	0.002196	0.269063
-7.893582	-2.046682	3.230246	0.002104	0.269065
-8.066338	-2.059937	3.240243	0.002146	0.268868
-8.424141	-1.946322	3.250240	0.002233	0.269048
-8.262259	-1.975050	3.260237	0.002194	0.269061
-8.425186	-1.942867	3.270234	0.002234	0.269061
-8.427903	-1.928891	3.280230	0.002235	0.269117
-8.057545	-1.958883	3.290227	0.002144	0.269295
-8.097736	-1.951375	3.300224	0.002154	0.269293
-7.908792	-1.988295	3.310221	0.002108	0.269294
-8.068257	-1.956212	3.320218	0.002147	0.269296
-7.634962	-2.041905	3.330214	0.002041	0.269294
-7.934818	-1.983164	3.340211	0.002115	0.269293
-7.677407	-1.994517	3.350208	0.002052	0.269456
-7.602004	-1.984382	3.360205	0.002034	0.269559
-7.550424	-2.043362	3.370202	0.002021	0.269356
-7.659339	-1.961709	3.380198	0.002048	0.269606
-7.823093	-1.929149	3.390195	0.002088	0.269607
-7.851705	-1.924132	3.400192	0.002095	0.269605
-7.410773	-1.995983	3.410189	0.001987	0.269666
-7.334339	-1.952711	3.420186	0.001969	0.269908
-7.006770	-2.067997	3.430182	0.001889	0.269696
-7.314438	-2.007830	3.440179	0.001964	0.269694
-7.286871	-1.976498	3.450176	0.001958	0.269847
-7.117875	-1.994456	3.460173	0.001916	0.269910
-6.832632	-2.060825	3.470170	0.001847	0.269867
-7.225769	-1.971641	3.480166	0.001943	0.269916
-7.175162	-1.980928	3.490163	0.001931	0.269918
-7.534408	-1.911914	3.500160	0.002018	0.269912
-7.209330	-1.899309	3.510157	0.001939	0.270229
-6.804761	-1.976210	3.520154	0.001840	0.270240
-6.484086	-2.039873	3.530150	0.001762	0.270236
-6.328467	-2.097460	3.540147	0.001724	0.270124
-6.659856	-2.083733	3.550144	0.001805	0.269910
-6.498112	-2.116205	3.560141	0.001766	0.269907
-6.859183	-2.022666	3.570138	0.001854	0.270000
-7.052661	-1.928036	3.580134	0.001902	0.270235
-7.086371	-1.888181	3.590131	0.001910	0.270373
-6.722595	-1.920947	3.600128	0.001821	0.270533
-6.284276	-2.006977	3.610125	0.001714	0.270533
-5.977918	-2.066377	3.620122	0.001639	0.270536
-5.753178	-2.150072	3.630118	0.001585	0.270372
-5.927391	-2.148520	3.640115	0.001627	0.270236
-6.377503	-2.061331	3.650112	0.001737	0.270230
-6.524184	-1.984222	3.660109	0.001773	0.270431
-6.903241	-1.884431	3.670106	0.001866	0.270535
-6.530993	-1.887982	3.680102	0.001775	0.270823
-6.623849	-1.856108	3.690099	0.001798	0.270880
-5.753836	-1.971308	3.700096	0.001585	0.271110
-5.756593	-2.003557	3.710093	0.001586	0.270974
-5.467146	-2.090649	3.720090	0.001516	0.270849
-5.226265	-2.137469	3.730086	0.001457	0.270850
-5.207433	-2.191213	3.740083	0.001452	0.270643
-5.852519	-2.090394	3.750080	0.001610	0.270535
-5.815819	-2.026000	3.760077	0.001601	0.270831
-6.145902	-1.956341	3.770074	0.001682	0.270851
-6.439055	-1.851182	3.780070	0.001754	0.271047
-6.321292	-1.803771	3.790067	0.001725	0.271339
-5.341067	-1.958611	3.800064	0.001486	0.271495
-4.838587	-2.070557	3.810061	0.001363	0.271440
-4.773153	-2.149924	3.820058	0.001347	0.271164
-4.879971	-2.127606	3.830054	0.001373	0.271170
-5.241789	-2.057584	3.840051	0.001462	0.271165
-5.842960	-1.939098	3.850048	0.001609	0.271166
-5.777780	-1.886824	3.860045	0.001593	0.271435
-5.997200	-1.805809	3.870042	0.001646	0.271591
-4.861914	-1.975030	3.880038	0.001369	0.271813
-4.282379	-2.133506	3.890035	0.001228	0.271629
-3.875802	-2.255012	3.900032	0.001129	0.271456
-4.301148	-2.241964	3.910029	0.001233	0.271164
-4.908357	-2.121683	3.920026	0.001381	0.271168
-5.731901	-1.937930	3.930022	0.001582	0.271259
-6.061325	-1.782300	3.940019	0.001663	0.271634
-5.793616	-1.749719	3.950016	0.001597	0.271986
-5.357906	-1.758042	3.960013	0.001491	0.272304
-4.226604	-1.949319	3.970010	0.001215	0.272431
-3.763865	-2.114059	3.980006	0.001102	0.272127
-3.408225	-2.221263	3.990003	0.001015	0.271972
-3.680272	-2.217626	4.000000	0.001082	0.271766
-4.074599	-2.205018	4.009997	0.001178	0.271498
-4.678816	-2.084039	4.019994	0.001326	0.271507
-5.066224	-1.934644	4.029990	0.001421	0.271810
-5.346532	-1.825510	4.039987	0.001489	0.272032
-5.127324	-1.790684	4.049984	0.001436	0.272353
-4.601123	-1.856163	4.059981	0.001307	0.272509
-3.857969	-1.986384	4.069978	0.001126	0.272574
-3.798789	-2.031708	4.079974	0.001112	0.272435
-3.333556	-2.123133	4.089971	0.000998	0.272434
-3.207895	-2.183227	4.099968	0.000967	0.272288
-3.825548	-2.102500	4.109965	0.001118	0.272120
-4.059372	-2.056068	4.119962	0.001176	0.272122
-3.916136	-2.011599	4.129958	0.001141	0.272421
-3.649042	-2.061217	4.139955	0.001076	0.272432
-3.929105	-2.007104	4.149952	0.001144	0.272428
-4.167207	-1.959879	4.159949	0.001202	0.272430
-4.013583	-1.918736	4.169946	0.001165	0.272723
-3.770450	-1.957513	4.179942	0.001106	0.272760
-3.694806	-1.971384	4.189939	0.001087	0.272763
-3.420232	-2.027040	4.199936	0.001020	0.272756
-3.393433	-2.032131	4.209933	0.001014	0.272757
-3.113412	-2.086279	4.219930	0.000945	0.272760
-3.148713	-2.078713	4.229926	0.000954	0.272762
-3.008124	-2.106298	4.239923	0.000920	0.272762
-3.127346	-2.083204	4.249920	0.000949	0.272760
-2.924729	-2.122956	4.259917	0.000900	0.272760
-3.316236	-2.046114	4.269914	0.000996	0.272759
-3.662823	-1.938880	4.279910	0.001080	0.272920
-3.927241	-1.836627	4.289907	0.001145	0.273127
-3.827511	-1.790591	4.299904	0.001121	0.273396
-3.106783	-1.859489	4.309901	0.000945	0.273694
-2.367798	-2.006679	4.319898	0.000764	0.273685
-2.182083	-2.117896	4.329894	0.000719	0.273378
-2.115027	-2.131438	4.339891	0.000703	0.273376
-2.451698	-2.137020	4.349888	0.000785	0.273081
-2.852955	-2.051641	4.359885	0.000883	0.273108
-3.016203	-1.953950	4.369882	0.000923	0.273377
-2.910432	-1.974185	4.379878	0.000897	0.273379
-2.833246	-1.927501	4.389875	0.000879	0.273633
-2.408112	-1.996552	4.399872	0.000775	0.273692
-2.354102	-2.006040	4.409869	0.000762	0.273696
-2.330571	-2.010284	4.419866	0.000756	0.273697
-2.182133	-2.039129	4.429862	0.000720	0.273698
-2.318286	-2.012448	4.439859	0.000753	0.273697
-2.369302	-2.003623	4.449856	0.000766	0.273692
-2.500413	-1.963594	4.459853	0.000798	0.273750
-2.056331	-1.983220	4.469850	0.000690	0.274027
-2.254808	-1.943513	4.479846	0.000738	0.274030
-2.250965	-1.944284	4.489843	0.000737	0.274029
-2.507934	-1.875571	4.499840	0.000800	0.274104
-2.139725	-1.909653	4.509837	0.000710	0.274260
-1.890500	-1.958594	4.519834	0.000650	0.274260
-1.737262	-1.987837	4.529830	0.000612	0.274263
-1.699958	-1.995936	4.539827	0.000603	0.274259
-1.658974	-2.004004	4.549824	0.000593	0.274259
-1.575183	-2.020520	4.559821	0.000573	0.274259
-2.022462	-1.926189	4.569818	0.000682	0.274285
-2.752080	-1.702613	4.579814	0.000860	0.274612
-2.617364	-1.643754	4.589811	0.000828	0.274961
-1.697503	-1.764733	4.599808	0.000603	0.275204
-1.534133	-1.797002	4.609805	0.000563	0.275203
-1.471414	-1.808334	4.619802	0.000548	0.275207
-1.328294	-1.836036	4.629798	0.000513	0.275208
-1.355615	-1.763272	4.639795	0.000520	0.275482
-1.230885	-1.782857	4.649792	0.000490	0.275502
-1.165509	-1.795947	4.659789	0.000474	0.275501
-1.064129	-1.815674	4.669786	0.000449	0.275501
-1.394669	-1.750377	4.679782	0.000530	0.275502
-1.616826	-1.662125	4.689779	0.000584	0.275684
-1.340740	-1.683350	4.699776	0.000517	0.275818
-1.222088	-1.682720	4.709773	0.000488	0.275915
-1.213352	-1.630695	4.719770	0.000486	0.276133
-1.235881	-1.625848	4.729766	0.000491	0.276134
-1.153746	-1.573947	4.739763	0.000471	0.276410
-1.051830	-1.580167	4.749760	0.000447	0.276466
-0.976900	-1.580636	4.759757	0.000428	0.276524
-0.878496	-1.537631	4.769754	0.000404	0.276776
-0.862496	-1.540179	4.779750	0.000401	0.276778
-0.781021	-1.544298	4.789747	0.000381	0.276826
-0.761186	-1.484184	4.799744	0.000376	0.277085
-0.787616	-1.479810	4.809741	0.000383	0.277081
-0.748070	-1.453009	4.819738	0.000373	0.277221
-0.749057	-1.408744	4.829734	0.000373	0.277399
-0.668913	-1.406199	4.839731	0.000354	0.277473
-0.670683	-1.343413	4.849728	0.000354	0.277725
-0.613660	-1.345894	4.859725	0.000341	0.277760
-0.567668	-1.289395	4.869722	0.000329	0.278024
-0.572145	-1.281843	4.879718	0.000331	0.278051
-0.590286	-1.204198	4.889715	0.000335	0.278349
-0.485233	-1.202881	4.899712	0.000309	0.278437
-0.611166	-1.122504	4.909709	0.000340	0.278661
-0.504048	-1.081985	4.919706	0.000314	0.278909
-0.475970	-1.055540	4.929702	0.000307	0.279037
-0.267300	-1.048596	4.939699	0.000256	0.279229
-0.355335	-0.999871	4.949696	0.000278	0.279355
-0.389964	-0.948620	4.959693	0.000287	0.279534
-0.389867	-0.873831	4.969690	0.000287	0.279833
-0.236248	-0.852128	4.979686	0.000249	0.280041
-0.300999	-0.794598	4.989683	0.000265	0.280220
-0.241121	-0.745490	4.999680	0.000250	0.280464
-0.176810	-0.688789	5.009677	0.000235	0.280741
-0.138778	-0.645970	5.019674	0.000226	0.280941
-0.245782	-0.561358	5.029670	0.000252	0.281195
-0.205323	-0.493361	5.039667	0.000242	0.281497
-0.206735	-0.423888	5.049664	0.000242	0.281773
-0.065483	-0.382539	5.059661	0.000208	0.282047
-0.057173	-0.306666	5.069658	0.000206	0.282355
0.073188	-0.258773	5.079654	0.000174	0.282647
0.226590	-0.231691	5.089651	0.000137	0.282874
0.105972	-0.149845	5.099648	0.000166	0.283104
0.107475	-0.078596	5.109645	0.000166	0.283387
-0.020202	0.033718	5.119642	0.000197	0.283732
0.000000	0.090011	5.129638	0.000192	0.283970

0.106808	0.120815	5.134643	0.000166	0.284174
0.052359	0.163124	5.139648	0.000179	0.284299
0.168824	0.197039	5.144653	0.000151	0.284523
0.204876	0.259962	5.149658	0.000142	0.284799
0.185416	0.329330	5.154662	0.000147	0.285057
0.195720	0.394821	5.159667	0.000144	0.285322
0.315554	0.445699	5.164672	0.000115	0.285615
0.411724	0.509593	5.169677	0.000092	0.285940
0.398685	0.593634	5.174682	0.000095	0.286259
0.559116	0.653380	5.179686	0.000056	0.286616
0.511882	0.749108	5.184691	0.000067	0.286955
0.456332	0.862529	5.189696	0.000081	0.287355
0.503155	0.964276	5.194701	0.000069	0.287788
0.475938	1.068101	5.199706	0.000076	0.288171
0.441749	1.212145	5.204710	0.000084	0.288705
0.729712	1.250697	5.209715	0.000014	0.289075
0.713306	1.375144	5.214720	0.000018	0.289545
0.715889	1.499348	5.219725	0.000017	0.290028
0.634050	1.648342	5.224730	0.000037	0.290541
0.721555	1.782179	5.229734	0.000016	0.291124
0.720200	1.929961	5.234739	0.000016	0.291692
0.746987	2.075021	5.239744	0.000009	0.292269
0.881431	2.209637	5.244749	-0.000023	0.292887
0.925221	2.359599	5.249754	-0.000034	0.293493
0.977008	2.510636	5.254758	-0.000047	0.294109
1.131802	2.639587	5.259763	-0.000085	0.294716
1.009331	2.835210	5.264768	-0.000055	0.295369
1.228694	2.975836	5.269773	-0.000109	0.296065
1.250448	3.150068	5.274778	-0.000114	0.296741
1.338494	3.327728	5.279782	-0.000136	0.297477
1.406866	3.502085	5.284787	-0.000152	0.298185
1.395234	3.692165	5.289792	-0.000150	0.298890
1.370791	3.895629	5.294797	-0.000144	0.299635
1.405625	4.088428	5.299802	-0.000152	0.300382
1.343401	4.330949	5.304806	-0.000137	0.301241
1.232585	4.574151	5.309811	-0.000110	0.302064
1.266903	4.803137	5.314816	-0.000119	0.302939
1.220520	5.058890	5.319821	-0.000108	0.303851
1.309817	5.277044	5.324826	-0.000130	0.304720
1.597776	5.473517	5.329830	-0.000200	0.305650
1.651173	5.718902	5.334835	-0.000213	0.306588
1.639899	5.974921	5.339840	-0.000211	0.307515
1.896138	6.191893	5.344845	-0.000273	0.308488
1.889018	6.429652	5.349850	-0.000272	0.309347
2.076513	6.661594	5.354854	-0.000318	0.310320
2.068184	6.938288	5.359859	-0.000316	0.311313
2.160171	7.194177	5.364864	-0.000338	0.312299
2.287152	7.452693	5.369869	-0.000369	0.313315
2.220657	7.731874	5.374874	-0.000353	0.314267
2.320452	8.011018	5.379878	-0.000378	0.315331
2.468374	8.278405	5.384883	-0.000414	0.316384
2.442455	8.581785	5.389888	-0.000408	0.317440
2.347439	8.916752	5.394893	-0.000385	0.318556
2.478925	9.190682	5.399898	-0.000417	0.319610
2.577199	9.493783	5.404902	-0.000441	0.320740
2.565334	9.829041	5.409907	-0.000439	0.321902
2.558458	10.165463	5.414912	-0.000437	0.323068
2.765231	10.460077	5.419917	-0.000488	0.324230
2.920122	10.761408	5.424922	-0.000526	0.325376
2.898147	11.123058	5.429926	-0.000521	0.326606
2.865008	11.485729	5.434931	-0.000513	0.327827
2.973965	11.813279	5.439936	-0.000540	0.329019
3.059272	12.158179	5.444941	-0.000561	0.330250
3.107340	12.521155	5.449946	-0.000573	0.331513
3.286964	12.868233	5.454950	-0.000617	0.332804
3.254223	13.248165	5.459955	-0.000609	0.334061
3.321412	13.618584	5.464960	-0.000626	0.335347
3.401098	14.007021	5.469965	-0.000645	0.336696
3.545131	14.376213	5.474970	-0.000681	0.338017
3.685043	14.739353	5.479974	-0.000715	0.339311
3.670119	15.154052	5.484979	-0.000712	0.340670
3.754757	15.552662	5.489984	-0.000733	0.342035
3.894723	15.952915	5.494989	-0.000767	0.343435
3.921598	16.357753	5.499994	-0.000774	0.344772
3.996997	16.783045	5.504998	-0.000792	0.346201
4.047723	17.215421	5.510003	-0.000805	0.347632
4.045685	17.652970	5.515008	-0.000805	0.349040
4.224602	18.067657	5.520013	-0.000849	0.350482
4.178933	18.537122	5.525018	-0.000838	0.351953
4.279524	18.986296	5.530022	-0.000863	0.353445
4.380275	19.422852	5.535027	-0.000888	0.354890
4.479630	19.884185	5.540032	-0.000912	0.356407
4.720718	20.323594	5.545037	-0.000971	0.357936
4.704230	20.788597	5.550042	-0.000968	0.359380
4.944466	21.238678	5.555046	-0.001027	0.360929
4.981895	21.727917	5.560051	-0.001036	0.362469
5.040624	22.205961	5.565056	-0.001051	0.363981
5.170202	22.686938	5.570061	-0.001083	0.365539
5.085541	23.218800	5.575066	-0.001062	0.367117
5.181954	23.716036	5.580070	-0.001086	0.368691
5.315105	24.212775	5.585075	-0.001119	0.370278
5.476251	24.716725	5.590080	-0.001159	0.371897
5.647793	25.217813	5.595085	-0.001201	0.373506
5.656405	25.743015	5.600090	-0.001203	0.375086
5.800883	26.271759	5.605094	-0.001239	0.376748
5.786479	26.831638	5.610099	-0.001236	0.378403
5.931335	27.348879	5.615104	-0.001271	0.380018
5.941056	27.925394	5.620109	-0.001274	0.381721
6.103236	28.469657	5.625114	-0.001314	0.383410
6.353817	28.992593	5.630118	-0.001376	0.385080
6.455601	29.563688	5.635123	-0.001401	0.386798
6.520451	30.122140	5.640128	-0.001417	0.388451
6.740535	30.666322	5.645133	-0.001471	0.390144
6.888106	31.231121	5.650138	-0.001508	0.391847
6.951409	31.814543	5.655142	-0.001524	0.393549
7.022539	32.400024	5.660147	-0.001541	0.395254
7.070393	33.011343	5.665152	-0.001553	0.397012
7.162295	33.608197	5.670157	-0.001576	0.398745
7.294742	34.204702	5.675162	-0.001609	0.400493
7.397628	34.829604	5.680166	-0.001634	0.402295
7.494111	35.436943	5.685171	-0.001658	0.404038
7.470190	36.092769	5.690176	-0.001653	0.405842
7.694006	36.715817	5.695181	-0.001708	0.407681
7.621949	37.365697	5.700186	-0.001691	0.409427
7.958595	37.981657	5.705190	-0.001773	0.411291
7.939475	38.655671	5.710195	-0.001769	0.413115
8.102290	39.293165	5.715200	-0.001809	0.414928
8.238356	39.963710	5.720205	-0.001843	0.416809
8.305847	40.632054	5.725210	-0.001860	0.418639
8.404504	41.311785	5.730214	-0.001885	0.420508
8.611283	41.984730	5.735219	-0.001935	0.422407
8.767889	42.645273	5.740224	-0.001974	0.424238
8.980890	43.326801	5.745229	-0.002027	0.426146
9.158679	43.997935	5.750234	-0.002070	0.428000
9.217770	44.694650	5.755238	-0.002085	0.429853
9.304461	45.413433	5.760243	-0.002107	0.431768
9.507099	46.090734	5.765248	-0.002157	0.433627
9.717539	46.785296	5.770253	-0.002209	0.435526
9.699046	47.528614	5.775258	-0.002205	0.437427
9.831803	48.234435	5.780262	-0.002238	0.439299
9.993071	48.973514	5.785267	-0.002278	0.441262
10.172893	49.687181	5.790272	-0.002322	0.443162
10.242952	50.435682	5.795277	-0.002340	0.445087
10.301926	51.200146	5.800282	-0.002354	0.447038
10.535026	51.909404	5.805286	-0.002412	0.448928
10.536547	52.705273	5.810291	-0.002413	0.450913
10.665214	53.466716	5.815296	-0.002445	0.452866
10.913765	54.206615	5.820301	-0.002506	0.454814
10.977289	55.001389	5.825306	-0.002522	0.456801
11.141082	55.765539	5.830310	-0.002562	0.458751
11.306716	56.549095	5.835315	-0.002603	0.460742
11.277641	57.376174	5.840320	-0.002597	0.462738
11.522928	58.151389	5.845325	-0.002657	0.464728
11.735395	58.946992	5.850330	-0.002710	0.466744
11.845117	59.740738	5.855334	-0.002737	0.468699
11.815630	60.592739	5.860339	-0.002730	0.470720
11.851210	61.438877	5.865344	-0.002740	0.472749
11.900491	62.294741	5.870349	-0.002752	0.474798
11.979353	63.160739	5.875354	-0.002772	0.476875
12.154988	63.994974	5.880358	-0.002815	0.478914
12.519542	64.822754	5.885363	-0.002905	0.481014
12.632595	65.675121	5.890368	-0.002933	0.483049
13.025138	66.490313	5.895373	-0.003030	0.485115
13.406135	67.292051	5.900378	-0.003123	0.487135
13.546432	68.117925	5.905382	-0.003158	0.489096
13.720999	68.971684	5.910387	-0.003201	0.491128
13.931544	69.804263	5.915392	-0.003253	0.493119
14.191465	70.638270	5.920397	-0.003317	0.495126
14.389696	71.479791	5.925402	-0.003366	0.497116
14.527047	72.327005	5.930406	-0.003400	0.499084
14.618951	73.208767	5.935411	-0.003423	0.501102
14.582286	74.116818	5.940416	-0.003415	0.503114
14.675795	75.016843	5.945421	-0.003439	0.505157
14.627631	75.961578	5.950426	-0.003427	0.507230
14.732488	76.864722	5.955430	-0.003454	0.509268
14.757629	77.826256	5.960435	-0.003460	0.511392
14.745657	78.772129	5.965440	-0.003458	0.513457
14.919105	79.731120	5.970445	-0.003501	0.515621
14.839668	80.723413	5.975450	-0.003482	0.517742
15.058509	81.674786	5.980454	-0.003536	0.519891
15.361755	82.626379	5.985459	-0.003611	0.522066
15.606403	83.559119	5.990464	-0.003672	0.524168
16.055824	84.480517	5.995469	-0.003782	0.526321
16.420121	85.362056	6.000474	-0.003872	0.528347
16.610899	86.309564	6.005478	-0.003919	0.530432
16.880906	87.230025	6.010483	-0.003985	0.532485
17.051400	88.166605	6.015488	-0.004028	0.534524
17.314410	89.111696	6.020493	-0.004092	0.536610
17.317035	90.064549	6.025498	-0.004094	0.538599
17.347442	91.077419	6.030502	-0.004102	0.540716
17.352241	92.084401	6.035507	-0.004104	0.542803
17.301021	93.120256	6.040512	-0.004092	0.544918
17.307964	94.172746	6.045517	-0.004094	0.547083
17.211618	95.229649	6.050522	-0.004071	0.549208
17.501490	96.269999	6.055526	-0.004143	0.551442
17.527034	97.322473	6.060531	-0.004150	0.553589
17.794409	98.365664	6.065536	-0.004216	0.555803
18.052564	99.394737	6.070541	-0.004280	0.557976
18.190762	100.452115	6.075546	-0.004314	0.560151
18.470800	101.492785	6.080550	-0.004383	0.562338
18.755211	102.522026	6.085555	-0.004453	0.564497
18.916610	103.582512	6.090560	-0.004494	0.566661
19.021525	104.639717	6.095565	-0.004520	0.568790
19.222531	105.706596	6.100570	-0.004570	0.570966
19.248127	106.795170	6.105574	-0.004577	0.573110
19.320655	107.916811	6.110579	-0.004595	0.575328
19.369306	109.029591	6.115584	-0.004608	0.577511
19.505706	110.152633	6.120589	-0.004642	0.579739
19.549773	111.298627	6.125594	-0.004653	0.581968
19.655903	112.441667	6.130598	-0.004680	0.584206
19.765738	113.611809	6.135603	-0.004708	0.586489
19.731514	114.781794	6.140608	-0.004700	0.588709
20.027712	115.941768	6.145613	-0.004773	0.591023
20.063580	117.107215	6.150618	-0.004783	0.593244
20.291493	118.294287	6.155622	-0.004839	0.595566
20.561661	119.438136	6.160627	-0.004906	0.597814
20.666095	120.628008	6.165632	-0.004932	0.600080
21.074146	121.772148	6.170637	-0.005033	0.602361
21.080201	122.976792	6.175642	-0.005035	0.604602
21.185787	124.180099	6.180646	-0.005062	0.606867
21.363242	125.370052	6.185651	-0.005106	0.609125
21.706753	126.543892	6.190656	-0.005191	0.611404
21.900757	127.726839	6.195661	-0.005239	0.613638
21.995441	128.954724	6.200666	-0.005263	0.615911
22.150169	130.151097	6.205670	-0.005301	0.618140
22.318656	131.389546	6.210675	-0.005343	0.620441
22.304604	132.635229	6.215680	-0.005341	0.622683
22.437132	133.906144	6.220685	-0.005374	0.625014
22.528443	135.157686	6.225690	-0.005397	0.627287
22.699586	136.410799	6.230694	-0.005440	0.629582
22.649198	137.733522	6.235699	-0.005428	0.631916
22.886879	138.991188	6.240704	-0.005487	0.634225
23.145194	140.275953	6.245709	-0.005551	0.636580
23.356089	141.528464	6.250714	-0.005604	0.638854
23.586616	142.826364	6.255718	-0.005661	0.641205
23.813748	144.092691	6.260723	-0.005717	0.643492
24.107665	145.366983	6.265728	-0.005790	0.645807
24.294653	146.621889	6.270733	-0.005836	0.648045
24.485282	147.914408	6.275738	-0.005884	0.650340
24.550825	149.219417	6.280742	-0.005901	0.652608
24.748858	150.536202	6.285747	-0.005950	0.654932
24.999251	151.808041	6.290752	-0.006012	0.657188
24.973356	153.173756	6.295757	-0.006006	0.659506
24.980103	154.539150	6.300762	-0.006009	0.661825
25.283936	155.855416	6.305766	-0.006084	0.664150
25.500585	157.198834	6.310771	-0.006138	0.666484
25.610106	158.535057	6.315776	-0.006166	0.668764
25.830669	159.896142	6.320781	-0.006220	0.671113
25.970782	161.225200	6.325786	-0.006256	0.673374
26.191133	162.594886	6.330790	-0.006310	0.675721
26.397248	163.923620	6.335795	-0.006362	0.677988
26.520579	165.312321	6.340800	-0.006393	0.680320
26.710312	166.668863	6.345805	-0.006440	0.682612
26.601888	168.124725	6.350810	-0.006414	0.684965
26.841139	169.484867	6.355814	-0.006474	0.687263
26.960635	170.914076	6.360819	-0.006504	0.689628
27.045152	172.328387	6.365824	-0.006526	0.691949
27.183525	173.778196	6.370829	-0.006560	0.694338
27.334987	175.210911	6.375834	-0.006598	0.696694
27.696718	176.603672	6.380838	-0.006688	0.699043
27.936704	178.033881	6.385843	-0.006747	0.701406
28.059341	179.461783	6.390848	-0.006778	0.703723
28.376930	180.879646	6.395853	-0.006857	0.706074
28.476702	182.298658	6.400858	-0.006882	0.708354
28.646104	183.755421	6.405862	-0.006924	0.710707
28.875643	185.171705	6.410867	-0.006981	0.713007
29.053286	186.633455	6.415872	-0.007026	0.715355
29.293617	188.053054	6.420877	-0.007086	0.717648
29.350968	189.546958	6.425882	-0.007101	0.719996
29.392718	191.028995	6.430886	-0.007112	0.722312
29.254621	192.606015	6.435891	-0.007079	0.724715
29.535606	194.062970	6.440896	-0.007149	0.727048
29.678617	195.597515	6.445901	-0.007185	0.729453
29.768361	197.125016	6.450906	-0.007208	0.731823
29.843515	198.682805	6.455910	-0.007227	0.734228
30.091944	200.211316	6.460915	-0.007289	0.736630
30.179488	201.776305	6.465920	-0.007311	0.739033
30.387725	203.340353	6.470925	-0.007363	0.741462
30.458596	204.916515	6.475930	-0.007382	0.743862
30.701777	206.478120	6.480934	-0.007442	0.746282
30.823708	208.065901	6.485939	-0.007473	0.748698
31.090377	209.626194	6.490944	-0.007539	0.751106
31.339085	211.182355	6.495949	-0.007601	0.753496
31.494287	212.771356	6.500954	-0.007640	0.755900
31.734182	214.327574	6.505958	-0.007700	0.758272
31.986801	215.913529	6.510963	-0.007762	0.760684
32.105735	217.491528	6.515968	-0.007793	0.763040
32.406321	219.080056	6.520973	-0.007867	0.765454
32.504118	220.644858	6.525978	-0.007892	0.767769
32.533063	222.295400	6.530982	-0.007900	0.770183
32.691778	223.903818	6.535987	-0.007940	0.772565
32.859431	225.544316	6.540992	-0.007982	0.774988
33.052577	227.151405	6.545997	-0.008030	0.777362
33.308107	228.790471	6.551002	-0.008094	0.779792
33.351470	230.432961	6.556006	-0.008106	0.782161
33.556073	232.101353	6.561011	-0.008157	0.784604
33.764690	233.701457	6.566016	-0.008209	0.786944
33.841333	235.408292	6.571021	-0.008229	0.789392
34.009334	237.053675	6.576026	-0.008271	0.791770
34.161758	238.740963	6.581030	-0.008309	0.794196
34.335037	240.415592	6.586035	-0.008353	0.796603
34.595686	242.090607	6.591040	-0.008418	0.799026
34.844347	243.757417	6.596045	-0.008479	0.801427
34.965253	245.457647	6.601050	-0.008510	0.803833
35.108736	247.143799	6.606054	-0.008546	0.806219
35.329975	248.835429	6.611059	-0.008602	0.808626
35.399019	250.551982	6.616064	-0.008620	0.811020
35.638946	252.259826	6.621069	-0.008679	0.813439
35.704311	254.000159	6.626074	-0.008697	0.815851
36.023659	255.698231	6.631078	-0.008776	0.818264
36.185422	257.442882	6.636083	-0.008816	0.820692
36.335686	259.161684	6.641088	-0.008854	0.823075
36.487181	260.921315	6.646093	-0.008893	0.825507
36.635255	262.652583	6.651098	-0.008930	0.827892
36.663187	264.450915	6.656102	-0.008938	0.830330
37.049176	266.165413	6.661107	-0.009033	0.832740
37.205347	267.921880	6.666112	-0.009073	0.835140
37.566470	269.640682	6.671117	-0.009162	0.837535
37.697738	271.413733	6.676122	-0.009195	0.839938
37.802208	273.159577	6.681126	-0.009222	0.842291
38.003463	274.965195	6.686131	-0.009273	0.844740
38.099938	276.701831	6.691136	-0.009297	0.847066
38.236916	278.538005	6.696141	-0.009332	0.849526
38.313123	280.314445	6.701146	-0.009352	0.851885
38.392937	282.175843	6.706150	-0.009373	0.854351
38.632491	283.967773	6.711155	-0.009432	0.856757
38.676630	285.835851	6.716160	-0.009444	0.859209
38.905397	287.661219	6.721165	-0.009502	0.861643
38.978135	289.554063	6.726170	-0.009521	0.864119
39.092941	291.381069	6.731174	-0.009550	0.866514
39.353662	293.264283	6.736179	-0.009615	0.869009
39.509294	295.103389	6.741184	-0.009654	0.871416
39.765242	296.996824	6.746189	-0.009718	0.873910
39.935265	298.838299	6.751194	-0.009761	0.876309
40.193211	300.712986	6.756198	-0.009825	0.878765
40.389278	302.578730	6.761203	-0.009874	0.881188
40.561859	304.465521	6.766208	-0.009918	0.883626
40.950473	306.279267	6.771213	-0.010014	0.886016
41.231469	308.131736	6.776218	-0.010084	0.888422
41.490692	309.958371	6.781222	-0.010148	0.890785
41.583412	311.848928	6.786227	-0.010172	0.893182
41.768318	313.712277	6.791232	-0.010219	0.895561
41.915054	315.596402	6.796237	-0.010256	0.897950
42.002143	317.500118	6.801242	-0.010279	0.900343
42.096332	319.423405	6.806246	-0.010303	0.902756
42.229590	321.360732	6.811251	-0.010337	0.905189
42.300351	323.287288	6.816256	-0.010355	0.907587
42.512477	325.224513	6.821261	-0.010409	0.910025
42.624928	327.169162	6.826266	-0.010437	0.912443
42.804337	329.127434	6.831270	-0.010483	0.914886
43.028848	331.062001	6.836275	-0.010539	0.917304
43.202269	333.022360	6.841280	-0.010582	0.919735
43.654864	334.917889	6.846285	-0.010694	0.922145
43.951434	336.838670	6.851290	-0.010768	0.924543
44.220418	338.704046	6.856294	-0.010835	0.926862
44.543431	340.621777	6.861299	-0.010915	0.929251
44.683348	342.507512	6.866304	-0.010951	0.931554
45.031276	344.424159	6.871309	-0.011037	0.933934
45.298750	346.273053	6.876314	-0.011104	0.936210
45.382923	348.214906	6.881318	-0.011126	0.938550
45.612926	350.116890	6.886323	-0.011183	0.940869
45.763179	352.043924	6.891328	-0.011221	0.943195
45.905693	353.962557	6.896333	-0.011257	0.945503
45.889161	355.935534	6.901338	-0.011255	0.947835
45.937543	357.913473	6.906342	-0.011268	0.950181
46.354440	359.835018	6.911347	-0.011371	0.952536
46.307934	361.835604	6.916352	-0.011361	0.954877
46.583447	363.790274	6.921357	-0.011430	0.957228
46.732361	365.794531	6.926362	-0.011467	0.959604
46.889102	367.762592	6.931366	-0.011507	0.961933
47.165328	369.757942	6.936371	-0.011576	0.964314
47.239262	371.720094	6.941376	-0.011595	0.966608
47.392622	373.762588	6.946381	-0.011634	0.969005
47.614458	375.732250	6.951386	-0.011690	0.971328
47.845734	377.758037	6.956390	-0.011747	0.973712
48.130226	379.720666	6.961395	-0.011818	0.976028
48.080877	381.780536	6.966400	-0.011808	0.978380
48.261618	383.815242	6.971405	-0.011853	0.980745
48.412715	385.877159	6.976410	-0.011892	0.983130
48.600685	387.901037	6.981414	-0.011939	0.985474
48.743671	389.982195	6.986419	-0.011975	0.987868
48.874940	392.013885	6.991424	-0.012009	0.990197
49.284748	394.044168	6.996429	-0.012110	0.992577
49.404493	396.085332	7.001434	-0.012141	0.994904
49.436478	398.158457	7.006438	-0.012150	0.997243
49.635796	400.249018	7.011443	-0.012200	0.999630
49.926628	402.278665	7.016448	-0.012273	1.001963
50.090004	404.373378	7.021453	-0.012314	1.004336
50.185817	406.427611	7.026458	-0.012339	1.006645
50.406773	408.530306	7.031462	-0.012394	1.009028
50.546821	410.612503	7.036467	-0.012430	1.011366
50.697438	412.723141	7.041472	-0.012468	1.013732
50.900576	414.809655	7.046477	-0.012519	1.016077
50.983582	416.970686	7.051482	-0.012541	1.018474
51.140979	419.068549	7.056486	-0.012581	1.020811
51.311151	421.243152	7.061491	-0.012624	1.023230
51.393114	423.343921	7.066496	-0.012645	1.025544
51.692406	425.507752	7.071501	-0.012720	1.027965
51.883288	427.621782	7.076506	-0.012768	1.030305
51.919771	429.807080	7.081510	-0.012779	1.032686
52.200320	431.953108	7.086515	-0.012849	1.035068
52.267028	434.134908	7.091520	-0.012866	1.037440
52.564792	436.287069	7.096525	-0.012941	1.039821
52.805898	438.461696	7.101530	-0.013001	1.042209
52.847647	440.635960	7.106534	-0.013013	1.044552
52.965928	442.839382	7.111539	-0.013043	1.046936
53.073691	445.051794	7.116544	-0.013071	1.049322
53.463537	447.209983	7.121549	-0.013168	1.051700
53.613670	449.417997	7.126554	-0.013206	1.054078
53.788894	451.601757	7.131558	-0.013250	1.056431
54.054169	453.814341	7.136563	-0.013317	1.058826
53.931878	456.074329	7.141568	-0.013288	1.061191
54.281606	458.310878	7.146573	-0.013375	1.063617
54.268211	460.547028	7.151578	-0.013373	1.065968
54.429022	462.828453	7.156582	-0.013414	1.068393
54.741476	465.035146	7.161587	-0.013492	1.070765
54.772079	467.334951	7.166592	-0.013501	1.073174
54.949945	469.573484	7.171597	-0.013546	1.075542
55.123022	471.890166	7.176602	-0.013590	1.077986
55.300691	474.139632	7.181606	-0.013635	1.080355
55.786532	476.393732	7.186611	-0.013755	1.082781
55.866213	478.609814	7.191616	-0.013776	1.085087
56.100705	480.896904	7.196621	-0.013835	1.087489
56.174392	483.166319	7.201626	-0.013855	1.089839
56.301191	485.480531	7.206630	-0.013887	1.092238
56.669364	487.726742	7.211635	-0.013979	1.094609
56.645646	490.038958	7.216640	-0.013975	1.096968
56.790519	492.382372	7.221645	-0.014012	1.099385
57.068157	494.679163	7.226650	-0.014081	1.101775
57.233952	496.966499	7.231654	-0.014123	1.104129
57.351907	499.302884	7.236659	-0.014153	1.106518
57.530716	501.620888	7.241664	-0.014199	1.108895
57.816539	503.917866	7.246669	-0.014270	1.111266
58.024138	506.252723	7.251674	-0.014323	1.113655
58.087304	508.575218	7.256678	-0.014340	1.116000
58.416516	510.915768	7.261683	-0.014422	1.118407
58.640618	513.212112	7.266688	-0.014478	1.120745
58.784633	515.576325	7.271693	-0.014515	1.123132
58.951841	517.868590	7.276698	-0.014557	1.125446
58.952547	520.267878	7.281702	-0.014559	1.127832
59.110588	522.628244	7.286707	-0.014599	1.130202
59.193871	525.056975	7.291712	-0.014621	1.132621
59.378721	527.425592	7.296717	-0.014668	1.134995
59.471243	529.874686	7.301722	-0.014692	1.137426
59.653451	532.266554	7.306726	-0.014738	1.139811
59.809514	534.742666	7.311731	-0.014778	1.142270
59.810820	537.174552	7.316736	-0.014780	1.144652
60.216010	539.604426	7.321741	-0.014881	1.147099
60.421947	541.996219	7.326746	-0.014933	1.149468
60.675073	544.430527	7.331750	-0.014996	1.151883
60.879456	546.836643	7.336755	-0.015048	1.154256
61.003083	549.267051	7.341760	-0.015080	1.156634
61.243750	551.707031	7.346765	-0.015140	1.159036
61.480812	554.130107	7.351770	-0.015200	1.161417
61.740719	556.518645	7.356774	-0.015265	1.163763
61.899081	558.952435	7.361779	-0.015306	1.166130
61.922790	561.407668	7.366784	-0.015313	1.168490
62.202798	563.840866	7.371789	-0.015383	1.170869
62.383523	566.306817	7.376794	-0.015429	1.173256
62.518096	568.735635	7.381798	-0.015464	1.175596
62.531916	571.278967	7.386803	-0.015469	1.178019
62.697774	573.752942	7.391808	-0.015511	1.180397
62.930894	576.261457	7.396813	-0.015570	1.182815
63.353240	578.653311	7.401818	-0.015674	1.185149
63.325387	581.198456	7.406822	-0.015669	1.187547
63.648688	583.637427	7.411827	-0.015750	1.189900
63.824262	586.137775	7.416832	-0.015795	1.192281
64.081920	588.572144	7.421837	-0.015859	1.194608
64.282514	591.074992	7.426842	-0.015910	1.196986
64.264860	593.588474	7.431846	-0.015907	1.199333
64.564031	596.114157	7.436851	-0.015982	1.201739
64.736402	598.574426	7.441856	-0.016026	1.204058
64.902291	601.099618	7.446861	-0.016068	1.206433
64.913741	603.642643	7.451866	-0.016073	1.208793
65.120493	606.185297	7.456870	-0.016125	1.211181
65.325404	608.737883	7.461875	-0.016177	1.213573
65.596355	611.232300	7.466880	-0.016245	1.215917
65.554578	613.856066	7.471885	-0.016236	1.218324
65.756203	616.430105	7.476890	-0.016288	1.220721
66.003943	618.990088	7.481894	-0.016350	1.223108
66.208919	621.554789	7.486899	-0.016402	1.225488
66.243931	624.160586	7.491904	-0.016412	1.227872
66.630396	626.684283	7.496909	-0.016508	1.230235
66.814110	629.286647	7.501914	-0.016555	1.232631
66.875762	631.829901	7.506918	-0.016572	1.234950
67.065673	634.474328	7.511923	-0.016620	1.237376
67.114603	637.074018	7.516928	-0.016634	1.239735
67.319515	639.727841	7.521933	-0.016686	1.242162
67.342481	642.319006	7.526938	-0.016693	1.244500
67.700551	644.973141	7.531942	-0.016782	1.246943
67.985764	647.542412	7.536947	-0.016854	1.249294
68.019715	650.214702	7.541952	-0.016864	1.251692
68.205192	652.842372	7.546957	-0.016911	1.254071
68.314968	655.525929	7.551962	-0.016940	1.256482
68.327751	658.203013	7.556966	-0.016945	1.258868
68.641698	660.903588	7.561971	-0.017023	1.261317
68.769456	663.558587	7.566976	-0.017056	1.263692
69.000730	666.239069	7.571981	-0.017115	1.266102
69.185689	668.911389	7.576986	-0.017162	1.268492
69.255626	671.627065	7.581990	-0.017181	1.270898
69.468424	674.337680	7.586995	-0.017234	1.273317
69.706971	677.014600	7.592000	-0.017295	1.275706
69.921352	679.728714	7.597005	-0.017349	1.278120
70.122063	682.438695	7.602010	-0.017400	1.280523
70.363434	685.110838	7.607014	-0.017461	1.282894
70.477121	687.812344	7.612019	-0.017490	1.285268
70.535378	690.569322	7.617024	-0.017506	1.287677
70.814696	693.283477	7.622029	-0.017576	1.290077
71.000348	696.023007	7.627034	-0.017624	1.292481
71.119040	698.736912	7.632038	-0.017655	1.294849
71.247334	701.542673	7.637043	-0.017688	1.297292
71.442085	704.278873	7.642048	-0.017737	1.299681
71.768288	707.030230	7.647053	-0.017819	1.302099
71.890975	709.702312	7.652058	-0.017851	1.304413
72.220597	712.438326	7.657062	-0.017933	1.306809
72.437497	715.132413	7.662067	-0.017988	1.309148
72.553626	717.917934	7.667072	-0.018018	1.311546
72.791417	720.597251	7.672077	-0.018078	1.313867
73.050506	723.355853	7.677082	-0.018144	1.316254
73.242151	726.061272	7.682086	-0.018192	1.318582
73.311431	728.857165	7.687091	-0.018211	1.320965
73.443993	731.585353	7.692096	-0.018245	1.323295
73.602185	734.366878	7.697101	-0.018286	1.325670
73.792624	737.139126	7.702106	-0.018334	1.328037
73.960300	739.918721	7.707110	-0.018377	1.330403
74.242107	742.691955	7.712115	-0.018448	1.332776
74.382631	745.461243	7.717120	-0.018484	1.335121
74.586437	748.260690	7.722125	-0.018536	1.337497
74.831533	751.032136	7.727130	-0.018598	1.339851
75.073724	753.793079	7.732134	-0.018659	1.342191
75.311681	756.520139	7.737139	-0.018719	1.344498
75.447679	759.325337	7.742144	-0.018754	1.346852
75.543993	762.086173	7.747149	-0.018780	1.349159
75.899684	764.895010	7.752154	-0.018868	1.351539
76.043665	767.601017	7.757158	-0.018905	1.353800
76.281660	770.439152	7.762163	-0.018966	1.356179
76.440306	773.174383	7.767168	-0.019006	1.358458
76.645842	775.996824	7.772173	-0.019058	1.360812
76.679102	778.774716	7.777178	-0.019068	1.363100
76.821966	781.602616	7.782182	-0.019105	1.365441
76.859080	784.454352	7.787187	-0.019116	1.367782
77.010747	787.319022	7.792192	-0.019155	1.370147
77.132901	790.190382	7.797197	-0.019187	1.372508
77.212094	793.098148	7.802202	-0.019209	1.374889
77.254981	796.024576	7.807206	-0.019221	1.377276
77.631108	798.910167	7.812211	-0.019315	1.379672
77.716852	801.840967	7.817216	-0.019338	1.382061
77.962050	804.721706	7.822221	-0.019400	1.384427
78.154809	807.647295	7.827226	-0.019449	1.386817
78.420481	810.497247	7.832230	-0.019516	1.389153
78.733300	813.409560	7.837235	-0.019594	1.391541
78.779661	816.258329	7.842240	-0.019608	1.393838
78.981716	819.214232	7.847245	-0.019659	1.396238
79.177437	822.076950	7.852250	-0.019709	1.398558
79.338783	825.032868	7.857254	-0.019750	1.400945
79.489293	827.900670	7.862259	-0.019789	1.403255
79.795598	830.827006	7.867264	-0.019866	1.405630
80.006153	833.693231	7.872269	-0.019919	1.407939
80.056225	836.670319	7.877274	-0.019934	1.410311
80.207690	839.580649	7.882278	-0.019973	1.412640
80.381626	842.546052	7.887283	-0.020017	1.415012
80.605194	845.482692	7.892288	-0.020074	1.417363
80.586273	848.478002	7.897293	-0.020071	1.419725
80.909007	851.437733	7.902298	-0.020152	1.422100
81.027930	854.380098	7.907302	-0.020183	1.424430
81.390794	857.336667	7.912307	-0.020274	1.426801
81.604661	860.255482	7.917312	-0.020328	1.429117
81.856370	863.200997	7.922317	-0.020392	1.431456
82.000166	866.132518	7.927322	-0.020429	1.433766
82.222259	869.092691	7.932326	-0.020485	1.436105
82.277822	872.069405	7.937331	-0.020501	1.438431
82.428563	875.067652	7.942336	-0.020540	1.440782
82.645199	877.983544	7.947341	-0.020595	1.443074
82.859690	880.995240	7.952346	-0.020649	1.445437
82.677721	884.023663	7.957350	-0.020607	1.447756
82.866919	887.099748	7.962355	-0.020655	1.450158
83.166422	890.102670	7.967360	-0.020730	1.452513
83.213200	893.179615	7.972365	-0.020744	1.454888
83.456135	896.226390	7.977370	-0.020805	1.457262
83.628175	899.289697	7.982374	-0.020850	1.459636
83.896235	902.338273	7.987379	-0.020917	1.462007
84.068438	905.364511	7.992384	-0.020961	1.464344
84.280988	908.418875	7.997389	-0.021015	1.466705
84.724723	911.393727	8.002394	-0.021126	1.469030
84.775254	914.432830	8.007398	-0.021140	1.471351
84.870003	917.466787	8.012403	-0.021166	1.473669
84.943683	920.571920	8.017408	-0.021186	1.476035
85.176751	923.600838	8.022413	-0.021245	1.478360
85.249556	926.762957	8.027418	-0.021265	1.480762
85.405113	929.761520	8.032422	-0.021305	1.483046
85.635019	932.920620	8.037427	-0.021363	1.485458
85.797766	935.968079	8.042432	-0.021405	1.487773
85.851134	939.140882	8.047437	-0.021420	1.490165
86.116803	942.236323	8.052442	-0.021487	1.492521
86.336331	945.361244	8.057446	-0.021543	1.494891
86.696663	948.447003	8.062451	-0.021633	1.497245
86.988444	951.508972	8.067456	-0.021707	1.499569
87.041170	954.601865	8.072461	-0.021722	1.501882
87.307537	957.663144	8.077466	-0.021789	1.504195
87.384929	960.773884	8.082470	-0.021810	1.506517
87.723837	963.839562	8.087475	-0.021895	1.508835
87.656814	967.008932	8.092480	-0.021881	1.511176
87.836679	970.110237	8.097485	-0.021927	1.513494
88.070854	973.284632	8.102490	-0.021986	1.515868
88.335749	976.352439	8.107494	-0.022053	1.518164
88.428692	979.568806	8.112499	-0.022078	1.520545
88.528888	982.634833	8.117504	-0.022105	1.522812
88.891922	985.802874	8.122509	-0.022196	1.525183
89.117178	988.887449	8.127514	-0.022253	1.527473
89.296006	992.058991	8.132518	-0.022299	1.529817
89.550730	995.143918	8.137523	-0.022363	1.532103
89.630869	998.319053	8.142528	-0.022385	1.534430
89.845280	1001.441016	8.147533	-0.022439	1.536732
90.037605	1004.622963	8.152538	-0.022489	1.539070
90.027526	1007.793110	8.157542	-0.022488	1.541373
90.370770	1010.943690	8.162547	-0.022574	1.543700
90.525766	1014.107933	8.167552	-0.022614	1.546011
90.609590	1017.263574	8.172557	-0.022637	1.548303
90.854568	1020.485542	8.177562	-0.022699	1.550660
90.928724	1023.615541	8.182566	-0.022719	1.552926
91.039794	1026.914734	8.187571	-0.022749	1.555315
91.254059	1030.062826	8.192576	-0.022803	1.557604
91.390614	1033.350414	8.197581	-0.022839	1.559980
91.751173	1036.457885	8.202586	-0.022929	1.562251
91.974209	1039.679728	8.207590	-0.022986	1.564584
92.144575	1042.857078	8.212595	-0.023030	1.566875
92.388227	1046.068148	8.217600	-0.023092	1.569195
92.459479	1049.268156	8.222605	-0.023111	1.571484
92.674845	1052.487621	8.227610	-0.023166	1.573800
92.797942	1055.720605	8.232614	-0.023198	1.576112
92.908260	1058.971293	8.237619	-0.023228	1.578431
93.019661	1062.247800	8.242624	-0.023257	1.580765
93.179636	1065.465959	8.247629	-0.023298	1.583060
93.356514	1068.780280	8.252634	-0.023344	1.585422
93.432728	1072.018121	8.257638	-0.023365	1.587714
93.675224	1075.372755	8.262643	-0.023426	1.590105
93.800783	1078.610545	8.267648	-0.023459	1.592396
94.025342	1081.960871	8.272653	-0.023517	1.594775
94.184677	1085.241933	8.277658	-0.023558	1.597094
94.226257	1088.618844	8.282662	-0.023570	1.599463
94.593014	1091.881799	8.287667	-0.023662	1.601786
94.637754	1095.225656	8.292672	-0.023675	1.604125
94.840259	1098.560139	8.297677	-0.023727	1.606473
95.183168	1101.877646	8.302682	-0.023813	1.608821
95.195043	1105.208865	8.307686	-0.023818	1.611137
95.482453	1108.545597	8.312691	-0.023891	1.613486
95.580200	1111.907143	8.317696	-0.023917	1.615826
95.835022	1115.235450	8.322701	-0.023982	1.618158
96.083726	1118.614660	8.327706	-0.024045	1.620521
96.294371	1121.878352	8.332710	-0.024099	1.622797
96.410772	1125.282523	8.337715	-0.024129	1.625155
96.548142	1128.567922	8.342720	-0.024165	1.627431
96.701567	1131.989961	8.347725	-0.024205	1.629799
96.928184	1135.284863	8.352730	-0.024263	1.632085
97.023051	1138.703349	8.357734	-0.024288	1.634438
97.229116	1142.059797	8.362739	-0.024341	1.636757
97.372129	1145.481680	8.367744	-0.024378	1.639110
97.591693	1148.792333	8.372749	-0.024434	1.641393
97.695926	1152.241128	8.377754	-0.024462	1.643753
97.884836	1155.605591	8.382758	-0.024511	1.646063
98.063808	1159.048001	8.387763	-0.024557	1.648421
98.238102	1162.444126	8.392768	-0.024602	1.650743
98.402648	1165.865835	8.397773	-0.024644	1.653079
98.711157	1169.293802	8.402778	-0.024722	1.655431
99.013378	1172.638518	8.407782	-0.024798	1.657723
99.182197	1176.056865	8.412787	-0.024842	1.660047
99.375002	1179.382949	8.417792	-0.024891	1.662308
99.671642	1182.790197	8.422797	-0.024966	1.664632
99.849396	1186.108535	8.427802	-0.025012	1.666880
99.928453	1189.550094	8.432806	-0.025033	1.669197
100.083322	1192.925211	8.437811	-0.025074	1.671474
100.066312	1196.402587	8.442816	-0.025072	1.673798
100.227643	1199.852260	8.447821	-0.025114	1.676120
100.339623	1203.359477	8.452826	-0.025144	1.678471
100.408950	1206.817091	8.457830	-0.025163	1.680781
100.631231	1210.326948	8.462835	-0.025220	1.683140
100.577496	1213.879446	8.467840	-0.025209	1.685494
100.704570	1217.441706	8.472845	-0.025242	1.687870
100.953691	1221.014417	8.477850	-0.025306	1.690263
101.155442	1224.525750	8.482854	-0.025358	1.692607
101.406725	1228.120646	8.487859	-0.025421	1.695008
101.654494	1231.619469	8.492864	-0.025484	1.697341
101.906642	1235.191291	8.497869	-0.025549	1.699721
102.338189	1238.604569	8.502874	-0.025656	1.702011
102.361726	1242.158857	8.507878	-0.025665	1.704348
102.698288	1245.579092	8.512883	-0.025749	1.706627
102.811408	1249.112996	8.517888	-0.025779	1.708953
102.873212	1252.590242	8.522893	-0.025797	1.711234
102.892116	1256.216738	8.527898	-0.025804	1.713606
102.973546	1259.766208	8.532902	-0.025826	1.715930
103.293824	1263.373284	8.537907	-0.025907	1.718313
103.226128	1266.951816	8.542912	-0.025893	1.720634
103.321909	1270.599019	8.547917	-0.025919	1.723013
103.658602	1274.215104	8.552922	-0.026004	1.725394
103.681082	1277.837878	8.557927	-0.026012	1.727743
103.911923	1281.517678	8.562931	-0.026071	1.730148
104.098642	1285.138873	8.567936	-0.026119	1.732507
104.346695	1288.794319	8.572941	-0.026182	1.734891
104.559004	1292.434391	8.577946	-0.026236	1.737258
104.667032	1296.082224	8.582951	-0.026265	1.739616
104.787865	1299.713819	8.587955	-0.026297	1.741962
104.917122	1303.428383	8.592960	-0.026331	1.744359
105.124620	1307.050898	8.597965	-0.026385	1.746701
105.323046	1310.807214	8.602970	-0.026436	1.749125
105.349067	1314.447962	8.607975	-0.026445	1.751454
105.555236	1318.233008	8.612979	-0.026498	1.753891
105.730867	1321.921856	8.617984	-0.026543	1.756260
105.984400	1325.673662	8.622989	-0.026608	1.758673
106.181055	1329.317800	8.627994	-0.026658	1.761009
106.420604	1333.051894	8.632999	-0.026719	1.763403
106.728824	1336.713572	8.638003	-0.026797	1.765755
106.782054	1340.441605	8.643008	-0.026813	1.768120
107.257924	1344.068417	8.648013	-0.026932	1.770460
107.407826	1347.758871	8.653018	-0.026971	1.772805
107.560913	1351.428257	8.658023	-0.027011	1.775133
107.811801	1355.097350	8.663027	-0.027075	1.777469
107.910353	1358.794269	8.668032	-0.027101	1.779803
108.002279	1362.455834	8.673037	-0.027126	1.782112
108.086410	1366.244195	8.678042	-0.027149	1.784496
108.245036	1369.920761	8.683047	-0.027191	1.786814
108.497754	1373.695579	8.688051	-0.027255	1.789200
108.564775	1377.390795	8.693056	-0.027274	1.791515
108.625296	1381.214263	8.698061	-0.027292	1.793907
109.016040	1384.948957	8.703066	-0.027390	1.796271
109.125513	1388.731849	8.708071	-0.027419	1.798636
109.149782	1392.467187	8.713075	-0.027428	1.800959
109.455472	1396.275034	8.718080	-0.027505	1.803352
109.754966	1399.975117	8.723085	-0.027581	1.805674
110.007463	1403.777739	8.728090	-0.027645	1.808052
110.113905	1407.473239	8.733095	-0.027674	1.810347
110.254946	1411.306999	8.738099	-0.027711	1.812727
110.416523	1415.077817	8.743104	-0.027753	1.815068
110.703767	1418.864269	8.748109	-0.027826	1.817427
110.940074	1422.587202	8.753114	-0.027886	1.819739
111.000456	1426.344755	8.758119	-0.027903	1.822052
111.153614	1430.154886	8.763123	-0.027943	1.824404
111.316125	1433.951468	8.768128	-0.027986	1.826745
111.434111	1437.769826	8.773133	-0.028017	1.829092
111.632567	1441.577390	8.778138	-0.028068	1.831438
111.756932	1445.440515	8.783143	-0.028101	1.833807
111.929791	1449.258921	8.788147	-0.028146	1.836150
112.106997	1453.158854	8.793152	-0.028192	1.838541
112.141898	1456.938869	8.798157	-0.028203	1.840842
112.263726	1460.912220	8.803162	-0.028236	1.843265
112.484628	1464.745779	8.808167	-0.028293	1.845610
112.771345	1468.686406	8.813171	-0.028365	1.848023
112.913915	1472.519607	8.818176	-0.028403	1.850354
113.200535	1476.428190	8.823181	-0.028476	1.852742
113.419184	1480.295127	8.828186	-0.028532	1.855094
113.471215	1484.213071	8.833191	-0.028547	1.857459
113.673918	1488.091680	8.838195	-0.028599	1.859812
113.809535	1492.015960	8.843200	-0.028635	1.862182
114.060716	1495.883388	8.848205	-0.028699	1.864526
114.132510	1499.822537	8.853210	-0.028720	1.866894
114.304551	1503.747766	8.858215	-0.028764	1.869259
114.385839	1507.687177	8.863219	-0.028787	1.871622
114.588029	1511.677007	8.868224	-0.028839	1.874022
114.942670	1515.575746	8.873229	-0.028929	1.876380
115.036763	1519.543572	8.878234	-0.028954	1.878751
115.277613	1523.396977	8.883239	-0.029016	1.881065
115.463766	1527.392107	8.888243	-0.029064	1.883455
115.651445	1531.277642	8.893248	-0.029113	1.885778
115.708592	1535.310941	8.898253	-0.029129	1.888173
115.904979	1539.215850	8.903258	-0.029180	1.890501
115.975394	1543.279767	8.908263	-0.029200	1.892910
116.236604	1547.234552	8.913267	-0.029267	1.895268
116.364791	1551.290522	8.918272	-0.029301	1.897671
116.377583	1555.265944	8.923277	-0.029307	1.900013
116.649478	1559.333036	8.928282	-0.029376	1.902429
116.897863	1563.279991	8.933287	-0.029439	1.904769
117.095577	1567.354298	8.938291	-0.029491	1.907177
117.277920	1571.337784	8.943296	-0.029538	1.909527
117.432103	1575.362523	8.948301	-0.029578	1.911896
117.668450	1579.412564	8.953306	-0.029639	1.914284
117.810262	1583.427652	8.958311	-0.029676	1.916640
117.989978	1587.480628	8.963315	-0.029723	1.919019
118.157525	1591.482325	8.968320	-0.029767	1.921364
118.292111	1595.538239	8.973325	-0.029803	1.923734
118.575524	1599.599233	8.978330	-0.029875	1.926118
118.600521	1603.675796	8.983335	-0.029884	1.928485
118.873019	1607.714153	8.988339	-0.029953	1.930848
119.210973	1611.790433	8.993344	-0.030038	1.933236
119.447160	1615.781974	8.998349	-0.030099	1.935564
119.458296	1619.921857	9.003354	-0.030105	1.937955
119.607806	1623.898852	9.008359	-0.030144	1.940261
119.850720	1628.049256	9.013363	-0.030206	1.942672
119.983784	1632.037971	9.018368	-0.030241	1.944977
120.298564	1636.125970	9.023373	-0.030321	1.947353
120.400810	1640.173923	9.028378	-0.030349	1.949684
120.539093	1644.256024	9.033383	-0.030386	1.952035
120.686774	1648.367907	9.038387	-0.030424	1.954401
120.868556	1652.479778	9.043392	-0.030472	1.956767
121.015040	1656.546678	9.048397	-0.030510	1.959102
121.170397	1660.679344	9.053402	-0.030551	1.961472
121.466983	1664.741889	9.058407	-0.030627	1.963811
121.610225	1668.862817	9.063411	-0.030664	1.966168
121.799093	1672.978711	9.068416	-0.030713	1.968523
121.908948	1677.077152	9.073421	-0.030743	1.970858
122.153770	1681.247660	9.078426	-0.030806	1.973243
122.290904	1685.340981	9.083431	-0.030842	1.975572
122.510880	1689.531665	9.088435	-0.030899	1.977960
122.789305	1693.550236	9.093440	-0.030970	1.980253
122.910190	1697.728509	9.098445	-0.031002	1.982621
122.978301	1701.822571	9.103450	-0.031022	1.984934
123.238871	1706.011680	9.108455	-0.031088	1.987313
123.397717	1710.104983	9.113459	-0.031130	1.989627
123.557152	1714.332371	9.118464	-0.031172	1.992014
123.692337	1718.457053	9.123469	-0.031208	1.994339
123.930895	1722.680777	9.128474	-0.031269	1.996724
124.152216	1726.772879	9.133479	-0.031326	1.999032
124.180532	1730.985180	9.138483	-0.031336	2.001389
124.387642	1735.175530	9.143488	-0.031389	2.003745
124.412265	1739.408429	9.148493	-0.031398	2.006107
124.615862	1743.677753	9.153498	-0.031451	2.008501
124.894438	1747.868056	9.158503	-0.031522	2.010854
125.019716	1752.114633	9.163507	-0.031555	2.013224
125.077479	1756.407037	9.168512	-0.031573	2.015610
125.257675	1760.687062	9.173517	-0.031620	2.017997
125.426424	1764.941727	9.178522	-0.031664	2.020366
125.662798	1769.237134	9.183527	-0.031724	2.022760
126.058457	1773.404656	9.188531	-0.031824	2.025094
126.277793	1777.664664	9.193536	-0.031881	2.027461
126.350933	1781.831825	9.198541	-0.031901	2.029763
126.791282	1786.092883	9.203546	-0.032012	2.032143
126.895589	1790.239136	9.208551	-0.032040	2.034431
127.267925	1794.469491	9.213555	-0.032134	2.036784
127.440759	1798.561921	9.218560	-0.032179	2.039042
127.873879	1802.679074	9.223565	-0.032288	2.041332
128.107750	1806.774029	9.228570	-0.032348	2.043591
128.193859	1810.878560	9.233575	-0.032372	2.045842
128.413862	1815.029058	9.238579	-0.032429	2.048125
128.661588	1819.106993	9.243584	-0.032492	2.050369
128.800032	1823.243859	9.248589	-0.032529	2.052633
129.070567	1827.346341	9.253594	-0.032598	2.054887
129.149613	1831.521637	9.258599	-0.032620	2.057163
129.218523	1835.587990	9.263603	-0.032639	2.059377
129.435912	1839.799926	9.268608	-0.032696	2.061678
129.485781	1843.933339	9.273613	-0.032711	2.063922
129.698512	1848.174723	9.278618	-0.032766	2.066234
129.802861	1852.320254	9.283623	-0.032794	2.068483
129.964458	1856.569775	9.288627	-0.032836	2.070790
130.139595	1860.794089	9.293632	-0.032882	2.073082
130.400914	1864.972929	9.298637	-0.032949	2.075354
130.524622	1869.254925	9.303642	-0.032982	2.077668
130.729850	1873.374760	9.308647	-0.033035	2.079899
130.980676	1877.636588	9.313651	-0.033099	2.082207
131.159165	1881.813341	9.318656	-0.033146	2.084461
131.416645	1886.042381	9.323661	-0.033212	2.086747
131.577288	1890.190653	9.328666	-0.033254	2.088980
131.815827	1894.438156	9.333671	-0.033315	2.091269
132.080365	1898.598431	9.338675	-0.033383	2.093511
132.220061	1902.816593	9.343680	-0.033420	2.095772
132.444389	1906.966193	9.348685	-0.033477	2.098001
132.585454	1911.159887	9.353690	-0.033515	2.100244
132.836531	1915.359088	9.358695	-0.033579	2.102496
133.093247	1919.473023	9.363699	-0.033645	2.104701
133.243877	1923.700444	9.368704	-0.033684	2.106955
133.479538	1927.756426	9.373709	-0.033745	2.109123
133.780885	1931.977331	9.378714	-0.033821	2.111381
133.833381	1936.068862	9.383719	-0.033837	2.113549
133.994137	1940.319100	9.388723	-0.033879	2.115807
134.080005	1944.479090	9.393728	-0.033903	2.118010
134.195865	1948.658801	9.398733	-0.033934	2.120222
134.384116	1952.921760	9.403738	-0.033983	2.122482
134.368897	1957.144706	9.408743	-0.033983	2.124703
134.510303	1961.492850	9.413747	-0.034020	2.126999
134.668161	1965.730436	9.418752	-0.034062	2.129236
134.783679	1970.089786	9.423757	-0.034093	2.131531
134.913992	1974.417847	9.428762	-0.034128	2.133808
135.158591	1978.768433	9.433767	-0.034191	2.136103
135.286778	1983.038088	9.438771	-0.034225	2.138345
135.466802	1987.425595	9.443776	-0.034272	2.140650
135.570360	1991.753955	9.448781	-0.034300	2.142916
136.055359	1996.067729	9.453786	-0.034422	2.145199
136.358210	2000.317575	9.458791	-0.034499	2.147433
136.507801	2004.569409	9.463795	-0.034538	2.149655
136.682662	2008.905784	9.468800	-0.034584	2.151921
136.777372	2013.142594	9.473805	-0.034610	2.154127
137.060753	2017.510826	9.478810	-0.034682	2.156412
137.108601	2021.690350	9.483815	-0.034697	2.158580
137.343040	2026.077856	9.488819	-0.034757	2.160866
137.561858	2030.351375	9.493824	-0.034814	2.163091
137.644263	2034.676534	9.498829	-0.034837	2.165330
137.738222	2039.051857	9.503834	-0.034863	2.167593
137.702822	2043.449207	9.508839	-0.034857	2.169856
137.852443	2047.897125	9.513843	-0.034897	2.172156
137.994294	2052.353312	9.518848	-0.034935	2.174457
138.230601	2056.809281	9.523853	-0.034996	2.176762
138.437302	2061.195874	9.528858	-0.035049	2.179027
138.620477	2065.660107	9.533863	-0.035097	2.181328
138.764076	2070.040254	9.538867	-0.035135	2.183580
138.892489	2074.548589	9.543872	-0.035170	2.185895
139.178124	2078.913821	9.548877	-0.035243	2.188145
139.463981	2083.395632	9.553882	-0.035315	2.190452
139.590331	2087.771589	9.558887	-0.035349	2.192692
139.788470	2092.239548	9.563891	-0.035401	2.194981
139.886838	2096.674806	9.568896	-0.035428	2.197244
139.948420	2101.081857	9.573901	-0.035446	2.199488
140.202451	2105.636298	9.578906	-0.035511	2.201818
140.343843	2110.057833	9.583911	-0.035549	2.204070
140.662684	2114.563271	9.588915	-0.035630	2.206375
140.871077	2118.944639	9.593920	-0.035684	2.208607
141.035010	2123.452033	9.598925	-0.035727	2.210897
141.369534	2127.854019	9.603930	-0.035812	2.213143
141.581685	2132.285415	9.608935	-0.035867	2.215393
141.612781	2136.699235	9.613939	-0.035878	2.217620
141.897241	2141.156714	9.618944	-0.035950	2.219884
142.021134	2145.564309	9.623949	-0.035984	2.222110
142.078025	2150.050608	9.628954	-0.036001	2.224368
142.174953	2154.582800	9.633959	-0.036027	2.226650
142.304884	2159.056412	9.638963	-0.036062	2.228902
142.462396	2163.650628	9.643968	-0.036104	2.231214
142.532577	2168.160212	9.648973	-0.036124	2.233475
142.647111	2172.851858	9.653978	-0.036156	2.235829
142.768809	2177.317694	9.658983	-0.036188	2.238067
143.076906	2181.968300	9.663987	-0.036267	2.240408
143.202829	2186.533092	9.668992	-0.036301	2.242691
143.330417	2191.167612	9.673997	-0.036335	2.245007
143.631698	2195.755369	9.679002	-0.036412	2.247309
143.823493	2200.331962	9.684007	-0.036462	2.249595
144.054511	2204.952467	9.689011	-0.036522	2.251904
144.451903	2209.486207	9.694016	-0.036622	2.254178
144.734259	2213.994472	9.699021	-0.036694	2.256430
144.898117	2218.490158	9.704026	-0.036737	2.258665
145.014693	2223.052513	9.709031	-0.036769	2.260928
145.187491	2227.484324	9.714035	-0.036814	2.263128
145.339029	2232.097413	9.719040	-0.036855	2.265414
145.405906	2236.585972	9.724045	-0.036874	2.267630
145.693925	2241.199953	9.729050	-0.036948	2.269921
145.606820	2245.767563	9.734055	-0.036930	2.272162
145.669509	2250.447158	9.739059	-0.036948	2.274466
145.780435	2255.122984	9.744064	-0.036979	2.276768
145.727945	2259.785142	9.749069	-0.036969	2.279051
145.897667	2264.603057	9.754074	-0.037014	2.281422
145.907945	2269.341861	9.759079	-0.037020	2.283742
146.255505	2274.146960	9.764083	-0.037108	2.286113
146.268614	2278.932291	9.769088	-0.037114	2.288451
146.521589	2283.754077	9.774093	-0.037180	2.290820
146.838504	2288.517537	9.779098	-0.037260	2.293161
147.096250	2293.305222	9.784103	-0.037327	2.295509
147.285214	2297.955910	9.789107	-0.037376	2.297783
147.725070	2302.700296	9.794112	-0.037487	2.300115
147.855071	2307.315042	9.799117	-0.037522	2.302364
148.144659	2312.052222	9.804122	-0.037596	2.304679
148.144386	2316.704993	9.809127	-0.037599	2.306933
148.325893	2321.458927	9.814131	-0.037647	2.309245
148.530869	2326.202725	9.819136	-0.037700	2.311551
148.634747	2330.902589	9.824141	-0.037729	2.313827
148.716135	2335.736898	9.829146	-0.037752	2.316165
148.833733	2340.438957	9.834151	-0.037784	2.318439
148.918030	2345.330279	9.839155	-0.037808	2.320799
149.006639	2350.118601	9.844160	-0.037833	2.323108
148.967856	2355.090194	9.849165	-0.037827	2.325495
149.329832	2359.932698	9.854170	-0.037919	2.327842
149.365458	2364.894854	9.859175	-0.037931	2.330224
149.675112	2369.745333	9.864179	-0.038010	2.332567
149.886974	2374.692897	9.869184	-0.038065	2.334947
150.031307	2379.521898	9.874189	-0.038104	2.337265
150.312170	2384.455458	9.879194	-0.038176	2.339639
150.431081	2389.310621	9.884199	-0.038209	2.341962
150.768580	2394.159972	9.889203	-0.038294	2.344294
151.114012	2398.986392	9.894208	-0.038382	2.346614
151.293090	2403.755394	9.899213	-0.038429	2.348893
151.521881	2408.624029	9.904218	-0.038489	2.351221
151.504593	2413.429645	9.909223	-0.038488	2.353501
151.800821	2418.273140	9.914227	-0.038563	2.355816
151.960973	2423.055279	9.919232	-0.038606	2.358092
152.082229	2427.931784	9.924237	-0.038639	2.360408
152.207502	2432.796441	9.929242	-0.038673	2.362716
152.335659	2437.733640	9.934247	-0.038708	2.365056
152.534187	2442.552803	9.939251	-0.038760	2.367343
152.558960	2447.563746	9.944256	-0.038769	2.369707
152.761077	2452.463687	9.949261	-0.038822	2.372027
153.023890	2457.466457	9.954266	-0.038890	2.374397
153.188542	2462.314843	9.959271	-0.038933	2.376686
153.430937	2467.232760	9.964275	-0.038996	2.379010
153.657890	2472.170824	9.969280	-0.039055	2.381340
153.686511	2477.073194	9.974285	-0.039065	2.383640
153.929199	2482.051755	9.979290	-0.039128	2.385985
153.991323	2486.967597	9.984295	-0.039147	2.388289
154.227758	2491.971856	9.989299	-0.039208	2.390641
154.448326	2496.918887	9.994304	-0.039265	2.392964
154.487668	2501.935086	9.999309	-0.039278	2.395306
154.725922	2506.848856	10.004314	-0.039340	2.397610
154.983318	2511.871093	10.009319	-0.039406	2.399963
155.213271	2516.752322	10.014323	-0.039466	2.402246
155.601256	2521.751931	10.019328	-0.039564	2.404591
155.710680	2526.601423	10.024333	-0.039594	2.406849
155.967751	2531.570732	10.029338	-0.039661	2.409168
156.242861	2536.453394	10.034343	-0.039731	2.411446
156.449517	2541.364694	10.039347	-0.039785	2.413731
156.561779	2546.261554	10.044352	-0.039816	2.416001
156.665931	2551.132284	10.049357	-0.039845	2.418257
156.839041	2556.114226	10.054362	-0.039891	2.420567
156.950422	2560.977456	10.059367	-0.039921	2.422815
157.106639	2566.001152	10.064371	-0.039963	2.425139
157.314492	2570.881945	10.069376	-0.040017	2.427397
157.301734	2575.946347	10.074381	-0.040018	2.429724
157.512453	2580.916394	10.079386	-0.040073	2.432019
157.615622	2586.005675	10.084391	-0.040101	2.434361
157.670216	2590.994737	10.089395	-0.040118	2.436651
157.961358	2596.091167	10.094400	-0.040193	2.439002
158.068314	2601.113870	10.099405	-0.040223	2.441306
158.403328	2606.203682	10.104410	-0.040308	2.443651
158.611593	2611.210879	10.109415	-0.040362	2.445950
158.782755	2616.210226	10.114419	-0.040408	2.448240
158.918965	2621.303488	10.119424	-0.040444	2.450570
159.121906	2626.315113	10.124429	-0.040498	2.452863
159.281103	2631.409525	10.129434	-0.040540	2.455190
159.394743	2636.347669	10.134439	-0.040571	2.457441

159.687734	2641.356956	10.139443	-0.040646	2.459732
159.784890	2646.203069	10.144448	-0.040673	2.461936
159.942519	2651.125579	10.149453	-0.040715	2.464176
159.971809	2655.955526	10.154458	-0.040726	2.466365
160.200101	2660.786783	10.159463	-0.040785	2.468564
160.218092	2665.588732	10.164467	-0.040793	2.470736
160.481703	2670.364346	10.169472	-0.040861	2.472907
160.714716	2675.040967	10.174477	-0.040921	2.475030
160.827222	2679.609227	10.179482	-0.040951	2.477096
160.853274	2684.265061	10.184487	-0.040961	2.479195
161.065935	2688.792463	10.189491	-0.041016	2.481245
161.304241	2693.382108	10.194496	-0.041078	2.483322
161.423413	2697.813574	10.199501	-0.041110	2.485320
161.535652	2702.250161	10.204506	-0.041140	2.487318
161.643572	2706.726713	10.209511	-0.041170	2.489332
161.867833	2711.034063	10.214515	-0.041228	2.491275
161.954893	2715.440455	10.219520	-0.041252	2.493254
162.155763	2719.727475	10.224525	-0.041304	2.495183
162.557310	2723.860980	10.229530	-0.041405	2.497053
162.719697	2728.003375	10.234535	-0.041448	2.498913
162.918583	2732.010723	10.239539	-0.041499	2.500713
163.073652	2736.036294	10.244544	-0.041540	2.502518
163.184413	2740.029028	10.249549	-0.041569	2.504304
163.327787	2743.887693	10.254554	-0.041607	2.506031
163.287653	2747.876001	10.259559	-0.041600	2.507806
163.568785	2751.804439	10.264563	-0.041672	2.509568
163.646648	2755.582058	10.269568	-0.041693	2.511252
163.665592	2759.432682	10.274573	-0.041701	2.512965
163.854525	2763.326322	10.279578	-0.041749	2.514704
163.921046	2766.891056	10.284583	-0.041768	2.516289
164.089295	2770.692005	10.289587	-0.041812	2.517984
164.209385	2774.438432	10.294592	-0.041844	2.519650
164.386077	2777.954499	10.299597	-0.041889	2.521217
164.480777	2781.626910	10.304602	-0.041915	2.522847
164.642243	2785.250243	10.309607	-0.041957	2.524458
164.845778	2788.631963	10.314611	-0.042009	2.525964
164.718736	2792.227397	10.319616	-0.041981	2.527546
165.009424	2795.731662	10.324621	-0.042054	2.529108
165.208001	2799.122450	10.329626	-0.042105	2.530614
165.228456	2802.486227	10.334631	-0.042112	2.532099
165.317083	2805.898354	10.339635	-0.042136	2.533607
165.618752	2809.189179	10.344640	-0.042212	2.535072
165.749903	2812.308956	10.349645	-0.042247	2.536452
165.781184	2815.602314	10.354650	-0.042256	2.537903
165.864263	2818.882756	10.359655	-0.042279	2.539350
166.072735	2821.918389	10.364659	-0.042332	2.540694
166.165458	2825.098305	10.369664	-0.042357	2.542096
166.344165	2828.157075	10.374669	-0.042403	2.543447
166.400544	2831.239665	10.379674	-0.042419	2.544803
166.468249	2834.189820	10.384679	-0.042437	2.546100
166.471590	2837.221144	10.389683	-0.042440	2.547429
166.576398	2840.285619	10.394688	-0.042468	2.548777
166.679534	2843.227838	10.399693	-0.042495	2.550070
166.816790	2846.149855	10.404698	-0.042531	2.551356
167.080268	2849.033331	10.409703	-0.042597	2.552630
167.163203	2851.867743	10.414707	-0.042619	2.553874
167.316559	2854.628391	10.419712	-0.042659	2.555088
167.317477	2857.290424	10.424717	-0.042661	2.556250
167.429181	2860.121360	10.429722	-0.042690	2.557492
167.561989	2862.852551	10.434727	-0.042724	2.558690
167.750744	2865.482424	10.439731	-0.042772	2.559847
167.824923	2868.065961	10.444736	-0.042792	2.560977
167.905034	2870.692977	10.449741	-0.042813	2.562125
168.141388	2873.267338	10.454746	-0.042873	2.563258
168.396842	2875.775104	10.459751	-0.042937	2.564363
168.386544	2878.098008	10.464755	-0.042936	2.565373
168.552644	2880.560571	10.469760	-0.042979	2.566453
168.547234	2882.943352	10.474765	-0.042979	2.567488
168.855510	2885.308654	10.479770	-0.043056	2.568532
168.900882	2887.677610	10.484775	-0.043068	2.569563
168.850011	2889.884721	10.489779	-0.043058	2.570519
168.865845	2892.225756	10.494784	-0.043063	2.571536
168.857332	2894.542755	10.499789	-0.043063	2.572542
169.026587	2896.853657	10.504794	-0.043106	2.573552
168.964221	2899.214169	10.509799	-0.043092	2.574573
169.086429	2901.287297	10.514803	-0.043123	2.575477
169.150965	2903.536619	10.519808	-0.043140	2.576455
169.111038	2905.780486	10.524813	-0.043132	2.577425
169.257649	2908.027386	10.529818	-0.043170	2.578405
169.313732	2910.241288	10.534823	-0.043185	2.579366
169.522044	2912.237650	10.539827	-0.043237	2.580240
169.588587	2914.342252	10.544832	-0.043255	2.581154
169.681061	2916.410409	10.549837	-0.043279	2.582052
170.027411	2918.431452	10.554842	-0.043365	2.582943
170.142595	2920.382562	10.559847	-0.043394	2.583791
170.211534	2922.280569	10.564851	-0.043412	2.584614
170.314779	2924.025315	10.569856	-0.043439	2.585373
170.325589	2925.926643	10.574861	-0.043443	2.586194
170.447960	2927.754286	10.579866	-0.043474	2.586988
170.365308	2929.663959	10.584871	-0.043455	2.587808
170.303730	2931.521922	10.589875	-0.043441	2.588606
170.414366	2933.416705	10.594880	-0.043470	2.589429
170.252584	2935.181187	10.599885	-0.043431	2.590181
170.338431	2937.021555	10.604890	-0.043453	2.590978
170.536934	2938.909799	10.609895	-0.043503	2.591801
170.573363	2940.672353	10.614899	-0.043513	2.592562
170.731249	2942.545632	10.619904	-0.043553	2.593376
170.750907	2944.208463	10.624909	-0.043559	2.594092
170.888491	2945.881184	10.629914	-0.043594	2.594818
171.064357	2947.447785	10.634919	-0.043638	2.595501
171.208818	2949.007404	10.639923	-0.043674	2.596178
171.247136	2950.638399	10.644928	-0.043685	2.596881
171.201716	2952.215532	10.649933	-0.043675	2.597557
171.312411	2953.900805	10.654938	-0.043703	2.598286
171.361669	2955.428700	10.659943	-0.043716	2.598944
171.380630	2956.959974	10.664947	-0.043722	2.599603
171.512514	2958.360973	10.669952	-0.043755	2.600211
171.466064	2959.845664	10.674957	-0.043744	2.600846
171.669201	2961.336996	10.679962	-0.043795	2.601495
171.571546	2962.868105	10.684967	-0.043772	2.602147
171.808460	2964.271311	10.689971	-0.043831	2.602760
171.988756	2965.694224	10.694976	-0.043876	2.603379
171.886698	2967.029166	10.699981	-0.043852	2.603946
172.205341	2968.394527	10.704986	-0.043931	2.604547
172.206589	2969.527767	10.709991	-0.043932	2.605032
172.193674	2970.856646	10.714995	-0.043930	2.605601
172.210625	2972.137693	10.720000	-0.043935	2.606150
172.355587	2973.338572	10.725005	-0.043971	2.606671
172.534229	2974.629715	10.730010	-0.044015	2.607233
172.484128	2975.831421	10.735015	-0.044004	2.607745
172.542563	2976.955398	10.740019	-0.044019	2.608228
172.479588	2978.245445	10.745024	-0.044004	2.608777
172.383079	2979.436165	10.750029	-0.043982	2.609282
172.357716	2980.595931	10.755034	-0.043976	2.609777
172.178194	2981.868493	10.760039	-0.043933	2.610313
172.246839	2983.182708	10.765043	-0.043951	2.610878
172.441401	2984.409255	10.770048	-0.043999	2.611411
172.452601	2985.580566	10.775053	-0.044003	2.611912
172.612972	2986.872398	10.780058	-0.044043	2.612472
172.745775	2987.908435	10.785063	-0.044076	2.612921
172.927524	2989.064303	10.790067	-0.044121	2.613423
173.047126	2990.025415	10.795072	-0.044151	2.613839
173.258400	2991.093288	10.800077	-0.044203	2.614305
173.396617	2991.948847	10.805082	-0.044238	2.614676
173.381713	2992.696579	10.810087	-0.044234	2.614995
173.329029	2993.570346	10.815091	-0.044222	2.615365
173.332441	2994.652853	10.820096	-0.044224	2.615827
173.235203	2995.509812	10.825101	-0.044201	2.616188
173.268180	2996.441936	10.830106	-0.044209	2.616587
173.153931	2997.553919	10.835111	-0.044182	2.617056
173.173182	2998.475774	10.840115	-0.044187	2.617450
173.100690	2999.446606	10.845120	-0.044170	2.617861
173.016627	3000.572657	10.850125	-0.044150	2.618337
173.068381	3001.536096	10.855130	-0.044164	2.618750
173.115911	3002.586240	10.860135	-0.044176	2.619200
173.352648	3003.527245	10.865139	-0.044235	2.619612
173.470609	3004.290461	10.870144	-0.044264	2.619942
173.621708	3005.096341	10.875149	-0.044301	2.620293
173.691123	3005.973196	10.880154	-0.044319	2.620669
173.732070	3006.779968	10.885159	-0.044329	2.621015
173.834363	3007.555227	10.890163	-0.044355	2.621350
173.996579	3008.314158	10.895168	-0.044395	2.621680
173.835840	3009.099230	10.900173	-0.044356	2.622007
174.055948	3009.785300	10.905178	-0.044410	2.622309
173.957626	3010.534037	10.910183	-0.044387	2.622623
173.820068	3011.304742	10.915187	-0.044354	2.622945
173.673932	3012.190212	10.920192	-0.044319	2.623315
173.728473	3012.950093	10.925197	-0.044332	2.623640
173.856098	3013.747256	10.930202	-0.044364	2.623985
173.918719	3014.509029	10.935207	-0.044380	2.624312
173.989347	3015.180824	10.940211	-0.044398	2.624601
174.185511	3015.806729	10.945216	-0.044446	2.624876
174.160347	3016.416031	10.950221	-0.044440	2.625134
174.163571	3017.088403	10.955226	-0.044441	2.625420
174.176813	3017.761962	10.960231	-0.044445	2.625707
174.280913	3018.361807	10.965235	-0.044471	2.625967
174.303548	3019.094364	10.970240	-0.044477	2.626279
174.365709	3019.677232	10.975245	-0.044492	2.626530
174.260339	3020.309228	10.980250	-0.044467	2.626794
174.344344	3020.980966	10.985255	-0.044488	2.627083
174.250032	3021.545006	10.990259	-0.044465	2.627318
174.310586	3022.186353	10.995264	-0.044481	2.627593
174.344176	3022.817835	11.000269	-0.044489	2.627863
174.324449	3023.534941	11.005274	-0.044485	2.628167
174.378764	3024.104020	11.010279	-0.044498	2.628411
174.509936	3024.593851	11.015283	-0.044531	2.628625
174.500419	3025.136503	11.020288	-0.044529	2.628855
174.425772	3025.776365	11.025293	-0.044511	2.629123
174.452092	3026.491393	11.030298	-0.044518	2.629428
174.542312	3026.927023	11.035303	-0.044540	2.629617
174.579210	3027.298951	11.040307	-0.044549	2.629776
174.544158	3027.889490	11.045312	-0.044541	2.630025
174.548968	3028.510710	11.050317	-0.044543	2.630289
174.627676	3029.012497	11.055322	-0.044562	2.630505
174.757167	3029.407264	11.060327	-0.044594	2.630679
174.670532	3030.056956	11.065331	-0.044573	2.630950
174.834528	3030.525710	11.070336	-0.044614	2.631157
174.820250	3030.768709	11.075341	-0.044610	2.631259
174.743736	3031.508358	11.080346	-0.044592	2.631569
174.915695	3031.819926	11.085351	-0.044634	2.631709
174.856222	3032.301631	11.090355	-0.044620	2.631911
175.091151	3032.792345	11.095360	-0.044678	2.632130
174.934198	3033.001552	11.100365	-0.044639	2.632211
175.057971	3033.646867	11.105370	-0.044670	2.632491
175.081568	3033.744857	11.110375	-0.044676	2.632533
174.957786	3034.419272	11.115379	-0.044646	2.632813
174.964351	3034.607502	11.120384	-0.044648	2.632893
174.885311	3035.254324	11.125389	-0.044629	2.633164
174.958555	3035.588952	11.130394	-0.044647	2.633309
175.007257	3035.973037	11.135399	-0.044659	2.633474
175.197611	3036.364658	11.140403	-0.044706	2.633649
175.412732	3036.691002	11.145408	-0.044759	2.633797
175.362396	3036.748047	11.150413	-0.044746	2.633819
175.285681	3037.426530	11.155418	-0.044728	2.634103
175.329334	3037.424408	11.160423	-0.044739	2.634104
175.298838	3037.937674	11.165427	-0.044731	2.634320
175.172399	3038.261634	11.170432	-0.044701	2.634451
175.081060	3038.488947	11.175437	-0.044679	2.634543
175.123474	3038.762607	11.180442	-0.044689	2.634661
174.958366	3039.195449	11.185447	-0.044649	2.634837
174.942277	3039.491314	11.190451	-0.044645	2.634962
174.977290	3040.100125	11.195456	-0.044654	2.635221
175.050019	3040.212816	11.200461	-0.044672	2.635272
175.159651	3040.963306	11.205466	-0.044699	2.635595
175.275786	3040.965153	11.210471	-0.044728	2.635601
175.297561	3041.457572	11.215475	-0.044733	2.635810
175.329604	3041.672394	11.220480	-0.044741	2.635903
175.473057	3041.768630	11.225485	-0.044776	2.635950
175.454325	3042.397871	11.230490	-0.044772	2.636216
175.650948	3042.383286	11.235495	-0.044820	2.636219
175.772335	3042.343644	11.240499	-0.044850	2.636207
175.820273	3042.750385	11.245504	-0.044861	2.636382
175.794479	3043.088043	11.250509	-0.044855	2.636523
175.523348	3043.144642	11.255514	-0.044789	2.636535
175.365937	3043.167568	11.260519	-0.044751	2.636537
175.434758	3043.856829	11.265523	-0.044768	2.636832
175.392387	3043.955847	11.270528	-0.044758	2.636872
175.277188	3044.169694	11.275533	-0.044729	2.636958
175.322304	3044.661325	11.280538	-0.044741	2.637168
175.262891	3044.681410	11.285543	-0.044726	2.637173
175.243860	3045.358559	11.290547	-0.044722	2.637459
175.437267	3045.413328	11.295552	-0.044769	2.637491
175.544835	3045.650025	11.300557	-0.044796	2.637596
175.460086	3046.117796	11.305562	-0.044775	2.637790
175.613162	3046.111258	11.310567	-0.044813	2.637794
175.628687	3046.094107	11.315571	-0.044816	2.637788
175.809076	3046.886062	11.320576	-0.044861	2.638131
175.799539	3046.850212	11.325581	-0.044859	2.638115
175.897411	3046.850374	11.330586	-0.044882	2.638120
175.955954	3046.856625	11.335591	-0.044897	2.638125
175.801566	3046.849321	11.340595	-0.044859	2.638115
175.927200	3047.066421	11.345600	-0.044890	2.638213
175.904032	3047.538359	11.350605	-0.044884	2.638411
175.772418	3047.574355	11.355610	-0.044852	2.638420
175.888359	3047.574416	11.360615	-0.044880	2.638426
175.890651	3047.542452	11.365619	-0.044881	2.638412
175.935655	3047.576738	11.370624	-0.044892	2.638429
175.785446	3047.842820	11.375629	-0.044855	2.638535
175.789678	3048.325882	11.380634	-0.044857	2.638739
175.852785	3048.320942	11.385639	-0.044872	2.638740
175.678308	3048.328712	11.390643	-0.044829	2.638735
175.774129	3048.354569	11.395648	-0.044853	2.638750
175.706725	3048.789660	11.400653	-0.044836	2.638931
175.816250	3049.081296	11.405658	-0.044863	2.639060
175.681155	3049.099210	11.410663	-0.044830	2.639061
175.748100	3049.065064	11.415667	-0.044847	2.639050
175.682150	3049.384129	11.420672	-0.044831	2.639182
175.851446	3049.863540	11.425677	-0.044872	2.639392
175.900325	3049.863091	11.430682	-0.044884	2.639394
175.823688	3049.874330	11.435687	-0.044865	2.639395
176.034324	3049.833550	11.440691	-0.044917	2.639388
176.167030	3049.856182	11.445696	-0.044949	2.639403
176.297421	3049.816670	11.450701	-0.044981	2.639393
176.261560	3049.832373	11.455706	-0.044972	2.639398
176.298725	3049.843893	11.460711	-0.044981	2.639404
176.299433	3049.800274	11.465715	-0.044981	2.639386
176.296816	3049.836021	11.470720	-0.044981	2.639401
176.261254	3049.817356	11.475725	-0.044972	2.639391
176.228974	3049.830826	11.480730	-0.044964	2.639395
176.132229	3049.849771	11.485735	-0.044940	2.639399
175.929684	3049.849481	11.490739	-0.044891	2.639390
176.004651	3049.872062	11.495744	-0.044909	2.639403
175.920489	3050.337126	11.500749	-0.044889	2.639595
176.015740	3050.401092	11.505754	-0.044912	2.639627
176.101649	3050.402559	11.510759	-0.044933	2.639631
176.174421	3050.376644	11.515763	-0.044951	2.639624
176.094670	3050.408155	11.520768	-0.044931	2.639633
176.016031	3050.393763	11.525773	-0.044912	2.639624
176.175740	3050.392444	11.530778	-0.044951	2.639630
176.228523	3050.395267	11.535783	-0.044964	2.639634
176.302915	3050.354408	11.540787	-0.044982	2.639620
176.225723	3050.412597	11.545792	-0.044963	2.639641
176.184402	3050.383474	11.550797	-0.044953	2.639627
176.297893	3050.374584	11.555802	-0.044981	2.639628
176.433739	3050.374729	11.560807	-0.045014	2.639634
176.330190	3050.351207	11.565811	-0.044988	2.639620
176.456561	3050.376005	11.570816	-0.045019	2.639636
176.450943	3050.358910	11.575821	-0.045018	2.639629
176.422959	3050.364164	11.580826	-0.045011	2.639629
176.419050	3050.370514	11.585831	-0.045010	2.639632
176.497385	3050.332922	11.590835	-0.045029	2.639620
176.552252	3050.147218	11.595840	-0.045042	2.639544
176.478463	3049.795958	11.600845	-0.045024	2.639392
176.365642	3049.809621	11.605850	-0.044996	2.639392
176.410546	3049.823630	11.610855	-0.045007	2.639400
176.242819	3049.809986	11.615859	-0.044966	2.639387
176.250316	3049.835043	11.620864	-0.044968	2.639398
176.250764	3049.812126	11.625869	-0.044968	2.639388
176.173937	3049.827077	11.630874	-0.044949	2.639391
176.344729	3049.817914	11.635879	-0.044991	2.639395
176.247169	3049.801504	11.640883	-0.044967	2.639383
176.505599	3049.823502	11.645888	-0.045030	2.639405
176.343257	3049.805216	11.650893	-0.044990	2.639389
176.438566	3049.807883	11.655898	-0.045013	2.639395
176.630319	3049.799782	11.660903	-0.045060	2.639400
176.464786	3049.779994	11.665907	-0.045020	2.639384
176.635062	3049.804483	11.670912	-0.045061	2.639402
176.510169	3049.788066	11.675917	-0.045031	2.639390
176.642562	3049.092683	11.680922	-0.045063	2.639102
176.688065	3048.989603	11.685927	-0.045074	2.639060
176.651956	3048.980599	11.690931	-0.045065	2.639055
176.790371	3048.990057	11.695936	-0.045098	2.639065
176.771808	3048.968824	11.700941	-0.045094	2.639055
176.701558	3048.402420	11.705946	-0.045076	2.638812
176.736862	3048.242868	11.710951	-0.045085	2.638747
176.591063	3048.227243	11.715955	-0.045049	2.638733
176.681685	3048.262890	11.720960	-0.045071	2.638753
176.569536	3048.244373	11.725965	-0.045044	2.638740
176.532071	3048.255818	11.730970	-0.045034	2.638743
176.408416	3048.280620	11.735975	-0.045004	2.638748
176.375409	3047.628709	11.740979	-0.044996	2.638470
176.446327	3047.526231	11.745984	-0.045013	2.638430
176.600024	3047.484205	11.750989	-0.045050	2.638419
176.556621	3047.491493	11.755994	-0.045040	2.638420
176.686763	3047.496665	11.760999	-0.045071	2.638429
176.751758	3047.460150	11.766003	-0.045087	2.638416
176.791854	3047.383510	11.771008	-0.045097	2.638386
176.772880	3046.774081	11.776013	-0.045092	2.638127
176.786952	3046.769264	11.781018	-0.045095	2.638125
176.919310	3046.760538	11.786023	-0.045128	2.638128
176.930865	3046.536059	11.791027	-0.045130	2.638033
176.941956	3045.989511	11.796032	-0.045132	2.637803
176.949413	3045.966220	11.801037	-0.045134	2.637793
176.733911	3045.993191	11.806042	-0.045081	2.637795
176.629232	3045.767266	11.811047	-0.045056	2.637694
176.593862	3045.255692	11.816051	-0.045047	2.637476
176.738648	3045.278083	11.821056	-0.045082	2.637492
176.674231	3045.261448	11.826061	-0.045066	2.637482
176.533131	3045.291459	11.831066	-0.045032	2.637489
176.588969	3045.294307	11.836071	-0.045045	2.637492
176.497951	3045.273164	11.841075	-0.045023	2.637479
176.662097	3044.664101	11.846080	-0.045063	2.637229
176.829477	3044.503290	11.851085	-0.045103	2.637169
176.892186	3044.504657	11.856090	-0.045119	2.637172
176.879496	3044.530395	11.861095	-0.045115	2.637182
176.907920	3043.948217	11.866099	-0.045122	2.636937
176.984535	3043.787999	11.871104	-0.045140	2.636873
176.923634	3043.770622	11.876109	-0.045126	2.636863
176.896453	3043.443841	11.881114	-0.045119	2.636723
176.980810	3043.016885	11.886119	-0.045139	2.636546
176.953210	3042.978952	11.891123	-0.045132	2.636529
176.937681	3042.923487	11.896128	-0.045128	2.636505
176.755478	3042.263172	11.901133	-0.045083	2.636217
176.852695	3042.248266	11.906138	-0.045107	2.636215
176.834553	3042.267579	11.911143	-0.045102	2.636222
176.821250	3042.208562	11.916147	-0.045099	2.636197
176.815066	3041.533000	11.921152	-0.045097	2.635911
176.704074	3041.514781	11.926157	-0.045070	2.635898
176.646016	3041.529188	11.931162	-0.045056	2.635901
176.747216	3041.531548	11.936167	-0.045080	2.635907
176.659737	3041.370681	11.941171	-0.045059	2.635835
176.735223	3040.842701	11.946176	-0.045077	2.635615
176.843925	3040.798532	11.951181	-0.045103	2.635601
176.845910	3040.789491	11.956186	-0.045104	2.635597
176.876295	3040.812036	11.961191	-0.045111	2.635608
177.098886	3040.001305	11.966195	-0.045165	2.635275
177.002272	3040.037206	11.971200	-0.045141	2.635286
176.978719	3039.987798	11.976205	-0.045135	2.635264
177.096483	3039.276588	11.981210	-0.045164	2.634968
177.182871	3039.277958	11.986215	-0.045185	2.634972
177.148696	3038.987921	11.991219	-0.045176	2.634848
177.114217	3038.561570	11.996224	-0.045167	2.634666
177.030666	3038.554043	12.001229	-0.045147	2.634659
177.006625	3038.239362	12.006234	-0.045141	2.634524
176.941197	3038.054833	12.011239	-0.045124	2.634443
176.791895	3038.035627	12.016243	-0.045088	2.634428
176.851601	3038.067516	12.021248	-0.045102	2.634444
176.787434	3037.358881	12.026253	-0.045086	2.634141
176.773276	3037.270899	12.031258	-0.045083	2.634103
176.783055	3037.287180	12.036263	-0.045085	2.634111
176.778452	3037.271120	12.041267	-0.045084	2.634104
176.904558	3036.905263	12.046272	-0.045114	2.633954
176.974712	3036.501267	12.051277	-0.045131	2.633787
177.031496	3036.501408	12.056282	-0.045145	2.633789
177.033076	3036.239689	12.061287	-0.045145	2.633678
177.020562	3035.743376	12.066291	-0.045142	2.633467
177.058830	3035.766884	12.071296	-0.045151	2.633479
177.074641	3035.403463	12.076301	-0.045155	2.633326
177.023313	3035.031491	12.081306	-0.045142	2.633166
177.114723	3035.043350	12.086311	-0.045164	2.633175
176.982734	3034.568536	12.091315	-0.045131	2.632968
177.074738	3034.278695	12.096320	-0.045154	2.632849
177.051690	3034.268691	12.101325	-0.045148	2.632844
176.902886	3033.760779	12.106330	-0.045111	2.632622
177.111244	3033.548592	12.111335	-0.045162	2.632541
176.860912	3033.544790	12.116339	-0.045101	2.632528
176.965059	3033.233058	12.121344	-0.045126	2.632401
176.882299	3032.808294	12.126349	-0.045105	2.632217
176.895953	3032.823774	12.131354	-0.045109	2.632224
177.016722	3032.818448	12.136359	-0.045138	2.632227
176.887703	3032.097200	12.141363	-0.045106	2.631916
176.941543	3032.100593	12.146368	-0.045119	2.631920
176.895315	3032.090529	12.151373	-0.045108	2.631913
176.929502	3031.682997	12.156378	-0.045116	2.631742
177.104925	3031.302520	12.161383	-0.045158	2.631589
177.126188	3031.268949	12.166387	-0.045163	2.631575
177.094785	3030.718398	12.171392	-0.045155	2.631340
177.113008	3030.541980	12.176397	-0.045159	2.631266
177.085755	3030.515510	12.181402	-0.045153	2.631254
176.910662	3029.826769	12.186407	-0.045109	2.630954
176.944000	3029.787848	12.191411	-0.045118	2.630939
177.043836	3029.813114	12.196416	-0.045142	2.630954
176.982774	3029.286518	12.201421	-0.045127	2.630728
176.959145	3029.105111	12.206426	-0.045121	2.630650
177.001083	3029.116041	12.211431	-0.045131	2.630656
176.917771	3028.668086	12.216435	-0.045110	2.630463
177.006701	3028.350867	12.221440	-0.045132	2.630332
177.140397	3028.314315	12.226445	-0.045164	2.630323
177.248364	3027.814770	12.231450	-0.045190	2.630116
177.234018	3027.591930	12.236455	-0.045186	2.630020
177.168787	3027.353649	12.241459	-0.045170	2.629916
177.206746	3026.870598	12.246464	-0.045179	2.629713
177.104944	3026.857386	12.251469	-0.045154	2.629703
177.198362	3026.390059	12.256474	-0.045177	2.629509
177.169884	3026.290182	12.261479	-0.045170	2.629465
177.119993	3026.104357	12.266483	-0.045157	2.629384
177.120157	3025.504876	12.271488	-0.045157	2.629129
177.019688	3025.506975	12.276493	-0.045132	2.629126
176.878786	3025.338041	12.281498	-0.045098	2.629047
176.777767	3024.806987	12.286503	-0.045072	2.628817
176.840390	3024.769323	12.291507	-0.045088	2.628804
176.808704	3024.798157	12.296512	-0.045080	2.628815
176.919100	3024.624035	12.301517	-0.045107	2.628746
176.878223	3024.015187	12.306522	-0.045096	2.628486
177.101197	3024.022255	12.311527	-0.045151	2.628499
177.204529	3023.805899	12.316531	-0.045176	2.628412
177.433936	3023.274758	12.321536	-0.045231	2.628197
177.493062	3023.052561	12.326541	-0.045246	2.628105
177.613362	3022.464947	12.331546	-0.045274	2.627861
177.607548	3022.067878	12.336551	-0.045273	2.627693
177.407270	3021.740475	12.341555	-0.045224	2.627544
177.451729	3021.267431	12.346560	-0.045234	2.627345
177.175598	3021.044973	12.351565	-0.045166	2.627238
176.969290	3020.854999	12.356570	-0.045116	2.627148
176.951512	3020.363440	12.361575	-0.045111	2.626938
176.690650	3020.362412	12.366579	-0.045047	2.626926
176.666306	3020.379410	12.371584	-0.045041	2.626932
176.593395	3020.393234	12.376589	-0.045023	2.626934
176.701031	3019.890295	12.381594	-0.045049	2.626726
176.815516	3019.587249	12.386599	-0.045077	2.626602
176.786585	3019.561023	12.391603	-0.045070	2.626590
176.901559	3019.584554	12.396608	-0.045098	2.626605
177.143443	3019.129532	12.401613	-0.045157	2.626423
177.364868	3018.762355	12.406618	-0.045210	2.626277
177.610836	3018.400238	12.411623	-0.045270	2.626134
177.570113	3017.999514	12.416627	-0.045260	2.625962
177.496840	3017.504655	12.421632	-0.045242	2.625749
177.472257	3017.328480	12.426637	-0.045235	2.625673
177.336423	3016.664940	12.431642	-0.045202	2.625384
177.176123	3016.589487	12.436647	-0.045162	2.625345
177.129092	3016.195453	12.441651	-0.045151	2.625175
177.084577	3015.877181	12.446656	-0.045139	2.625038
176.809215	3015.891739	12.451661	-0.045072	2.625031
176.759673	3015.888705	12.456666	-0.045060	2.625028
176.800559	3015.188132	12.461671	-0.045069	2.624732
176.761090	3015.153899	12.466675	-0.045060	2.624715
176.797620	3015.184457	12.471680	-0.045069	2.624730
177.006492	3015.138988	12.476685	-0.045120	2.624720
176.996954	3014.601101	12.481690	-0.045117	2.624491
177.104944	3014.616537	12.486695	-0.045143	2.624503
177.189488	3014.400308	12.491699	-0.045164	2.624415
177.233461	3013.819583	12.496704	-0.045174	2.624170
177.343757	3013.797321	12.501709	-0.045201	2.624165
177.328397	3013.056841	12.506714	-0.045196	2.623850
177.269052	3013.067361	12.511719	-0.045182	2.623851
177.242965	3012.439337	12.516723	-0.045175	2.623583
177.145180	3012.321195	12.521728	-0.045151	2.623528
177.046368	3012.227022	12.526733	-0.045127	2.623484
177.059684	3011.601771	12.531738	-0.045130	2.623218
177.041536	3011.629822	12.536743	-0.045125	2.623229
176.904326	3011.537277	12.541747	-0.045091	2.623184
176.952078	3010.865055	12.546752	-0.045103	2.622900
177.037010	3010.845552	12.551757	-0.045123	2.622895
177.024050	3010.833411	12.556762	-0.045120	2.622890
177.094596	3010.115489	12.561767	-0.045137	2.622587
177.243563	3010.073233	12.566771	-0.045173	2.622576
177.336720	3009.716442	12.571776	-0.045195	2.622429
177.404876	3009.347355	12.576781	-0.045212	2.622275
177.406286	3008.944848	12.581786	-0.045212	2.622104
177.387288	3008.632615	12.586791	-0.045207	2.621970
177.307701	3008.229083	12.591795	-0.045187	2.621794
177.280117	3007.848515	12.596800	-0.045180	2.621631
177.154338	3007.779740	12.601805	-0.045149	2.621596
177.049371	3007.116132	12.606810	-0.045123	2.621309
176.914481	3007.173397	12.611815	-0.045090	2.621327
176.958128	3007.118426	12.616819	-0.045101	2.621305
176.928288	3006.421041	12.621824	-0.045093	2.621007
176.642433	3006.439409	12.626829	-0.045023	2.621002
176.668181	3006.422324	12.631834	-0.045029	2.620996
176.801377	3006.441182	12.636839	-0.045062	2.621010
176.891018	3005.968397	12.641843	-0.045083	2.620813
177.141694	3005.696925	12.646848	-0.045144	2.620709
177.194227	3005.675453	12.651853	-0.045157	2.620702
177.251343	3004.996597	12.656858	-0.045170	2.620415
177.190709	3004.921495	12.661863	-0.045156	2.620381
177.169034	3004.623693	12.666867	-0.045150	2.620253
177.394709	3004.174670	12.671872	-0.045205	2.620072
177.451161	3003.924448	12.676877	-0.045218	2.619968
177.312029	3003.434294	12.681882	-0.045184	2.619753
177.342675	3003.338992	12.686887	-0.045191	2.619714
177.276858	3002.889255	12.691891	-0.045175	2.619519
177.154684	3002.919836	12.696896	-0.045145	2.619526
176.939753	3002.316412	12.701901	-0.045092	2.619259
176.931098	3002.148480	12.706906	-0.045090	2.619187
176.907630	3002.180008	12.711911	-0.045084	2.619200
176.867841	3001.946238	12.716915	-0.045074	2.619098
176.905801	3001.414949	12.721920	-0.045083	2.618873
176.973122	3001.409450	12.726925	-0.045099	2.618874
176.881054	3001.399379	12.731930	-0.045077	2.618866
177.046405	3000.808802	12.736935	-0.045117	2.618622
177.143076	3000.624278	12.741939	-0.045140	2.618548
177.085373	3000.557347	12.746944	-0.045126	2.618516
177.077398	2999.955377	12.751949	-0.045123	2.618259
177.012251	2999.935781	12.756954	-0.045107	2.618248
177.196664	2999.677237	12.761959	-0.045152	2.618146
177.095680	2999.161681	12.766963	-0.045127	2.617922
177.192708	2999.170509	12.771968	-0.045151	2.617930
177.093791	2998.616692	12.776973	-0.045126	2.617689
177.156522	2998.431906	12.781978	-0.045141	2.617614
177.138848	2998.317425	12.786983	-0.045137	2.617564
176.979414	2997.716121	12.791987	-0.045098	2.617300
177.074734	2997.721832	12.796992	-0.045121	2.617307
177.128744	2997.576830	12.801997	-0.045134	2.617248
177.169598	2996.970179	12.807002	-0.045143	2.616991
177.202308	2996.989321	12.812007	-0.045151	2.617001
177.038243	2996.401840	12.817011	-0.045111	2.616742
177.031732	2996.224320	12.822016	-0.045109	2.616666
177.061181	2996.225148	12.827021	-0.045116	2.616668
177.176566	2995.563267	12.832026	-0.045144	2.616391
177.176588	2995.487895	12.837031	-0.045144	2.616359
177.099468	2995.224804	12.842035	-0.045125	2.616243
177.116697	2994.751237	12.847040	-0.045128	2.616042
177.036432	2994.753454	12.852045	-0.045109	2.616039
176.917144	2994.422196	12.857050	-0.045079	2.615892
176.973506	2994.072107	12.862055	-0.045093	2.615746
176.852404	2994.049523	12.867059	-0.045063	2.615730
176.864848	2994.075991	12.872064	-0.045066	2.615742
177.056376	2993.381491	12.877069	-0.045112	2.615455
176.994338	2993.281110	12.882074	-0.045097	2.615409
176.960879	2993.301623	12.887079	-0.045089	2.615416
177.042386	2992.693502	12.892083	-0.045108	2.615160
177.096243	2992.566914	12.897088	-0.045121	2.615109
177.138715	2992.538510	12.902093	-0.045132	2.615099
177.169781	2991.809427	12.907098	-0.045139	2.614789
177.235189	2991.830451	12.912103	-0.045155	2.614801
177.146697	2991.516474	12.917107	-0.045133	2.614663
177.139137	2991.315440	12.922112	-0.045131	2.614577
177.173549	2991.312425	12.927117	-0.045139	2.614577
177.034710	2990.535174	12.932122	-0.045105	2.614239
177.093392	2990.555464	12.937127	-0.045119	2.614250
176.998680	2990.458715	12.942131	-0.045096	2.614205
177.087859	2989.793717	12.947136	-0.045117	2.613925
177.174646	2989.795567	12.952141	-0.045138	2.613930
177.024561	2989.447137	12.957146	-0.045101	2.613774
177.063355	2989.068898	12.962151	-0.045110	2.613614
176.832871	2989.064561	12.967155	-0.045054	2.613602
177.014183	2988.904698	12.972160	-0.045098	2.613542
177.100233	2988.348041	12.977165	-0.045119	2.613308
177.029312	2988.336461	12.982170	-0.045101	2.613300
177.038435	2988.124567	12.987175	-0.045103	2.613210
177.073386	2987.563709	12.992179	-0.045111	2.612972
177.006608	2987.597001	12.997184	-0.045095	2.612983
177.132675	2987.292637	13.002189	-0.045125	2.612859
177.031861	2986.835542	13.007194	-0.045100	2.612659
177.056637	2986.864277	13.012199	-0.045107	2.612672
177.005181	2986.474527	13.017203	-0.045094	2.612503
176.843242	2986.145152	13.022208	-0.045054	2.612355
176.781293	2986.158544	13.027213	-0.045039	2.612358
176.930535	2986.117720	13.032218	-0.045075	2.612347
176.912515	2985.564682	13.037223	-0.045070	2.612110
176.917873	2985.397871	13.042227	-0.045071	2.612039
177.132359	2985.399216	13.047232	-0.045124	2.612050
177.149469	2984.897917	13.052237	-0.045127	2.611836
177.049478	2984.604219	13.057242	-0.045103	2.611706
177.073574	2984.633381	13.062247	-0.045109	2.611720
177.045504	2983.945325	13.067251	-0.045101	2.611425
177.158528	2983.877425	13.072256	-0.045129	2.611401
177.188725	2983.668483	13.077261	-0.045136	2.611313
176.942353	2983.138894	13.082266	-0.045075	2.611075
176.920264	2983.183708	13.087271	-0.045070	2.611093
176.901902	2983.155065	13.092275	-0.045065	2.611080
176.870688	2982.532168	13.097280	-0.045057	2.610812
176.832138	2982.483833	13.102285	-0.045048	2.610790
176.890881	2982.448558	13.107290	-0.045062	2.610777
176.974667	2982.238896	13.112295	-0.045082	2.610692
176.944760	2981.681674	13.117299	-0.045074	2.610452
176.911674	2981.704682	13.122304	-0.045066	2.610460
176.763366	2981.720984	13.127309	-0.045030	2.610460
176.681533	2981.424371	13.132314	-0.045010	2.610330
176.819267	2981.007644	13.137319	-0.045043	2.610158
176.831459	2980.976389	13.142323	-0.045046	2.610145
176.913090	2980.986433	13.147328	-0.045066	2.610153
176.908725	2980.675143	13.152333	-0.045065	2.610020
176.967256	2980.237951	13.157338	-0.045079	2.609836
177.128525	2980.256405	13.162343	-0.045118	2.609851
177.068201	2979.984879	13.167347	-0.045103	2.609732
177.027645	2979.664472	13.172352	-0.045093	2.609593
177.135585	2979.662494	13.177357	-0.045119	2.609598
177.089604	2979.120048	13.182362	-0.045107	2.609364
177.014404	2978.904227	13.187367	-0.045089	2.609268
177.007540	2978.869236	13.192371	-0.045087	2.609252
177.116228	2978.313520	13.197376	-0.045113	2.609020
176.981338	2978.164504	13.202381	-0.045080	2.608950
177.048105	2978.122886	13.207386	-0.045096	2.608935
177.166029	2977.549434	13.212391	-0.045125	2.608695
177.151736	2977.377335	13.217395	-0.045121	2.608621
176.959400	2977.333545	13.222400	-0.045074	2.608593
176.871495	2976.720764	13.227405	-0.045052	2.608327
176.856996	2976.702678	13.232410	-0.045048	2.608318
176.880264	2976.734804	13.237415	-0.045054	2.608333
176.834740	2976.427162	13.242419	-0.045043	2.608200
176.779786	2975.962978	13.247424	-0.045029	2.607998
176.731619	2975.981428	13.252429	-0.045017	2.608004
176.853440	2975.936684	13.257434	-0.045047	2.607990
176.745964	2975.890155	13.262439	-0.045020	2.607966
176.796630	2975.225454	13.267443	-0.045032	2.607683
176.871278	2975.227116	13.272448	-0.045050	2.607688
177.024407	2975.215771	13.277453	-0.045088	2.607690
177.164694	2974.779446	13.282458	-0.045122	2.607510
177.180777	2974.494305	13.287463	-0.045125	2.607389
177.077225	2974.471797	13.292467	-0.045100	2.607374
177.204191	2973.768211	13.297472	-0.045130	2.607079
177.164961	2973.754680	13.302477	-0.045121	2.607071
177.116349	2973.375694	13.307482	-0.045109	2.606907
177.273525	2972.967163	13.312487	-0.045147	2.606739
177.130374	2972.961058	13.317491	-0.045112	2.606730
177.036406	2972.270282	13.322496	-0.045088	2.606430
176.953300	2972.260856	13.327501	-0.045068	2.606422
176.893856	2972.243722	13.332506	-0.045053	2.606412
176.931805	2971.812659	13.337511	-0.045062	2.606229
176.915484	2971.513727	13.342515	-0.045058	2.606100
176.885630	2971.530523	13.347520	-0.045051	2.606106
176.973862	2971.364448	13.352525	-0.045072	2.606039
176.863991	2970.808291	13.357530	-0.045045	2.605795
176.931631	2970.837317	13.362535	-0.045061	2.605811
176.878224	2970.817704	13.367539	-0.045048	2.605800
176.916403	2970.300335	13.372544	-0.045057	2.605580
176.839409	2970.083601	13.377549	-0.045038	2.605484
176.936473	2970.052526	13.382554	-0.045062	2.605475
176.962761	2969.986604	13.387559	-0.045068	2.605448
176.961760	2969.341336	13.392563	-0.045067	2.605172
176.907911	2969.363687	13.397568	-0.045054	2.605179
176.956351	2969.356553	13.402573	-0.045066	2.605178
176.902912	2968.810407	13.407578	-0.045052	2.604941
177.025345	2968.630426	13.412583	-0.045082	2.604870
176.983895	2968.604407	13.417587	-0.045072	2.604857
176.984649	2968.297195	13.422592	-0.045072	2.604725
176.899520	2968.076699	13.427597	-0.045051	2.604627
176.914532	2968.064501	13.432602	-0.045054	2.604622
176.938363	2967.964623	13.437607	-0.045060	2.604581
177.046869	2967.272168	13.442611	-0.045086	2.604289
176.998364	2967.289921	13.447616	-0.045074	2.604294
177.014717	2967.214556	13.452621	-0.045078	2.604263
176.942568	2966.531892	13.457626	-0.045060	2.603967
176.890953	2966.575848	13.462631	-0.045047	2.603983
176.785382	2966.560916	13.467635	-0.045021	2.603972
176.928776	2966.202759	13.472640	-0.045056	2.603825
176.936200	2965.819181	13.477645	-0.045058	2.603661
176.808523	2965.805963	13.482650	-0.045026	2.603649
176.971289	2965.824463	13.487655	-0.045066	2.603665
176.874628	2965.167242	13.492659	-0.045042	2.603379
176.813810	2965.128086	13.497664	-0.045027	2.603359
177.077850	2965.108830	13.502669	-0.045091	2.603363
176.978337	2964.657364	13.507674	-0.045067	2.603165
177.117355	2964.348578	13.512679	-0.045100	2.603039
176.935953	2964.334742	13.517683	-0.045056	2.603025
176.960565	2963.924264	13.522688	-0.045062	2.602850
176.975490	2963.625556	13.527693	-0.045065	2.602722
176.764399	2963.625560	13.532698	-0.045014	2.602712
177.013486	2963.550781	13.537703	-0.045074	2.602692
177.067012	2962.870331	13.542707	-0.045087	2.602403
176.928240	2962.889666	13.547712	-0.045053	2.602405
176.980711	2962.903557	13.552717	-0.045066	2.602413
176.913200	2962.204868	13.557722	-0.045049	2.602110
177.040149	2962.182147	13.562727	-0.045080	2.602106
176.907907	2962.173102	13.567731	-0.045047	2.602096
176.873708	2961.698288	13.572736	-0.045038	2.601891
177.044868	2961.397369	13.577741	-0.045080	2.601770
177.023155	2961.388142	13.582746	-0.045075	2.601765
176.978245	2961.054310	13.587751	-0.045063	2.601620
176.895560	2960.644976	13.592755	-0.045043	2.601440
176.956485	2960.663018	13.597760	-0.045058	2.601451
176.956043	2960.561566	13.602765	-0.045057	2.601407
177.047210	2959.913310	13.607770	-0.045079	2.601133
177.026348	2959.948018	13.612775	-0.045074	2.601147
176.967848	2959.846074	13.617779	-0.045060	2.601101
177.093073	2959.226509	13.622784	-0.045090	2.600841
177.091932	2959.235389	13.627789	-0.045089	2.600845
176.900094	2959.116168	13.632794	-0.045042	2.600784
176.937953	2958.488864	13.637799	-0.045051	2.600517
177.083246	2958.446650	13.642803	-0.045087	2.600506
176.959893	2958.436288	13.647808	-0.045056	2.600495
177.049369	2957.765523	13.652813	-0.045078	2.600212
176.856742	2957.759909	13.657818	-0.045031	2.600200
176.879821	2957.781751	13.662823	-0.045036	2.600211
176.842939	2957.309767	13.667827	-0.045027	2.600006
176.769059	2957.044832	13.672832	-0.045009	2.599889
176.787404	2957.060647	13.677837	-0.045013	2.599897
176.905498	2957.020711	13.682842	-0.045042	2.599885
176.865768	2956.718196	13.687847	-0.045032	2.599754
176.840314	2956.498119	13.692851	-0.045025	2.599658
176.946242	2956.487891	13.697856	-0.045051	2.599658
176.965390	2956.461070	13.702861	-0.045056	2.599648
177.037299	2955.685925	13.707866	-0.045073	2.599318
177.196650	2955.704695	13.712871	-0.045112	2.599334
177.093821	2955.474298	13.717875	-0.045086	2.599230
177.029892	2954.958950	13.722880	-0.045070	2.599006
177.083267	2954.963978	13.727885	-0.045083	2.599011
176.980081	2954.587880	13.732890	-0.045058	2.598844
176.908345	2954.244682	13.737895	-0.045040	2.598693
176.954428	2954.223979	13.742899	-0.045051	2.598687
176.933816	2954.131044	13.747904	-0.045046	2.598646
176.958993	2953.539815	13.752909	-0.045052	2.598393
176.790778	2953.515551	13.757914	-0.045011	2.598375
176.862980	2953.548296	13.762919	-0.045028	2.598392
176.784412	2953.337120	13.767923	-0.045009	2.598298
176.789340	2952.781645	13.772928	-0.045010	2.598059
176.756724	2952.800538	13.777933	-0.045002	2.598066
176.733269	2952.772628	13.782938	-0.044996	2.598053
176.893979	2952.749424	13.787943	-0.045035	2.598050
176.915031	2952.038509	13.792947	-0.045040	2.597746
176.743518	2952.056779	13.797952	-0.044998	2.597746
176.791283	2952.068596	13.802957	-0.045009	2.597753
176.861999	2952.015011	13.807962	-0.045026	2.597733
176.850964	2951.332076	13.812967	-0.045023	2.597440
176.920960	2951.306551	13.817971	-0.045040	2.597432
176.988983	2951.300137	13.822976	-0.045057	2.597432
177.158339	2950.863609	13.827981	-0.045098	2.597253
176.949791	2950.579004	13.832986	-0.045047	2.597121
176.997969	2950.599851	13.837991	-0.045058	2.597132
176.994243	2950.136755	13.842995	-0.045057	2.596933
176.964746	2949.817118	13.848000	-0.045050	2.596794
176.984205	2949.834238	13.853005	-0.045054	2.596802
177.018817	2949.431609	13.858010	-0.045062	2.596631
177.057331	2949.087773	13.863015	-0.045072	2.596485
176.943637	2949.085855	13.868019	-0.045044	2.596479
176.874213	2948.819725	13.873024	-0.045026	2.596361
176.892223	2948.379419	13.878029	-0.045031	2.596172
176.832915	2948.349694	13.883034	-0.045016	2.596157
176.968388	2948.368488	13.888039	-0.045049	2.596171
177.021691	2947.875283	13.893043	-0.045062	2.595962
176.990877	2947.658309	13.898048	-0.045054	2.595867
176.935397	2947.685536	13.903053	-0.045040	2.595876
176.877487	2947.263160	13.908058	-0.045026	2.595692
176.814211	2946.928907	13.913063	-0.045010	2.595545
176.700087	2946.930317	13.918067	-0.044982	2.595540
176.808980	2946.923723	13.923072	-0.045009	2.595543
176.812015	2946.814129	13.928077	-0.045009	2.595496
176.642795	2946.220828	13.933082	-0.044968	2.595232
176.789098	2946.222791	13.938087	-0.045003	2.595240
176.887359	2946.199221	13.943091	-0.045027	2.595235
176.972444	2946.119754	13.948096	-0.045048	2.595205
176.958274	2945.485383	13.953101	-0.045044	2.594931
177.096731	2945.439210	13.958106	-0.045078	2.594918
177.258059	2945.299396	13.963111	-0.045117	2.594865
177.188780	2944.941962	13.968115	-0.045100	2.594708
177.173727	2944.935668	13.973120	-0.045096	2.594705
177.134555	2944.358261	13.978125	-0.045086	2.594455
177.054073	2944.166883	13.983130	-0.045066	2.594369
176.949604	2944.212961	13.988135	-0.045041	2.594383
176.891748	2943.510340	13.993139	-0.045026	2.594078
176.786165	2943.471995	13.998144	-0.045000	2.594057
176.752270	2943.498272	14.003149	-0.044992	2.594067
176.685215	2943.461825	14.008154	-0.044975	2.594048
176.642307	2943.243095	14.013159	-0.044964	2.593951
176.673102	2942.745544	14.018163	-0.044972	2.593739
176.708917	2942.726720	14.023168	-0.044980	2.593732
176.754161	2942.754377	14.028173	-0.044991	2.593747
176.705765	2942.713690	14.033178	-0.044979	2.593727
176.754202	2942.542180	14.038183	-0.044991	2.593655
176.709619	2942.033817	14.043187	-0.044980	2.593434
176.731984	2942.026280	14.048192	-0.044985	2.593432
176.935121	2942.024087	14.053197	-0.045035	2.593441
176.955602	2941.909018	14.058202	-0.045040	2.593392
177.141611	2941.238015	14.063207	-0.045085	2.593112
177.124394	2941.234144	14.068211	-0.045080	2.593110
177.026732	2940.950117	14.073216	-0.045056	2.592983
177.141328	2940.518882	14.078221	-0.045084	2.592803
177.231401	2940.482072	14.083226	-0.045106	2.592791
177.208487	2939.888788	14.088231	-0.045100	2.592535
176.982170	2939.789905	14.093235	-0.045044	2.592481
176.862482	2939.802848	14.098240	-0.045015	2.592481
176.798177	2939.231279	14.103245	-0.044999	2.592232
176.682600	2939.100545	14.108250	-0.044970	2.592170
176.624709	2939.126211	14.113255	-0.044956	2.592179
176.706954	2939.110577	14.118259	-0.044976	2.592176
176.733866	2939.098185	14.123264	-0.044983	2.592172
176.799340	2938.531859	14.128269	-0.044998	2.591931
176.672773	2938.335295	14.133274	-0.044967	2.591840
176.850377	2938.345690	14.138279	-0.045011	2.591853
176.854784	2938.327821	14.143283	-0.045012	2.591846
176.976195	2937.825315	14.148288	-0.045041	2.591635
177.217920	2937.577005	14.153293	-0.045100	2.591540
177.210551	2937.461121	14.158298	-0.045098	2.591490
177.147888	2936.846458	14.163303	-0.045082	2.591222
177.159360	2936.836507	14.168307	-0.045085	2.591218
177.131997	2936.469151	14.173312	-0.045078	2.591059
177.096256	2936.147687	14.178317	-0.045069	2.590918
176.952351	2936.153548	14.183322	-0.045034	2.590914
177.078380	2935.669902	14.188327	-0.045064	2.590712
176.960726	2935.408678	14.193331	-0.045035	2.590594
176.784202	2935.419979	14.198336	-0.044992	2.590590
176.713384	2935.448525	14.203341	-0.044974	2.590599
176.736983	2934.767979	14.208346	-0.044980	2.590307
176.716442	2934.726443	14.213351	-0.044975	2.590288
176.681126	2934.712637	14.218355	-0.044966	2.590280
176.708497	2934.713965	14.223360	-0.044973	2.590282
176.823343	2934.650863	14.228365	-0.045001	2.590260
176.737163	2933.987314	14.233370	-0.044979	2.589970
176.728470	2934.018735	14.238375	-0.044977	2.589984
176.687275	2934.021887	14.243379	-0.044967	2.589983
176.908931	2933.980970	14.248384	-0.045021	2.589976
176.934746	2933.561879	14.253389	-0.045027	2.589797
176.855984	2933.404022	14.258394	-0.045007	2.589725
176.993255	2933.415591	14.263399	-0.045041	2.589736
176.972912	2933.167930	14.268403	-0.045036	2.589629
177.077798	2932.615142	14.273408	-0.045061	2.589395
177.028104	2932.643870	14.278413	-0.045049	2.589405
177.075385	2932.340552	14.283418	-0.045060	2.589277
177.170615	2931.888861	14.288423	-0.045083	2.589087
177.145158	2931.889904	14.293427	-0.045077	2.589086
177.113744	2931.260403	14.298432	-0.045068	2.588813
177.095759	2931.170449	14.303437	-0.045064	2.588773
176.909572	2931.161125	14.308442	-0.045018	2.588761
176.927795	2930.537412	14.313447	-0.045022	2.588492
176.830863	2930.483407	14.318451	-0.044999	2.588465
176.791623	2930.480192	14.323456	-0.044989	2.588461
176.966567	2930.347426	14.328461	-0.045031	2.588412
176.885707	2929.715270	14.333466	-0.045011	2.588136
176.892914	2929.730058	14.338471	-0.045013	2.588143
176.832372	2929.733196	14.343475	-0.044998	2.588141
176.815459	2929.363316	14.348480	-0.044994	2.587981
176.867877	2929.016874	14.353485	-0.045006	2.587834
176.932821	2928.991208	14.358490	-0.045022	2.587826
177.009169	2928.998661	14.363495	-0.045041	2.587833
176.891617	2928.316806	14.368499	-0.045011	2.587533
176.886555	2928.266360	14.373504	-0.045010	2.587511
176.905162	2928.301952	14.378509	-0.045015	2.587527
176.738017	2928.184132	14.383514	-0.044974	2.587468
176.900118	2927.571492	14.388519	-0.045013	2.587212
176.935022	2927.556772	14.393523	-0.045021	2.587207
176.963271	2927.537726	14.398528	-0.045028	2.587200
177.072428	2927.020054	14.403533	-0.045054	2.586982
176.951338	2926.773025	14.408538	-0.045024	2.586870
176.859788	2926.811466	14.413543	-0.045002	2.586882
176.918723	2926.537890	14.418547	-0.045016	2.586767
176.984191	2926.028784	14.423552	-0.045032	2.586550
176.965838	2926.072819	14.428557	-0.045027	2.586569
176.894870	2925.987763	14.433562	-0.045010	2.586528
176.767784	2925.343872	14.438567	-0.044978	2.586244
176.748471	2925.347131	14.443571	-0.044973	2.586245
176.743276	2925.321686	14.448576	-0.044972	2.586234
176.623546	2925.363263	14.453581	-0.044943	2.586246
176.492880	2925.354689	14.458586	-0.044911	2.586236
176.666187	2925.043116	14.463591	-0.044953	2.586110
176.651554	2924.664959	14.468595	-0.044949	2.585946
176.602587	2924.662841	14.473600	-0.044937	2.585943
176.649638	2924.686920	14.478605	-0.044949	2.585955
176.756490	2924.640675	14.483610	-0.044975	2.585940
176.843096	2924.497939	14.488615	-0.044996	2.585883
176.788174	2923.912723	14.493619	-0.044982	2.585628
176.848024	2923.881483	14.498624	-0.044996	2.585617
176.915333	2923.907640	14.503629	-0.045013	2.585632
176.749010	2923.761278	14.508634	-0.044972	2.585560
176.796978	2923.200471	14.513639	-0.044983	2.585321
176.848688	2923.180989	14.518643	-0.044996	2.585315
176.842086	2923.158965	14.523648	-0.044994	2.585305
176.970062	2922.933176	14.528653	-0.045025	2.585214
176.958540	2922.432224	14.533658	-0.045022	2.584997
176.998563	2922.456350	14.538663	-0.045032	2.585009
176.945628	2922.397550	14.543667	-0.045019	2.584981
176.942856	2921.901814	14.548672	-0.045018	2.584767
176.919945	2921.926807	14.553677	-0.045012	2.584777
176.852070	2921.911620	14.558682	-0.044995	2.584767
176.858525	2921.504194	14.563687	-0.044996	2.584591
176.825747	2921.152142	14.568691	-0.044988	2.584438
176.821549	2921.154802	14.573696	-0.044987	2.584439
176.793377	2921.176764	14.578701	-0.044980	2.584447
176.788793	2920.878703	14.583706	-0.044979	2.584318
176.837160	2920.421491	14.588711	-0.044990	2.584123
176.791714	2920.417185	14.593715	-0.044979	2.584119
176.828072	2920.403754	14.598720	-0.044988	2.584115
176.694541	2920.371320	14.603725	-0.044955	2.584094
176.833766	2919.660776	14.608730	-0.044989	2.583794
176.885066	2919.686157	14.613735	-0.045001	2.583807
176.948175	2919.673719	14.618739	-0.045017	2.583805
176.958347	2919.313009	14.623744	-0.045019	2.583650
176.947136	2918.973498	14.628749	-0.045016	2.583502
176.959840	2918.951504	14.633754	-0.045019	2.583494
176.944454	2918.839774	14.638759	-0.045015	2.583445
176.888341	2918.224543	14.643763	-0.045001	2.583176
176.802368	2918.219346	14.648768	-0.044980	2.583170
176.864899	2918.240935	14.653773	-0.044995	2.583182
176.872174	2917.998423	14.658778	-0.044996	2.583078
176.839630	2917.517577	14.663783	-0.044988	2.582868
176.912909	2917.516285	14.668787	-0.045006	2.582871
176.873022	2917.495108	14.673792	-0.044996	2.582860
176.823142	2917.085239	14.678797	-0.044984	2.582681
176.698801	2916.796057	14.683802	-0.044953	2.582550
176.757010	2916.800056	14.688807	-0.044967	2.582554
176.871715	2916.785828	14.693811	-0.044995	2.582553
176.750671	2916.578291	14.698816	-0.044965	2.582458
176.758863	2916.095183	14.703821	-0.044967	2.582250
176.719379	2916.072525	14.708826	-0.044957	2.582238
176.772721	2916.089346	14.713831	-0.044970	2.582248
176.800966	2916.078269	14.718835	-0.044977	2.582244
176.766124	2915.529218	14.723840	-0.044968	2.582005
176.685580	2915.338878	14.728845	-0.044948	2.581919
176.741050	2915.303092	14.733850	-0.044962	2.581906
176.636990	2915.324848	14.738855	-0.044936	2.581911
176.568858	2915.336091	14.743859	-0.044920	2.581912
176.612694	2915.229376	14.748864	-0.044930	2.581868
176.697906	2914.610666	14.753869	-0.044950	2.581605
176.744318	2914.559283	14.758874	-0.044962	2.581585
176.741201	2914.588542	14.763879	-0.044961	2.581597
176.800781	2914.588048	14.768883	-0.044975	2.581600
176.752559	2914.260528	14.773888	-0.044963	2.581456
176.882825	2913.850984	14.778893	-0.044995	2.581285
176.759308	2913.835199	14.783898	-0.044965	2.581273
176.814749	2913.843831	14.788903	-0.044978	2.581279
176.867778	2913.651624	14.793907	-0.044991	2.581198
176.804937	2913.139503	14.798912	-0.044975	2.580974
176.853426	2913.170209	14.803917	-0.044987	2.580990
176.732200	2913.149481	14.808922	-0.044957	2.580975
176.864360	2912.981665	14.813927	-0.044989	2.580909
176.818919	2912.411347	14.818931	-0.044978	2.580660
176.877734	2912.385664	14.823936	-0.044992	2.580651
176.889356	2912.406407	14.828941	-0.044995	2.580661
176.775605	2912.148419	14.833946	-0.044967	2.580544
176.833037	2911.683985	14.838951	-0.044981	2.580346
176.642188	2911.719418	14.843955	-0.044934	2.580352
176.633433	2911.696238	14.848960	-0.044932	2.580341
176.771772	2911.704256	14.853965	-0.044965	2.580352
176.660823	2911.485691	14.858970	-0.044938	2.580252
176.692576	2910.988092	14.863975	-0.044946	2.580038
176.709124	2910.996730	14.868979	-0.044950	2.580042
176.528346	2910.994951	14.873984	-0.044905	2.580033
176.575578	2911.011707	14.878989	-0.044917	2.580042
176.653531	2910.975225	14.883994	-0.044936	2.580030
176.772387	2910.713675	14.888999	-0.044965	2.579923
176.809762	2910.439233	14.894003	-0.044973	2.579806
176.726749	2910.432300	14.899008	-0.044953	2.579799
176.915535	2910.449101	14.904013	-0.044999	2.579816
176.954431	2910.166199	14.909018	-0.045008	2.579695
176.880880	2909.664243	14.914023	-0.044990	2.579474
176.767118	2909.692504	14.919027	-0.044962	2.579481
176.901357	2909.647926	14.924032	-0.044995	2.579468
176.894188	2909.229146	14.929037	-0.044993	2.579287
176.793544	2908.926916	14.934042	-0.044968	2.579151
176.668790	2908.945224	14.939047	-0.044938	2.579153
176.679512	2908.959560	14.944051	-0.044940	2.579160
176.629503	2908.924411	14.949056	-0.044928	2.579142
176.542178	2908.545679	14.954061	-0.044906	2.578974
176.459468	2908.220564	14.959066	-0.044886	2.578829
176.575360	2908.223852	14.964071	-0.044914	2.578836
176.711217	2908.206509	14.969075	-0.044947	2.578835
176.701359	2908.192124	14.974080	-0.044945	2.578828
176.617508	2908.239765	14.979085	-0.044924	2.578845
176.526160	2908.222594	14.984090	-0.044902	2.578833
176.608771	2907.674488	14.989095	-0.044921	2.578600
176.805453	2907.508950	14.994099	-0.044969	2.578538
176.768245	2907.493300	14.999104	-0.044960	2.578529
176.779586	2907.528481	15.004109	-0.044963	2.578545
176.766030	2907.508741	15.009114	-0.044960	2.578536
176.758856	2906.768064	15.014119	-0.044957	2.578215
176.746207	2906.772748	15.019123	-0.044954	2.578216
176.857582	2906.736503	15.024128	-0.044981	2.578206
176.845568	2906.769967	15.029133	-0.044978	2.578220
176.721216	2906.188175	15.034138	-0.044947	2.577962
176.749354	2906.042254	15.039143	-0.044954	2.577900
176.692098	2906.055177	15.044147	-0.044940	2.577903
176.647388	2906.038209	15.049152	-0.044929	2.577893
176.744583	2906.065213	15.054157	-0.044953	2.577910
176.638557	2905.546345	15.059162	-0.044927	2.577680
176.718869	2905.336910	15.064167	-0.044946	2.577593
176.825339	2905.325732	15.069171	-0.044972	2.577594
176.597104	2905.323549	15.074176	-0.044916	2.577582
176.578665	2905.355922	15.079181	-0.044912	2.577595
176.629081	2905.293334	15.084186	-0.044924	2.577570
176.707509	2904.611485	15.089191	-0.044942	2.577279
176.617917	2904.635601	15.094195	-0.044921	2.577285
176.568972	2904.605416	15.099200	-0.044908	2.577269
176.610680	2904.640422	15.104205	-0.044919	2.577286
176.649806	2904.609025	15.109210	-0.044928	2.577275
176.540870	2904.625574	15.114215	-0.044901	2.577277
176.646023	2904.097610	15.119219	-0.044927	2.577053
176.616967	2903.839194	15.124224	-0.044919	2.576940
176.692605	2903.864627	15.129229	-0.044938	2.576954
176.810510	2903.827652	15.134234	-0.044967	2.576944
176.846084	2903.822969	15.139239	-0.044975	2.576944

176.972813	2903.118566	15.144243	-0.045006	2.576645
176.922572	2903.067272	15.149248	-0.044993	2.576620
176.949542	2902.525125	15.154253	-0.044999	2.576387
176.916447	2902.303265	15.159258	-0.044991	2.576289
176.903110	2901.677785	15.164263	-0.044987	2.576017
176.855933	2901.223700	15.169267	-0.044975	2.575818
176.757539	2900.655065	15.174272	-0.044951	2.575567
176.577235	2900.193656	15.179277	-0.044907	2.575358
176.507337	2899.547017	15.184282	-0.044889	2.575075
176.379537	2899.101070	15.189287	-0.044857	2.574875
176.413325	2898.486865	15.194291	-0.044865	2.574611
176.253958	2897.786727	15.199296	-0.044826	2.574299
176.379024	2897.077447	15.204301	-0.044856	2.573998
176.313386	2896.290650	15.209306	-0.044839	2.573654
176.476284	2895.382565	15.214311	-0.044878	2.573268
176.509241	2894.401024	15.219315	-0.044885	2.572844
176.620938	2893.413678	15.224320	-0.044912	2.572421
176.666078	2892.210198	15.229325	-0.044922	2.571901
176.773349	2891.055364	15.234330	-0.044947	2.571405
176.738864	2889.832532	15.239335	-0.044938	2.570872
176.789974	2888.470543	15.244339	-0.044950	2.570284
176.732104	2887.215294	15.249344	-0.044935	2.569736
176.794853	2885.785032	15.254349	-0.044949	2.569117
176.689750	2884.307540	15.259354	-0.044922	2.568470
176.563671	2882.820582	15.264359	-0.044890	2.567818
176.634276	2881.283491	15.269363	-0.044906	2.567153
176.630609	2879.609054	15.274368	-0.044904	2.566425
176.616506	2878.042858	15.279373	-0.044899	2.565743
176.499836	2876.444160	15.284378	-0.044870	2.565042
176.452230	2874.740559	15.289383	-0.044857	2.564299
176.344810	2873.077559	15.294387	-0.044829	2.563569
176.177234	2871.242608	15.299392	-0.044787	2.562762
176.148819	2869.524048	15.304397	-0.044779	2.562012
176.191128	2867.630699	15.309402	-0.044788	2.561189
176.140934	2865.779930	15.314407	-0.044774	2.560380
176.152225	2863.980437	15.319411	-0.044776	2.559596
176.071799	2861.938485	15.324416	-0.044755	2.558702
176.170600	2859.924540	15.329421	-0.044777	2.557828
176.155977	2857.807890	15.334426	-0.044772	2.556904
176.217296	2855.631557	15.339431	-0.044785	2.555957
176.377295	2853.499145	15.344435	-0.044823	2.555034
176.482261	2851.184029	15.349440	-0.044847	2.554027
176.532113	2848.741442	15.354445	-0.044857	2.552962
176.525998	2846.231270	15.359450	-0.044854	2.551864
176.555947	2843.643153	15.364455	-0.044859	2.550734
176.510396	2841.217407	15.369459	-0.044847	2.549670
176.422638	2838.557583	15.374464	-0.044823	2.548501
176.316352	2835.904316	15.379469	-0.044795	2.547334
176.284363	2833.201435	15.384474	-0.044786	2.546148
176.191074	2830.610404	15.389479	-0.044761	2.545007
176.054790	2827.940424	15.394483	-0.044726	2.543829
176.055125	2825.119888	15.399488	-0.044724	2.542591
176.006840	2822.328680	15.404493	-0.044710	2.541363
175.725993	2819.601687	15.409498	-0.044639	2.540151
175.630685	2816.839538	15.414503	-0.044614	2.538933
175.774752	2813.977474	15.419507	-0.044647	2.537682
175.763197	2810.961158	15.424512	-0.044642	2.536354
175.723164	2808.126274	15.429517	-0.044630	2.535104
175.735005	2805.145785	15.434522	-0.044631	2.533792
175.857263	2801.996877	15.439527	-0.044659	2.532411
175.873777	2798.802347	15.444531	-0.044660	2.531004
175.855215	2795.661748	15.449536	-0.044653	2.529618
176.051688	2792.360188	15.454541	-0.044699	2.528171
176.014302	2788.881047	15.459546	-0.044687	2.526632
175.958924	2785.554805	15.464551	-0.044671	2.525160
175.903157	2782.169496	15.469555	-0.044655	2.523661
175.868904	2778.615458	15.474560	-0.044644	2.522087
175.904459	2775.140886	15.479565	-0.044651	2.520550
175.736088	2771.611006	15.484570	-0.044607	2.518978
175.672572	2767.999746	15.489575	-0.044589	2.517375
175.464664	2764.464914	15.494579	-0.044535	2.515796
175.343206	2760.978234	15.499584	-0.044503	2.514243
175.296235	2757.334670	15.504589	-0.044489	2.512622
175.106811	2753.698102	15.509594	-0.044440	2.510997
175.049505	2750.113842	15.514599	-0.044424	2.509400
174.953622	2746.441673	15.519603	-0.044398	2.507761
174.907502	2742.670087	15.524608	-0.044384	2.506080
175.173200	2739.015259	15.529613	-0.044446	2.504465
175.075039	2735.102790	15.534618	-0.044419	2.502716
175.246678	2731.159777	15.539623	-0.044458	2.500966
175.329988	2727.224571	15.544627	-0.044476	2.499214
175.464775	2723.046095	15.549632	-0.044506	2.497354
175.451741	2718.935851	15.554637	-0.044499	2.495516
175.360969	2714.774642	15.559642	-0.044474	2.493649
175.248263	2710.494043	15.564647	-0.044444	2.491727
175.246116	2706.326355	15.569651	-0.044440	2.489859
175.146562	2701.964834	15.574656	-0.044413	2.487898
175.066712	2697.693474	15.579661	-0.044390	2.485977
174.954659	2693.421602	15.584666	-0.044360	2.484053
174.893000	2689.018328	15.589671	-0.044341	2.482070
174.701694	2684.750139	15.594675	-0.044292	2.480140
174.495734	2680.364722	15.599680	-0.044238	2.478155
174.424918	2676.041674	15.604685	-0.044218	2.476203
174.395448	2671.746912	15.609690	-0.044207	2.474265
174.311876	2667.258293	15.614695	-0.044184	2.472235
174.354730	2662.849906	15.619699	-0.044191	2.470246
174.228405	2658.322286	15.624704	-0.044157	2.468193
174.333686	2653.778112	15.629709	-0.044179	2.466143
174.442355	2649.208327	15.634714	-0.044203	2.464080
174.543759	2644.438321	15.639719	-0.044224	2.461924
174.780072	2639.701386	15.644723	-0.044278	2.459788
174.847043	2634.722027	15.649728	-0.044291	2.457531
175.069225	2629.818578	15.654733	-0.044342	2.455315
174.901612	2624.767268	15.659738	-0.044297	2.453009
174.686430	2619.748088	15.664743	-0.044241	2.450712
174.577916	2614.751342	15.669747	-0.044211	2.448430
174.384653	2609.677824	15.674752	-0.044160	2.446105
174.162875	2604.736716	15.679757	-0.044102	2.443837
173.825291	2599.742902	15.684762	-0.044016	2.441537
173.736623	2594.822084	15.689767	-0.043991	2.439282
173.584612	2589.822861	15.694771	-0.043950	2.436984
173.476231	2584.959329	15.699776	-0.043920	2.434750
173.471538	2579.900617	15.704781	-0.043916	2.432429
173.490310	2574.874132	15.709786	-0.043917	2.430123
173.624202	2569.647930	15.714791	-0.043946	2.427729
173.584373	2564.533123	15.719795	-0.043932	2.425374
173.681433	2559.236838	15.724800	-0.043952	2.422941
173.834962	2553.958572	15.729805	-0.043986	2.420517
174.076342	2548.459033	15.734810	-0.044041	2.417993
174.138994	2542.965722	15.739815	-0.044052	2.415460
174.024176	2537.416544	15.744819	-0.044020	2.412887
173.884366	2531.824827	15.749824	-0.043982	2.410292
173.735619	2526.223459	15.754829	-0.043942	2.407688
173.461668	2520.739488	15.759834	-0.043871	2.405129
173.298553	2515.149373	15.764839	-0.043827	2.402524
173.133197	2509.712682	15.769843	-0.043783	2.399987
172.883308	2504.110532	15.774848	-0.043718	2.397366
172.733027	2498.762532	15.779853	-0.043677	2.394866
172.529353	2493.189589	15.784858	-0.043623	2.392255
172.519128	2487.732180	15.789863	-0.043617	2.389707
172.448957	2482.153836	15.794867	-0.043596	2.387096
172.571481	2476.572679	15.799872	-0.043622	2.384492
172.738944	2470.854399	15.804877	-0.043658	2.381823
173.005606	2465.056886	15.809882	-0.043719	2.379120
173.052460	2459.172963	15.814887	-0.043727	2.376361
173.193827	2453.241881	15.819891	-0.043757	2.373582
173.089085	2447.240722	15.824896	-0.043727	2.370752
173.112004	2441.162895	15.829901	-0.043728	2.367890
173.075822	2435.155057	15.834906	-0.043715	2.365054
172.897827	2429.023277	15.839911	-0.043667	2.362148
172.832836	2423.008310	15.844915	-0.043647	2.359300
172.508621	2416.929500	15.849920	-0.043563	2.356403
172.447786	2410.899475	15.854925	-0.043544	2.353541
172.229978	2404.878571	15.859930	-0.043487	2.350670
171.878600	2398.813414	15.864935	-0.043397	2.347767
171.748976	2392.927866	15.869939	-0.043361	2.344960
171.638760	2386.852089	15.874944	-0.043329	2.342059
171.546098	2380.888304	15.879949	-0.043302	2.339209
171.497591	2374.848454	15.884954	-0.043286	2.336322
171.562016	2368.706096	15.889959	-0.043298	2.333390
171.873074	2362.545823	15.894963	-0.043369	2.330460
172.006928	2356.162228	15.899968	-0.043397	2.327408
172.235296	2349.796942	15.904973	-0.043449	2.324368
172.484257	2343.287249	15.909978	-0.043505	2.321255
172.411078	2336.684530	15.914983	-0.043482	2.318073
172.580230	2330.156891	15.919987	-0.043519	2.314938
172.321164	2323.478129	15.924992	-0.043451	2.311699
171.972313	2316.927300	15.929997	-0.043361	2.308512
171.633887	2310.471732	15.935002	-0.043273	2.305367
171.287576	2303.991406	15.940007	-0.043184	2.302206
170.981369	2297.627183	15.945011	-0.043105	2.299098
170.728799	2291.290139	15.950016	-0.043039	2.296004
170.556687	2284.916059	15.955021	-0.042992	2.292892
170.411853	2278.571513	15.960026	-0.042952	2.289791
170.283275	2272.207940	15.965031	-0.042916	2.286679
170.379680	2265.784489	15.970035	-0.042935	2.283547
170.416358	2259.347938	15.975040	-0.042939	2.280401
170.736300	2252.774624	15.980045	-0.043013	2.277201
170.976394	2246.083454	15.985050	-0.043067	2.273934
171.208096	2239.311732	15.990055	-0.043118	2.270622
171.262961	2232.452182	15.995059	-0.043127	2.267251
171.226291	2225.545509	16.000064	-0.043113	2.263845
171.525473	2218.609748	16.005069	-0.043181	2.260442
171.385181	2211.576532	16.010074	-0.043142	2.256957
171.104919	2204.578744	16.015079	-0.043068	2.253475
170.905443	2197.637253	16.020083	-0.043015	2.250021
170.500325	2190.726569	16.025088	-0.042911	2.246563
170.126551	2183.898826	16.030093	-0.042815	2.243143
169.804557	2177.133398	16.035098	-0.042731	2.239752
169.476842	2170.443584	16.040103	-0.042646	2.236393
169.241682	2163.769467	16.045107	-0.042584	2.233044
169.090929	2157.062742	16.050112	-0.042542	2.229678
169.152630	2150.362415	16.055117	-0.042553	2.226325
169.184636	2143.577898	16.060122	-0.042556	2.222922
169.526991	2136.677094	16.065127	-0.042634	2.219477
169.712582	2129.771595	16.070131	-0.042675	2.216014
169.886027	2122.662158	16.075136	-0.042712	2.212441
170.071442	2115.466114	16.080141	-0.042752	2.208819
170.130832	2108.312936	16.085146	-0.042761	2.205205
170.289367	2101.005664	16.090151	-0.042795	2.201514
170.267514	2093.709137	16.095155	-0.042784	2.197809
169.999969	2086.415576	16.100160	-0.042714	2.194083
169.909967	2079.166217	16.105165	-0.042687	2.190385
169.489246	2071.952712	16.110170	-0.042579	2.186676
169.102506	2064.790734	16.115175	-0.042479	2.182990
168.817597	2057.698213	16.120179	-0.042404	2.179340
168.523518	2050.635430	16.125184	-0.042328	2.175698
168.284506	2043.609619	16.130189	-0.042264	2.172073
168.216808	2036.521281	16.135194	-0.042242	2.168422
168.281442	2029.421923	16.140199	-0.042253	2.164768
168.360245	2022.318054	16.145203	-0.042267	2.161107
168.481473	2015.083682	16.150208	-0.042292	2.157375
168.664803	2007.818555	16.155213	-0.042331	2.153625
168.831744	2000.445574	16.160218	-0.042367	2.149812
168.796289	1993.047822	16.165223	-0.042353	2.145964
169.025034	1985.592036	16.170227	-0.042404	2.142098
168.858428	1978.090457	16.175232	-0.042357	2.138173
168.921211	1970.603433	16.180237	-0.042367	2.134265
168.697842	1963.092128	16.185242	-0.042307	2.130316
168.576805	1955.580941	16.190247	-0.042273	2.126367
168.310134	1948.158408	16.195251	-0.042202	2.122447
168.077829	1940.702604	16.200256	-0.042140	2.118504
167.877992	1933.321038	16.205261	-0.042086	2.114596
167.626287	1925.969962	16.210266	-0.042019	2.110692
167.296197	1918.636582	16.215271	-0.041933	2.106785
167.244873	1911.323408	16.220275	-0.041915	2.102902
167.165593	1903.953750	16.225280	-0.041891	2.098980
167.266817	1896.570706	16.230285	-0.041910	2.095056
167.396016	1889.097182	16.235290	-0.041936	2.091080
167.477519	1881.547643	16.240295	-0.041951	2.087051
167.546012	1873.995528	16.245299	-0.041962	2.083012
167.551453	1866.368121	16.250304	-0.041958	2.078920
167.639005	1858.756525	16.255309	-0.041974	2.074835
167.683051	1851.059786	16.260314	-0.041979	2.070693
167.503865	1843.383353	16.265319	-0.041930	2.066536
167.455980	1835.731137	16.270323	-0.041913	2.062394
167.208510	1828.045444	16.275328	-0.041847	2.058210
167.102808	1820.420154	16.280333	-0.041816	2.054061
166.799788	1812.788192	16.285338	-0.041736	2.049884
166.573600	1805.216160	16.290343	-0.041676	2.045738
166.524012	1797.655637	16.295347	-0.041658	2.041604
166.220802	1790.106259	16.300352	-0.041579	2.037447
166.085179	1782.568217	16.305357	-0.041540	2.033301
166.082807	1775.004823	16.310362	-0.041534	2.029143
166.037836	1767.405050	16.315367	-0.041518	2.024954
166.233866	1759.784403	16.320371	-0.041560	2.020763
166.090530	1752.117591	16.325376	-0.041520	2.016511
166.200814	1744.395290	16.330381	-0.041541	2.012239
166.082252	1736.684714	16.335386	-0.041507	2.007947
166.105211	1728.930570	16.340391	-0.041507	2.003632
166.182390	1721.178192	16.345395	-0.041520	1.999314
165.974746	1713.421957	16.350400	-0.041464	1.994960
165.840516	1705.675105	16.355405	-0.041425	1.990609
165.610158	1697.985210	16.360410	-0.041363	1.986272
165.484220	1690.274210	16.365415	-0.041327	1.981922
165.398734	1682.607169	16.370419	-0.041301	1.977590
165.335465	1674.862669	16.375424	-0.041280	1.973208
165.184509	1667.155510	16.380429	-0.041237	1.968829
165.057816	1659.449929	16.385434	-0.041201	1.964443
164.951191	1651.750448	16.390439	-0.041169	1.960053
164.996411	1644.044679	16.395443	-0.041175	1.955662
165.096076	1636.242515	16.400448	-0.041194	1.951211
165.190078	1628.437949	16.405453	-0.041211	1.946747
164.990093	1620.639316	16.410458	-0.041157	1.942252
164.824862	1612.835817	16.415463	-0.041111	1.937746
164.824806	1605.021314	16.420467	-0.041105	1.933238
164.649910	1597.184046	16.425472	-0.041057	1.928691
164.538213	1589.405677	16.430477	-0.041024	1.924172
164.509535	1581.609040	16.435482	-0.041011	1.919640
164.364427	1573.795581	16.440487	-0.040970	1.915077
164.258425	1566.008846	16.445491	-0.040939	1.910522
164.049405	1558.230967	16.450496	-0.040882	1.905952
163.948210	1550.466248	16.455501	-0.040852	1.901388
163.921985	1542.735947	16.460506	-0.040840	1.896841
163.691585	1534.947177	16.465511	-0.040778	1.892229
163.681177	1527.204897	16.470515	-0.040770	1.887654
163.478607	1519.430273	16.475520	-0.040715	1.883031
163.548615	1511.696195	16.480525	-0.040727	1.878445
163.473886	1503.924126	16.485530	-0.040703	1.873812
163.456328	1496.103548	16.490535	-0.040693	1.869144
163.396516	1488.326680	16.495539	-0.040673	1.864487
163.484329	1480.467137	16.500544	-0.040689	1.859782
163.532277	1472.584487	16.505549	-0.040695	1.855047
163.517726	1464.680534	16.510554	-0.040685	1.850282
163.407140	1456.770414	16.515559	-0.040653	1.845491
163.368248	1448.908984	16.520563	-0.040638	1.840725
163.178298	1441.033720	16.525568	-0.040586	1.835923
163.082791	1433.163087	16.530573	-0.040557	1.831120
162.989492	1425.312566	16.535578	-0.040528	1.826318
162.889474	1417.448401	16.540583	-0.040498	1.821493
162.766760	1409.640903	16.545587	-0.040463	1.816689
162.542600	1401.803533	16.550592	-0.040402	1.811843
162.397029	1394.005393	16.555597	-0.040361	1.807016
162.276915	1386.220700	16.560602	-0.040326	1.802187
162.207594	1378.449536	16.565607	-0.040304	1.797359
162.199239	1370.642918	16.570611	-0.040296	1.792501
161.994212	1362.861709	16.575616	-0.040240	1.787626
161.997824	1355.066469	16.580621	-0.040236	1.782750
161.871279	1347.306724	16.585626	-0.040199	1.777870
161.782730	1339.480621	16.590631	-0.040172	1.772939
161.903022	1331.667230	16.595635	-0.040196	1.768022
161.773622	1323.828013	16.600640	-0.040159	1.763051
161.834938	1316.000333	16.605645	-0.040168	1.758092
161.602656	1308.199368	16.610650	-0.040106	1.753106
161.491639	1300.379361	16.615655	-0.040073	1.748106
161.492950	1292.599337	16.620659	-0.040068	1.743129
161.370291	1284.807719	16.625664	-0.040032	1.738117
161.507991	1276.946673	16.630669	-0.040060	1.733073
161.140663	1269.176851	16.635674	-0.039965	1.728021
161.007148	1261.386795	16.640679	-0.039927	1.722965
161.098793	1253.627244	16.645683	-0.039944	1.717938
160.905174	1245.843444	16.650688	-0.039891	1.712850
160.963386	1238.056723	16.655693	-0.039899	1.707772
160.926116	1230.266011	16.660698	-0.039885	1.702665
160.681609	1222.487781	16.665703	-0.039819	1.697530
160.648178	1214.722564	16.670707	-0.039806	1.692410
160.616886	1206.921778	16.675712	-0.039792	1.687251
160.613614	1199.138924	16.680717	-0.039786	1.682091
160.434257	1191.407618	16.685722	-0.039737	1.676931
160.309801	1183.639974	16.690727	-0.039701	1.671736
160.139400	1175.936132	16.695731	-0.039654	1.666563
160.028765	1168.228546	16.700736	-0.039621	1.661377
159.790863	1160.575456	16.705741	-0.039557	1.656199
159.770425	1152.890872	16.710746	-0.039547	1.651006
159.439648	1145.264123	16.715751	-0.039461	1.645802
159.328805	1137.683517	16.720755	-0.039428	1.640637
159.290608	1130.057633	16.725760	-0.039413	1.635434
159.298678	1122.425456	16.730765	-0.039410	1.630214
159.383973	1114.790290	16.735770	-0.039425	1.624984
159.290393	1107.122619	16.740775	-0.039397	1.619695
159.319511	1099.440755	16.745779	-0.039399	1.614392
159.248281	1091.762978	16.750784	-0.039376	1.609064
159.350674	1084.070247	16.755789	-0.039395	1.603727
159.555237	1076.357570	16.760794	-0.039440	1.598370
159.343054	1068.624089	16.765799	-0.039382	1.592932
159.301240	1060.954299	16.770803	-0.039367	1.587540
159.138207	1053.277529	16.775808	-0.039321	1.582111
158.914963	1045.660994	16.780813	-0.039261	1.576699
158.777340	1038.034647	16.785818	-0.039222	1.571271
158.598836	1030.439561	16.790823	-0.039173	1.565842
158.439215	1022.908162	16.795827	-0.039129	1.560441
158.129091	1015.388438	16.800832	-0.039048	1.555012
157.962152	1007.905178	16.805837	-0.039002	1.549608
157.937962	1000.437074	16.810842	-0.038990	1.544213
157.813186	992.948407	16.815847	-0.038954	1.538771
157.731929	985.479035	16.820851	-0.038929	1.533330
157.635723	978.014589	16.825856	-0.038900	1.527871
157.593690	970.564813	16.830861	-0.038885	1.522410
157.778605	963.079926	16.835866	-0.038925	1.516931
157.604617	955.593872	16.840871	-0.038877	1.511387
157.550249	948.163690	16.845875	-0.038858	1.505879
157.495844	940.708499	16.850880	-0.038840	1.500332
157.409980	933.261125	16.855885	-0.038813	1.494767
157.351059	925.838226	16.860890	-0.038794	1.489202
157.265879	918.402948	16.865895	-0.038767	1.483604
157.206893	911.033268	16.870899	-0.038748	1.478037
157.088121	903.622278	16.875904	-0.038713	1.472411
157.023781	896.246847	16.880909	-0.038692	1.466797
156.935422	888.878637	16.885914	-0.038666	1.461163
156.852699	881.491345	16.890919	-0.038640	1.455494
156.934953	874.105969	16.895923	-0.038655	1.449826
156.641717	866.786962	16.900928	-0.038578	1.444137
156.681767	859.459216	16.905933	-0.038582	1.438464
156.622902	852.130549	16.910938	-0.038563	1.432754
156.415536	844.832408	16.915943	-0.038507	1.427025
156.378539	837.573860	16.920947	-0.038493	1.421326
156.269536	830.281592	16.925952	-0.038461	1.415569
156.203323	823.032188	16.930957	-0.038440	1.409828
156.054572	815.824571	16.935962	-0.038398	1.404085
155.749893	808.657978	16.940967	-0.038318	1.398330
155.849146	801.459271	16.945971	-0.038338	1.392581
155.702171	794.296600	16.950976	-0.038297	1.386803
155.424542	787.179336	16.955981	-0.038224	1.381019
155.254982	780.083616	16.960986	-0.038177	1.375244
155.148683	773.004954	16.965991	-0.038146	1.369467
155.082379	765.959187	16.970995	-0.038125	1.363698
155.200284	758.858682	16.976000	-0.038149	1.357886
155.076331	751.802294	16.981005	-0.038113	1.352051
155.075576	744.755369	16.986010	-0.038108	1.346216
154.967202	737.721078	16.991015	-0.038076	1.340350
154.997092	730.685298	16.996019	-0.038079	1.334478
154.910302	723.653804	17.001024	-0.038053	1.328566
155.031709	716.605480	17.006029	-0.038077	1.322644
154.801173	709.634236	17.011034	-0.038016	1.316709
154.748219	702.646179	17.016039	-0.037998	1.310759
154.710192	695.708282	17.021043	-0.037984	1.304827
154.430475	688.832225	17.026048	-0.037910	1.298884
154.329327	681.898306	17.031053	-0.037881	1.292891
154.081495	675.049754	17.036058	-0.037815	1.286922
153.729022	668.267495	17.041063	-0.037724	1.280967
153.724012	661.473068	17.046067	-0.037718	1.275027
153.637717	654.683816	17.051072	-0.037692	1.269051
153.638231	647.908654	17.056077	-0.037687	1.263073
153.568247	641.161027	17.061082	-0.037666	1.257080
153.467321	634.408683	17.066087	-0.037636	1.251048
153.589726	627.656434	17.071091	-0.037661	1.245024
153.406149	620.953618	17.076096	-0.037611	1.238965
153.297324	614.260531	17.081101	-0.037580	1.232898
153.243326	607.594540	17.086106	-0.037562	1.226834
153.001546	600.968701	17.091111	-0.037498	1.220746
153.140117	594.294508	17.096115	-0.037527	1.214645
153.008522	587.666814	17.101120	-0.037491	1.208512
153.104786	581.030328	17.106125	-0.037509	1.202378
152.914448	574.462851	17.111130	-0.037458	1.196228
152.692136	567.926138	17.116135	-0.037399	1.190070
152.739773	561.393634	17.121139	-0.037406	1.183930
152.635554	554.861172	17.126144	-0.037376	1.177732
152.449059	548.383093	17.131149	-0.037326	1.171538
152.240057	541.976120	17.136154	-0.037270	1.165376
152.092228	535.566039	17.141159	-0.037229	1.159189
151.976760	529.187912	17.146163	-0.037197	1.153005
151.947858	522.810968	17.151168	-0.037185	1.146804
151.708872	516.512637	17.156173	-0.037122	1.140610
151.787296	510.148536	17.161178	-0.037137	1.134373
151.654526	503.829652	17.166183	-0.037100	1.128108
151.485950	497.596014	17.171187	-0.037054	1.121887
151.352617	491.364658	17.176192	-0.037017	1.115640
151.503593	485.087434	17.181197	-0.037049	1.109364
151.510659	478.861644	17.186202	-0.037047	1.103077
151.283085	472.666121	17.191207	-0.036987	1.096742
151.257868	466.495039	17.196211	-0.036976	1.090432
150.999817	460.389181	17.201216	-0.036909	1.084110
150.934214	454.278807	17.206221	-0.036888	1.077781
150.815044	448.227114	17.211226	-0.036855	1.071467
150.644710	442.179737	17.216231	-0.036809	1.065109
150.697742	436.137998	17.221235	-0.036817	1.058763
150.475531	430.137948	17.226240	-0.036759	1.052369
150.530546	424.155815	17.231245	-0.036768	1.046009
150.412684	418.207176	17.236250	-0.036735	1.039612
150.299145	412.265397	17.241255	-0.036703	1.033184
150.204075	406.398921	17.246259	-0.036675	1.026802
150.182573	400.520265	17.251264	-0.036666	1.020380
150.087396	394.652858	17.256269	-0.036638	1.013916
150.143014	388.800013	17.261274	-0.036648	1.007457
149.941916	383.023690	17.266279	-0.036595	1.000989
149.965682	377.228967	17.271283	-0.036596	0.994504
149.635472	371.523653	17.276288	-0.036511	0.988005
149.506017	365.834335	17.281293	-0.036476	0.981522
149.516038	360.121561	17.286298	-0.036474	0.974999
149.315313	354.474570	17.291303	-0.036421	0.968463
149.280513	348.878640	17.296307	-0.036409	0.961978
149.154980	343.279221	17.301312	-0.036374	0.955425
148.982815	337.725689	17.306317	-0.036328	0.948870
148.981647	332.215393	17.311322	-0.036324	0.942358
148.880094	326.697806	17.316327	-0.036295	0.935771
148.975362	321.186577	17.321331	-0.036314	0.929188
149.029721	315.706008	17.326336	-0.036323	0.922586
148.846160	310.271602	17.331341	-0.036275	0.915939
149.022215	304.812738	17.336346	-0.036314	0.909296
148.629445	299.461461	17.341351	-0.036214	0.902605
148.598108	294.106589	17.346355	-0.036202	0.895944
148.504319	288.779529	17.351360	-0.036176	0.889253
148.484564	283.489292	17.356365	-0.036167	0.882576
148.358381	278.234641	17.361370	-0.036133	0.875868
147.996287	273.062647	17.366375	-0.036040	0.869157
148.174402	267.863977	17.371379	-0.036080	0.862491
147.951265	262.716629	17.376384	-0.036022	0.855742
147.767279	257.618172	17.381389	-0.035973	0.849013
147.720780	252.555233	17.386394	-0.035958	0.842311
147.663926	247.483270	17.391399	-0.035941	0.835541
147.521134	242.496050	17.396403	-0.035902	0.828808
147.298304	237.545946	17.401408	-0.035844	0.822050
147.233159	232.589175	17.406413	-0.035825	0.815267
147.027621	227.717414	17.411418	-0.035771	0.808509
146.967378	222.853510	17.416423	-0.035753	0.801742
147.189642	217.949246	17.421427	-0.035804	0.794936
147.041000	213.141228	17.426432	-0.035764	0.788109
146.959760	208.354225	17.431437	-0.035741	0.781270
146.908952	203.589755	17.436442	-0.035725	0.774411
146.997063	198.831801	17.441447	-0.035743	0.767539
146.912284	194.132573	17.446451	-0.035719	0.760643
146.622296	189.511100	17.451456	-0.035645	0.753741
146.599802	184.876278	17.456461	-0.035636	0.746832
146.448178	180.301331	17.461466	-0.035595	0.739911
146.267320	175.769329	17.466471	-0.035548	0.732982
146.225400	171.258317	17.471475	-0.035534	0.726060
145.881591	166.844780	17.476480	-0.035447	0.719133
145.774912	162.444473	17.481485	-0.035418	0.712230
145.789568	158.052718	17.486490	-0.035418	0.705310
145.533077	153.735403	17.491495	-0.035353	0.698358
145.332089	149.467018	17.496499	-0.035301	0.691432
145.277772	145.213443	17.501504	-0.035284	0.684505
145.187431	140.993553	17.506509	-0.035259	0.677552
145.245303	136.787137	17.511514	-0.035270	0.670597
145.059168	132.646042	17.516519	-0.035222	0.663600
145.132934	128.487354	17.521523	-0.035237	0.656583
145.273967	124.344412	17.526528	-0.035268	0.649540
145.003521	120.319768	17.531533	-0.035199	0.642488
145.009862	116.278605	17.536538	-0.035198	0.635422
144.836734	112.310299	17.541543	-0.035153	0.628345
144.685499	108.385851	17.546547	-0.035113	0.621274
144.533737	104.502319	17.551552	-0.035073	0.614195
144.205458	100.699072	17.556557	-0.034990	0.607119
144.139964	96.902591	17.561562	-0.034971	0.600066
143.852939	93.183408	17.566567	-0.034899	0.592995
143.795404	89.468219	17.571571	-0.034882	0.585930
143.658776	85.804731	17.576576	-0.034846	0.578849
143.547300	82.170496	17.581581	-0.034816	0.571747
143.571913	78.568888	17.586586	-0.034819	0.564673
143.397117	75.020435	17.591591	-0.034774	0.557538
143.390093	71.498576	17.596595	-0.034770	0.550430
143.275612	68.032923	17.601600	-0.034739	0.543302
143.099361	64.604466	17.606605	-0.034694	0.536132
142.988224	61.235285	17.611610	-0.034664	0.529017
142.732261	57.920144	17.616615	-0.034599	0.521860
142.430971	54.679468	17.621619	-0.034523	0.514746
142.227892	51.465831	17.626624	-0.034471	0.507633
142.065515	48.278842	17.631629	-0.034429	0.500497
141.932686	45.136741	17.636634	-0.034395	0.493372
141.569087	42.084622	17.641639	-0.034304	0.486246
141.373869	39.065363	17.646643	-0.034254	0.479168
141.172331	36.081076	17.651648	-0.034202	0.472063
141.089390	33.130274	17.656653	-0.034180	0.464985
140.889659	30.231798	17.661658	-0.034129	0.457870
140.719456	27.375180	17.666663	-0.034085	0.450760
140.571103	24.574317	17.671667	-0.034047	0.443688
140.502710	21.780657	17.676672	-0.034028	0.436560
140.188057	19.092741	17.681677	-0.033949	0.429463
139.960912	16.432505	17.686682	-0.033892	0.422366
139.907337	13.775316	17.691687	-0.033877	0.415246
139.828077	11.176467	17.696691	-0.033856	0.408149
139.529642	8.658896	17.701696	-0.033781	0.401032
139.214063	6.197330	17.706701	-0.033702	0.393937
139.038730	3.763579	17.711706	-0.033658	0.386871
138.826042	1.374629	17.716711	-0.033604	0.379783
138.442842	-0.928953	17.721715	-0.033508	0.372717
137.785578	-3.112217	17.726720	-0.033346	0.365718
137.376175	-5.292321	17.731725	-0.033245	0.358743
136.581454	-7.332555	17.736730	-0.033049	0.351835
121.466048	-6.373796	17.741735	-0.029356	0.345415
101.098687	-3.358370	17.746739	-0.024382	0.342244
98.351235	-3.569857	17.751744	-0.023711	0.339783
97.660310	-3.897731	17.756749	-0.023542	0.338254
91.658702	-3.138182	17.761754	-0.022076	0.336873
90.847995	-3.319684	17.766759	-0.021878	0.335740
89.593540	-3.279729	17.771763	-0.021571	0.335053
86.602723	-2.876284	17.776768	-0.020840	0.334442
86.888393	-3.068459	17.781773	-0.020910	0.333985
86.181341	-3.007211	17.786778	-0.020737	0.333726
84.606446	-2.811924	17.791783	-0.020353	0.333345
84.724223	-2.870416	17.796787	-0.020381	0.333226
84.431981	-2.885137	17.801792	-0.020310	0.332984
84.674481	-2.994610	17.806797	-0.020369	0.332776
84.040977	-2.916724	17.811802	-0.020214	0.332620
83.999072	-2.985378	17.816807	-0.020204	0.332361
84.142642	-3.080596	17.821811	-0.020239	0.332135
83.210728	-2.937893	17.826816	-0.020011	0.332000
83.074392	-2.994692	17.831821	-0.019978	0.331718
83.100039	-3.018537	17.836826	-0.019984	0.331654
82.269087	-2.929662	17.841831	-0.019781	0.331404
82.383359	-2.949619	17.846835	-0.019809	0.331412
81.863564	-2.911756	17.851840	-0.019682	0.331196
81.454065	-2.859348	17.856845	-0.019582	0.331101
81.347464	-2.835672	17.861850	-0.019556	0.331111
81.047139	-2.780809	17.866855	-0.019482	0.331097
81.088791	-2.785004	17.871859	-0.019492	0.331110
81.011616	-2.859995	17.876864	-0.019473	0.330805
80.745070	-2.820108	17.881869	-0.019408	0.330763
80.631942	-2.793593	17.886874	-0.019381	0.330778
80.663869	-2.845054	17.891879	-0.019388	0.330625
80.250291	-2.812818	17.896883	-0.019287	0.330459
80.298046	-2.823222	17.901888	-0.019299	0.330455
80.616000	-2.933090	17.906893	-0.019376	0.330294
80.293958	-2.914328	17.911898	-0.019298	0.330144
80.269975	-2.972183	17.916903	-0.019292	0.329931
80.292850	-3.002154	17.921907	-0.019297	0.329845
79.818814	-3.004974	17.926912	-0.019181	0.329519
79.881661	-3.044144	17.931917	-0.019197	0.329428
79.039190	-2.942320	17.936922	-0.018991	0.329213
79.184250	-2.974750	17.941927	-0.019026	0.329199
79.086280	-3.042702	17.946931	-0.019002	0.328902
78.572622	-2.943785	17.951936	-0.018877	0.328896
78.291991	-2.934837	17.956941	-0.018808	0.328739
77.630054	-2.819618	17.961946	-0.018646	0.328689
76.987953	-2.698137	17.966951	-0.018490	0.328674
76.818273	-2.661100	17.971955	-0.018448	0.328687
76.382323	-2.559657	17.976960	-0.018342	0.328741
76.727884	-2.583543	17.981965	-0.018426	0.328890
76.695939	-2.582324	17.986970	-0.018418	0.328873
76.654197	-2.631388	17.991975	-0.018408	0.328678
77.138619	-2.724846	17.996979	-0.018526	0.328683
76.805731	-2.659944	18.001984	-0.018445	0.328682
77.219959	-2.830034	18.006989	-0.018546	0.328379
77.584477	-2.938071	18.011994	-0.018635	0.328254
77.259457	-2.957907	18.016999	-0.018555	0.327968
77.216073	-3.026315	18.022003	-0.018545	0.327706
76.901223	-3.050560	18.027008	-0.018468	0.327412
76.693299	-3.075296	18.032013	-0.018417	0.327187
76.123220	-3.013117	18.037018	-0.018277	0.327017
75.502845	-2.964762	18.042023	-0.018126	0.326766
75.603809	-2.996610	18.047027	-0.018150	0.326725
74.695546	-2.895705	18.052032	-0.017928	0.326460
74.691638	-2.896452	18.057037	-0.017927	0.326455
74.317608	-2.820112	18.062042	-0.017836	0.326465
73.662416	-2.695425	18.067047	-0.017676	0.326452
73.661262	-2.692423	18.072051	-0.017676	0.326461
73.571885	-2.675350	18.077056	-0.017654	0.326460
73.730985	-2.764506	18.082061	-0.017693	0.326261
73.396484	-2.728550	18.087066	-0.017611	0.326159
73.364204	-2.725648	18.092071	-0.017603	0.326147
73.456715	-2.740711	18.097075	-0.017625	0.326157
72.955041	-2.701819	18.102080	-0.017503	0.325953
72.003869	-2.555250	18.107085	-0.017271	0.325816
72.217607	-2.593675	18.112090	-0.017323	0.325828
72.421436	-2.636823	18.117095	-0.017372	0.325816
72.620934	-2.673734	18.122099	-0.017421	0.325824
72.368787	-2.624605	18.127104	-0.017359	0.325823
72.595326	-2.748466	18.132109	-0.017415	0.325549
72.380603	-2.718142	18.137114	-0.017362	0.325509
72.188022	-2.761933	18.142119	-0.017315	0.325228
72.622389	-2.871631	18.147123	-0.017421	0.325143
72.248555	-2.871252	18.152128	-0.017330	0.324892
72.583875	-3.012364	18.157133	-0.017411	0.324632
72.237823	-3.005361	18.162138	-0.017327	0.324422
71.540771	-2.927981	18.167143	-0.017156	0.324217
71.590068	-3.015744	18.172147	-0.017168	0.323947
70.941751	-2.914076	18.177152	-0.017010	0.323859
70.224394	-2.821109	18.182157	-0.016835	0.323694
70.352132	-2.842382	18.187162	-0.016866	0.323707
69.813085	-2.771663	18.192167	-0.016734	0.323585
68.944699	-2.664577	18.197171	-0.016522	0.323366
69.158908	-2.689688	18.202176	-0.016574	0.323425
68.689431	-2.615909	18.207181	-0.016460	0.323361
68.691594	-2.613702	18.212186	-0.016460	0.323370
68.740038	-2.626040	18.217191	-0.016472	0.323360
68.952748	-2.666312	18.222195	-0.016524	0.323365
68.617701	-2.600379	18.227200	-0.016442	0.323366
68.686178	-2.639294	18.232205	-0.016459	0.323277
68.129201	-2.595722	18.237210	-0.016322	0.323050
68.124996	-2.597559	18.242215	-0.016321	0.323040
68.325891	-2.635718	18.247219	-0.016370	0.323045
68.397599	-2.706565	18.252224	-0.016388	0.322848
68.138107	-2.692712	18.257229	-0.016324	0.322719
68.085726	-2.739264	18.262234	-0.016312	0.322522
67.351340	-2.624180	18.267239	-0.016132	0.322421
67.471180	-2.657188	18.272243	-0.016161	0.322388
67.167147	-2.680144	18.277248	-0.016087	0.322101
67.359841	-2.719921	18.282253	-0.016134	0.322094
67.500344	-2.818125	18.287258	-0.016168	0.321848
67.273577	-2.816719	18.292263	-0.016113	0.321698
67.065756	-2.839553	18.297267	-0.016062	0.321476
67.105734	-2.906548	18.302272	-0.016072	0.321270
66.687190	-2.870980	18.307277	-0.015969	0.321107
66.016485	-2.815052	18.312282	-0.015805	0.320843
65.782688	-2.773591	18.317287	-0.015748	0.320828
65.665211	-2.799941	18.322291	-0.015719	0.320655
64.981800	-2.703517	18.327296	-0.015553	0.320524
64.755579	-2.661677	18.332301	-0.015497	0.320515
64.341195	-2.577042	18.337306	-0.015396	0.320527
63.893806	-2.491372	18.342311	-0.015287	0.320519
64.422791	-2.593271	18.347315	-0.015416	0.320525
64.137510	-2.537007	18.352320	-0.015346	0.320526
63.798037	-2.559256	18.357325	-0.015263	0.320216
63.677317	-2.536351	18.362330	-0.015234	0.320213
63.704043	-2.544911	18.367335	-0.015240	0.320201
63.949216	-2.591674	18.372339	-0.015300	0.320206
63.761277	-2.609664	18.377344	-0.015254	0.320014
63.531014	-2.597445	18.382349	-0.015198	0.319898
63.991324	-2.720080	18.387354	-0.015310	0.319785
63.551565	-2.692593	18.392359	-0.015202	0.319579
63.756274	-2.793107	18.397363	-0.015252	0.319367
63.145456	-2.699565	18.402368	-0.015103	0.319275
63.038909	-2.768614	18.407373	-0.015077	0.318959
63.180265	-2.809530	18.412378	-0.015111	0.318912
62.603508	-2.747492	18.417383	-0.014971	0.318733
62.692453	-2.825404	18.422387	-0.014992	0.318520
61.829689	-2.687854	18.427392	-0.014781	0.318408
61.766972	-2.707238	18.432397	-0.014766	0.318297
61.338133	-2.680967	18.437402	-0.014661	0.318093
61.124607	-2.643299	18.442407	-0.014609	0.318078
61.298371	-2.675461	18.447411	-0.014651	0.318085
61.085253	-2.713127	18.452416	-0.014599	0.317805
60.819167	-2.673515	18.457421	-0.014534	0.317760
60.737192	-2.657896	18.462426	-0.014514	0.317758
60.565901	-2.709089	18.467431	-0.014472	0.317459
60.512137	-2.697161	18.472435	-0.014459	0.317464
59.978583	-2.639232	18.477440	-0.014329	0.317299
59.442728	-2.581593	18.482445	-0.014198	0.317131
59.692248	-2.626421	18.487450	-0.014259	0.317145
59.205399	-2.534568	18.492455	-0.014140	0.317133
58.848961	-2.462664	18.497459	-0.014053	0.317139
58.787910	-2.448871	18.502464	-0.014038	0.317146
58.903004	-2.559576	18.507469	-0.014066	0.316834
58.615638	-2.503438	18.512474	-0.013995	0.316833
58.202705	-2.425311	18.517479	-0.013895	0.316823
58.887937	-2.569435	18.522483	-0.014062	0.316788
58.859493	-2.639666	18.527488	-0.014055	0.316520
58.766113	-2.657253	18.532493	-0.014032	0.316393
58.455404	-2.646381	18.537498	-0.013956	0.316215
58.755430	-2.765106	18.542503	-0.014029	0.316003
58.601106	-2.789273	18.547507	-0.013991	0.315810
58.277932	-2.795348	18.552512	-0.013912	0.315563
58.481038	-2.912679	18.557517	-0.013962	0.315288
57.991755	-2.866206	18.562522	-0.013842	0.315112
56.761277	-2.674368	18.567527	-0.013542	0.314935
56.831729	-2.719746	18.572531	-0.013559	0.314823
55.985294	-2.610570	18.577536	-0.013352	0.314620
55.838106	-2.584256	18.582541	-0.013316	0.314611
55.691112	-2.552781	18.587546	-0.013280	0.314620
55.595285	-2.536865	18.592551	-0.013257	0.314610
55.929892	-2.600580	18.597555	-0.013338	0.314617
55.636861	-2.561864	18.602560	-0.013267	0.314550
54.976688	-2.502861	18.607565	-0.013105	0.314298
54.985917	-2.500116	18.612570	-0.013108	0.314314
54.818046	-2.470820	18.617575	-0.013067	0.314301
55.177241	-2.540276	18.622579	-0.013154	0.314305
55.058191	-2.573249	18.627584	-0.013125	0.314104
54.679666	-2.530270	18.632589	-0.013033	0.313992
54.783064	-2.561098	18.637594	-0.013058	0.313954
54.344587	-2.528104	18.642599	-0.012951	0.313765
54.505506	-2.559417	18.647603	-0.012990	0.313766
54.058060	-2.545324	18.652608	-0.012880	0.313502
53.729361	-2.502374	18.657613	-0.012800	0.313425
54.193372	-2.608009	18.662618	-0.012913	0.313373
54.019133	-2.648087	18.667623	-0.012871	0.313107
53.995244	-2.691668	18.672627	-0.012865	0.312934
53.067168	-2.547066	18.677632	-0.012638	0.312800
53.376451	-2.656376	18.682637	-0.012714	0.312625
53.255848	-2.667557	18.687642	-0.012684	0.312500
52.993590	-2.674012	18.692647	-0.012620	0.312293
52.839257	-2.678799	18.697651	-0.012582	0.312167
52.732174	-2.715263	18.702656	-0.012556	0.311960
52.091505	-2.620200	18.707661	-0.012399	0.311850
52.093837	-2.647370	18.712666	-0.012400	0.311754
51.714840	-2.633326	18.717671	-0.012307	0.311537
51.973804	-2.689074	18.722675	-0.012370	0.311519
51.452863	-2.663751	18.727680	-0.012243	0.311242
51.390008	-2.654686	18.732685	-0.012228	0.311230
51.315337	-2.693736	18.737690	-0.012209	0.311037
50.306702	-2.533405	18.742695	-0.011963	0.310901
50.198038	-2.511706	18.747699	-0.011936	0.310902
50.117385	-2.494323	18.752704	-0.011917	0.310908
49.926303	-2.459465	18.757709	-0.011870	0.310898
49.629204	-2.459423	18.762714	-0.011797	0.310688
48.916060	-2.315612	18.767719	-0.011623	0.310702
49.343098	-2.401764	18.772723	-0.011727	0.310693
49.048970	-2.371195	18.777728	-0.011655	0.310595
49.544287	-2.471715	18.782733	-0.011776	0.310583
50.240158	-2.634739	18.787738	-0.011946	0.310487
49.716413	-2.592013	18.792743	-0.011818	0.310271
49.975869	-2.715461	18.797747	-0.011881	0.310008
49.737993	-2.722871	18.802752	-0.011823	0.309813
49.366180	-2.713791	18.807757	-0.011732	0.309581
49.460550	-2.796853	18.812762	-0.011755	0.309347
48.965141	-2.786706	18.817767	-0.011634	0.309032
48.782036	-2.775243	18.822771	-0.011589	0.308943
48.248422	-2.702740	18.827776	-0.011459	0.308826
48.281927	-2.782136	18.832781	-0.011467	0.308561
47.614366	-2.670211	18.837786	-0.011304	0.308492
46.698574	-2.494133	18.842791	-0.011080	0.308479
46.715009	-2.554611	18.847795	-0.011084	0.308271
46.091797	-2.417142	18.852800	-0.010932	0.308326
45.984360	-2.443458	18.857805	-0.010906	0.308153
46.122719	-2.424933	18.862810	-0.010940	0.308319
45.604323	-2.366265	18.867815	-0.010813	0.308163
46.171962	-2.478055	18.872819	-0.010951	0.308161
45.926157	-2.427351	18.877824	-0.010891	0.308170
46.006450	-2.446977	18.882829	-0.010911	0.308156
46.335286	-2.595010	18.887834	-0.010991	0.307852
46.327483	-2.618493	18.892839	-0.010989	0.307760
45.858378	-2.586060	18.897843	-0.010875	0.307543
45.903609	-2.650113	18.902848	-0.010886	0.307342
45.230290	-2.553788	18.907853	-0.010721	0.307211
45.011557	-2.563999	18.912858	-0.010668	0.307017
44.324244	-2.459293	18.917863	-0.010500	0.306907
44.495564	-2.493686	18.922867	-0.010541	0.306904
44.115467	-2.417207	18.927872	-0.010449	0.306911
43.847516	-2.446835	18.932877	-0.010383	0.306610
44.030908	-2.485721	18.937882	-0.010428	0.306599
44.130253	-2.507998	18.942887	-0.010452	0.306589
44.167483	-2.594980	18.947891	-0.010461	0.306297
44.155115	-2.608765	18.952896	-0.010458	0.306238
44.274932	-2.711872	18.957901	-0.010487	0.305946
44.685255	-2.865373	18.962906	-0.010587	0.305679
43.988694	-2.817827	18.967911	-0.010417	0.305352
43.665482	-2.812564	18.972915	-0.010338	0.305138
43.034325	-2.718405	18.977920	-0.010184	0.305029
42.349394	-2.670011	18.982925	-0.010016	0.304712
41.716225	-2.547622	18.987930	-0.009862	0.304705
40.809115	-2.371954	18.992935	-0.009640	0.304697
40.556280	-2.322433	18.997939	-0.009578	0.304696
40.406682	-2.206807	19.002944	-0.009542	0.305013
40.582460	-2.239736	19.007949	-0.009585	0.305019
40.780851	-2.274506	19.012954	-0.009633	0.305034
40.443552	-2.210822	19.017959	-0.009551	0.305025
40.833102	-2.291195	19.022963	-0.009646	0.305010
40.939545	-2.394746	19.027968	-0.009672	0.304706
41.274293	-2.463334	19.032973	-0.009753	0.304695
41.582251	-2.597580	19.037978	-0.009828	0.304423
41.633111	-2.673701	19.042983	-0.009841	0.304179
41.529390	-2.717979	19.047987	-0.009815	0.303941
41.366762	-2.764983	19.052992	-0.009775	0.303650
40.977296	-2.770485	19.057997	-0.009680	0.303347
40.379267	-2.701606	19.063002	-0.009534	0.303168
39.749188	-2.660961	19.068007	-0.009380	0.302860
39.970704	-2.722964	19.073011	-0.009434	0.302792
39.199574	-2.632194	19.078016	-0.009246	0.302567
38.839891	-2.563995	19.083021	-0.009158	0.302558
38.323778	-2.492156	19.088026	-0.009032	0.302449
37.423184	-2.323113	19.093031	-0.008812	0.302420
38.254139	-2.502360	19.098035	-0.009015	0.302360
37.279276	-2.343737	19.103040	-0.008777	0.302239
37.070205	-2.306986	19.108045	-0.008725	0.302223
37.486069	-2.384715	19.113050	-0.008827	0.302237
37.374879	-2.364953	19.118055	-0.008800	0.302229
37.693638	-2.427518	19.123059	-0.008878	0.302229
37.800891	-2.487467	19.128064	-0.008904	0.302085
37.637441	-2.502629	19.133069	-0.008864	0.301909
37.895257	-2.613036	19.138074	-0.008927	0.301687
37.532268	-2.585793	19.143079	-0.008838	0.301523
37.063993	-2.554625	19.148083	-0.008723	0.301297
37.035171	-2.589201	19.153088	-0.008716	0.301147
36.494225	-2.532467	19.158093	-0.008584	0.300963
36.807813	-2.641744	19.163098	-0.008661	0.300785
36.146728	-2.547734	19.168103	-0.008499	0.300652
35.796860	-2.533531	19.173107	-0.008414	0.300448
35.135840	-2.431943	19.178112	-0.008252	0.300343
34.906602	-2.390121	19.183117	-0.008196	0.300331
35.011086	-2.407708	19.188122	-0.008221	0.300342
34.835692	-2.374384	19.193127	-0.008179	0.300338
34.850861	-2.435690	19.198131	-0.008182	0.300120
34.775189	-2.440499	19.203136	-0.008164	0.300046
34.926218	-2.491645	19.208141	-0.008200	0.299966
34.787629	-2.531476	19.213146	-0.008167	0.299715
34.708873	-2.534662	19.218151	-0.008147	0.299645
34.491741	-2.556601	19.223155	-0.008094	0.299403
34.552991	-2.607130	19.228160	-0.008109	0.299259
33.883512	-2.521109	19.233165	-0.007945	0.299089
34.066917	-2.591442	19.238170	-0.007990	0.298960
33.764772	-2.558729	19.243175	-0.007916	0.298860
33.361117	-2.551416	19.248179	-0.007818	0.298590
32.784403	-2.452256	19.253184	-0.007677	0.298537
32.675364	-2.434710	19.258189	-0.007650	0.298522
32.567761	-2.467705	19.263194	-0.007624	0.298319
31.685347	-2.323381	19.268199	-0.007408	0.298210
31.712898	-2.329730	19.273203	-0.007415	0.298206
32.048793	-2.391993	19.278208	-0.007497	0.298220
31.963208	-2.378792	19.283213	-0.007476	0.298206
32.038872	-2.476116	19.288218	-0.007494	0.297896
32.047764	-2.479476	19.293223	-0.007496	0.297890
32.210372	-2.589785	19.298227	-0.007536	0.297595
31.993251	-2.587913	19.303232	-0.007483	0.297441
31.260769	-2.492739	19.308237	-0.007304	0.297257
31.559518	-2.605636	19.313242	-0.007377	0.297053
30.982922	-2.518776	19.318247	-0.007236	0.296953
30.644930	-2.522461	19.323251	-0.007153	0.296688
30.451304	-2.494868	19.328256	-0.007106	0.296649
30.031832	-2.416608	19.333261	-0.007003	0.296633
29.587834	-2.407539	19.338266	-0.006895	0.296338
29.286586	-2.350330	19.343271	-0.006821	0.296330
29.386369	-2.369744	19.348275	-0.006846	0.296331
29.275668	-2.346256	19.353280	-0.006819	0.296337
29.104649	-2.321582	19.358285	-0.006777	0.296304
29.095876	-2.398940	19.363290	-0.006775	0.296004
28.950956	-2.370880	19.368295	-0.006739	0.296002
29.054375	-2.417438	19.373299	-0.006764	0.295903
28.926208	-2.447698	19.378304	-0.006733	0.295692
29.214736	-2.544536	19.383309	-0.006803	0.295540
28.937596	-2.534680	19.388314	-0.006735	0.295371
28.734920	-2.567310	19.393319	-0.006686	0.295095
28.714026	-2.597264	19.398323	-0.006681	0.294966
28.115252	-2.536629	19.403328	-0.006534	0.294749
28.237947	-2.621278	19.408333	-0.006564	0.294519
28.003243	-2.598924	19.413338	-0.006507	0.294428
27.342276	-2.548327	19.418343	-0.006345	0.294126
27.082620	-2.498629	19.423347	-0.006282	0.294121
26.699036	-2.439309	19.428352	-0.006188	0.294060
25.990100	-2.346490	19.433357	-0.006015	0.293883
26.017137	-2.348562	19.438362	-0.006022	0.293896
25.555844	-2.259549	19.443367	-0.005909	0.293889
25.541547	-2.258860	19.448371	-0.005905	0.293881
25.652048	-2.277082	19.453376	-0.005932	0.293894
25.618456	-2.273608	19.458381	-0.005924	0.293882
25.597460	-2.327751	19.463386	-0.005919	0.293660
25.148548	-2.267910	19.468391	-0.005809	0.293552
25.537891	-2.344929	19.473395	-0.005904	0.293549
25.518058	-2.399126	19.478400	-0.005899	0.293327
25.129010	-2.347963	19.483405	-0.005804	0.293230
25.523694	-2.485321	19.488410	-0.005900	0.293001
25.449932	-2.513813	19.493415	-0.005882	0.292837
25.315269	-2.545763	19.498419	-0.005849	0.292613
25.414098	-2.643072	19.503424	-0.005873	0.292314
25.398615	-2.709659	19.508429	-0.005869	0.292046
24.900659	-2.685158	19.513434	-0.005748	0.291765
24.153004	-2.576359	19.518439	-0.005565	0.291619
23.745566	-2.564941	19.523443	-0.005466	0.291355
23.612687	-2.535984	19.528448	-0.005433	0.291366
22.732454	-2.451969	19.533453	-0.005218	0.291023
22.570504	-2.418634	19.538458	-0.005178	0.291029
22.030726	-2.313512	19.543463	-0.005047	0.291026
21.703341	-2.250420	19.548467	-0.004967	0.291021
21.477840	-2.203250	19.553472	-0.004911	0.291032
21.569920	-2.226368	19.558477	-0.004934	0.291012
21.678848	-2.244135	19.563482	-0.004960	0.291026
21.437549	-2.196800	19.568487	-0.004901	0.291026
21.843094	-2.278916	19.573491	-0.005000	0.291016
21.895342	-2.344096	19.578496	-0.005013	0.290804
21.382018	-2.269848	19.583501	-0.004888	0.290702
21.713259	-2.363081	19.588506	-0.004969	0.290593
21.672428	-2.407107	19.593511	-0.004958	0.290392
21.772788	-2.485185	19.598515	-0.004983	0.290166
21.306938	-2.424725	19.603520	-0.004869	0.290046
20.933789	-2.424892	19.608525	-0.004778	0.289762
21.650262	-2.607874	19.613530	-0.004953	0.289598
21.067090	-2.551053	19.618535	-0.004810	0.289374
20.761706	-2.549585	19.623539	-0.004736	0.289147
20.834088	-2.609949	19.628544	-0.004753	0.288968
20.261508	-2.548225	19.633549	-0.004613	0.288771
19.554984	-2.451756	19.638554	-0.004441	0.288607
19.480275	-2.464817	19.643559	-0.004422	0.288499
18.987762	-2.424075	19.648563	-0.004302	0.288281
18.942063	-2.410855	19.653568	-0.004291	0.288297
18.902712	-2.429986	19.658573	-0.004281	0.288193
18.468687	-2.401384	19.663578	-0.004175	0.287972
18.092082	-2.326733	19.668583	-0.004083	0.287975
17.817021	-2.274736	19.673587	-0.004016	0.287967
17.984227	-2.309613	19.678592	-0.004057	0.287958
17.849281	-2.358655	19.683597	-0.004023	0.287664
17.561688	-2.300021	19.688602	-0.003953	0.287672
17.297918	-2.248327	19.693607	-0.003889	0.287672
17.470838	-2.343710	19.698611	-0.003931	0.287432
16.972806	-2.266428	19.703616	-0.003809	0.287352
16.743311	-2.224807	19.708621	-0.003753	0.287338
17.089211	-2.312072	19.713626	-0.003838	0.287262
16.847447	-2.323596	19.718631	-0.003778	0.287032
16.962909	-2.364138	19.723635	-0.003807	0.286962
16.752885	-2.383299	19.728640	-0.003755	0.286725
17.047933	-2.477381	19.733645	-0.003827	0.286584
16.753974	-2.463036	19.738650	-0.003755	0.286414
16.710293	-2.537219	19.743655	-0.003744	0.286089
16.979314	-2.645857	19.748659	-0.003810	0.285870
16.428622	-2.601702	19.753664	-0.003676	0.285619
16.040997	-2.580756	19.758669	-0.003581	0.285402
15.883357	-2.614728	19.763674	-0.003542	0.285147
15.185684	-2.507408	19.768679	-0.003372	0.285030
14.247038	-2.377860	19.773683	-0.003142	0.284814
14.244257	-2.373385	19.778688	-0.003142	0.284829
14.098776	-2.347178	19.783693	-0.003106	0.284820
13.825812	-2.291893	19.788698	-0.003039	0.284826
13.368334	-2.207531	19.793703	-0.002928	0.284804
13.351052	-2.279175	19.798707	-0.002923	0.284509
13.378470	-2.281650	19.803712	-0.002930	0.284520
13.242592	-2.257291	19.808717	-0.002897	0.284511
13.330719	-2.272638	19.813722	-0.002918	0.284518
13.242319	-2.291183	19.818727	-0.002897	0.284376
12.892309	-2.267083	19.823731	-0.002811	0.284200
13.056141	-2.296830	19.828736	-0.002851	0.284209
12.787709	-2.300946	19.833741	-0.002785	0.283985
12.563653	-2.263805	19.838746	-0.002731	0.283958
12.812812	-2.354712	19.843751	-0.002791	0.283792
12.822686	-2.400629	19.848755	-0.002794	0.283618
12.797269	-2.460701	19.853760	-0.002787	0.283360
12.389504	-2.417323	19.858765	-0.002688	0.283214
12.532352	-2.502739	19.863770	-0.002723	0.282987
12.621172	-2.591204	19.868775	-0.002744	0.282705
12.020144	-2.538095	19.873779	-0.002597	0.282447
11.614199	-2.483849	19.878784	-0.002498	0.282346
11.595142	-2.556273	19.883789	-0.002493	0.282043
11.529959	-2.580650	19.888794	-0.002477	0.281895
10.336179	-2.384300	19.893799	-0.002186	0.281743
10.298064	-2.378902	19.898803	-0.002176	0.281734
9.720636	-2.338909	19.903808	-0.002035	0.281442
9.157038	-2.232511	19.908813	-0.001898	0.281424
9.096017	-2.219825	19.913818	-0.001883	0.281427
8.940015	-2.188754	19.918823	-0.001844	0.281429
8.857865	-2.174851	19.923827	-0.001824	0.281420
8.870220	-2.173679	19.928832	-0.001827	0.281434
8.917243	-2.186316	19.933837	-0.001839	0.281420
8.988315	-2.197690	19.938842	-0.001856	0.281430
8.845054	-2.232298	19.943847	-0.001821	0.281180
9.134247	-2.310606	19.948851	-0.001892	0.281094
9.638638	-2.466869	19.953856	-0.002015	0.280865
9.250737	-2.456844	19.958861	-0.001920	0.280601
8.723067	-2.392510	19.963866	-0.001791	0.280443
8.388203	-2.394958	19.968871	-0.001709	0.280170
8.354459	-2.420009	19.973875	-0.001701	0.280043
7.729042	-2.345739	19.978880	-0.001548	0.279848
7.897388	-2.409630	19.983885	-0.001589	0.279724
7.896002	-2.456666	19.988890	-0.001589	0.279534
7.710342	-2.469373	19.993895	-0.001543	0.279337
7.154247	-2.389425	19.998899	-0.001407	0.279219
7.213641	-2.443358	20.003904	-0.001422	0.279049
6.846674	-2.385110	20.008909	-0.001332	0.278993
6.764416	-2.440796	20.013914	-0.001312	0.278704
6.286991	-2.355817	20.018919	-0.001195	0.278668
5.849523	-2.323850	20.023923	-0.001088	0.278451
5.397481	-2.259563	20.028928	-0.000978	0.278352
5.224834	-2.228892	20.033933	-0.000936	0.278339
5.307960	-2.244246	20.038938	-0.000956	0.278343
4.984029	-2.178762	20.043943	-0.000877	0.278350
4.952921	-2.241602	20.048947	-0.000869	0.278072
5.004836	-2.260449	20.053952	-0.000882	0.278037
4.927754	-2.248957	20.058957	-0.000863	0.278022
5.013580	-2.335179	20.063962	-0.000884	0.277741
4.940998	-2.328807	20.068967	-0.000866	0.277709
4.838754	-2.386879	20.073971	-0.000841	0.277393
5.108384	-2.477391	20.078976	-0.000907	0.277241
4.446933	-2.387316	20.083981	-0.000745	0.277080
4.571684	-2.486960	20.088986	-0.000775	0.276775
4.444668	-2.504700	20.093991	-0.000744	0.276602
3.699905	-2.393028	20.098995	-0.000562	0.276461
3.313204	-2.388982	20.104000	-0.000468	0.276169
2.785644	-2.294693	20.109005	-0.000339	0.276131
2.769475	-2.290560	20.114010	-0.000335	0.276134
2.548595	-2.305592	20.119015	-0.000281	0.275897
2.039502	-2.226591	20.124019	-0.000156	0.275811
1.888931	-2.192223	20.129024	-0.000120	0.275830
1.804461	-2.178558	20.134029	-0.000099	0.275818
2.058558	-2.242554	20.139034	-0.000161	0.275761
