Sun Feb 26 15:56:19 2017

Number of Points = 3625
Depth (nm)	Load (µN)	Time (s)	Depth (V)	Load (V)
-0.027583	0.006137	0.000000	0.000008	0.283960

0.083880	-0.013449	0.005005	-0.000019	0.283969
0.098016	-0.016409	0.010010	-0.000022	0.283968
0.046414	-0.007604	0.015014	-0.000010	0.283963
0.124503	-0.020428	0.020019	-0.000029	0.283973
0.146531	-0.027807	0.025024	-0.000034	0.283960
0.237520	-0.118322	0.030029	-0.000056	0.283673
0.158469	-0.112258	0.035034	-0.000037	0.283636
0.190358	-0.151952	0.040038	-0.000045	0.283503
0.211589	-0.202860	0.045043	-0.000050	0.283318
0.216484	-0.235340	0.050048	-0.000051	0.283193
0.185782	-0.279205	0.055053	-0.000043	0.282995
0.152492	-0.315525	0.060058	-0.000035	0.282825
0.044301	-0.328989	0.065062	-0.000009	0.282687
0.165498	-0.427085	0.070067	-0.000038	0.282392
0.108479	-0.465135	0.075072	-0.000024	0.282196
0.025797	-0.493349	0.080077	-0.000004	0.282019
-0.046088	-0.548708	0.085082	0.000014	0.281743
0.118163	-0.641441	0.090086	-0.000026	0.281502
-0.008878	-0.678337	0.095091	0.000005	0.281255
-0.058082	-0.738680	0.100096	0.000017	0.280975
-0.109233	-0.794857	0.105101	0.000029	0.280711
-0.033589	-0.882220	0.110106	0.000011	0.280421
-0.112716	-0.941947	0.115110	0.000030	0.280119
0.010871	-1.044179	0.120115	0.000000	0.279806
0.035732	-1.137900	0.125120	-0.000006	0.279450
-0.177240	-1.170271	0.130125	0.000046	0.279152
-0.061769	-1.264777	0.135130	0.000018	0.278863
-0.171799	-1.340496	0.140134	0.000045	0.278471
-0.003767	-1.461563	0.145139	0.000004	0.278115
-0.132500	-1.541897	0.150144	0.000036	0.277689
-0.179871	-1.634132	0.155149	0.000047	0.277278
-0.353011	-1.691491	0.160154	0.000090	0.276908
-0.535188	-1.749317	0.165158	0.000134	0.276528
-0.863608	-1.779327	0.170163	0.000215	0.276144
-1.271484	-1.785913	0.175168	0.000314	0.275792
-1.820533	-1.747554	0.180173	0.000449	0.275508
-2.059244	-1.760339	0.185178	0.000507	0.275265
-2.294450	-1.757165	0.190182	0.000564	0.275090
-2.460815	-1.773327	0.195187	0.000605	0.274890
-2.703735	-1.796055	0.200192	0.000664	0.274602
-2.750807	-1.804638	0.205197	0.000676	0.274529
-3.127577	-1.796422	0.210202	0.000768	0.274260
-3.025681	-1.838114	0.215206	0.000743	0.274171
-3.326095	-1.810607	0.220211	0.000817	0.274042
-3.131562	-1.894535	0.225216	0.000769	0.273855
-3.373501	-1.883551	0.230221	0.000828	0.273705
-3.450790	-1.924953	0.235226	0.000847	0.273473
-3.635069	-1.910992	0.240230	0.000892	0.273381
-3.774149	-1.950876	0.245235	0.000926	0.273105
-4.184158	-1.880298	0.250240	0.001027	0.273064
-4.247484	-1.915499	0.255245	0.001042	0.272868
-4.662937	-1.858218	0.260250	0.001144	0.272768
-4.783639	-1.836984	0.265254	0.001173	0.272758
-4.843560	-1.826909	0.270259	0.001188	0.272750
-5.506118	-1.773491	0.275264	0.001350	0.272434
-5.788863	-1.717353	0.280269	0.001419	0.272437
-5.921847	-1.634275	0.285274	0.001451	0.272671
-5.336199	-1.790150	0.290278	0.001308	0.272503
-5.714226	-1.729877	0.295283	0.001401	0.272445
-6.048692	-1.667522	0.300288	0.001482	0.272431
-5.504200	-1.772581	0.305293	0.001349	0.272439
-5.497143	-1.772528	0.310298	0.001348	0.272445
-5.817755	-1.770657	0.315302	0.001426	0.272193
-6.144550	-1.721724	0.320307	0.001506	0.272130
-6.129132	-1.727057	0.325312	0.001502	0.272120
-5.832102	-1.784030	0.330317	0.001430	0.272126
-6.118419	-1.745931	0.335322	0.001500	0.272051
-6.216254	-1.785661	0.340326	0.001523	0.271807
-5.825100	-1.860203	0.345331	0.001428	0.271817
-6.308335	-1.816661	0.350336	0.001546	0.271604
-6.374948	-1.826088	0.355341	0.001562	0.271511
-5.971022	-1.920148	0.360346	0.001464	0.271450
-6.659333	-1.852556	0.365350	0.001632	0.271170
-6.750570	-1.831160	0.370355	0.001654	0.271185
-6.620820	-1.884058	0.375360	0.001623	0.271071
-6.768762	-1.906190	0.380365	0.001659	0.270859
-7.251405	-1.809673	0.385370	0.001777	0.270866
-7.537549	-1.756154	0.390374	0.001847	0.270855
-7.456814	-1.815821	0.395379	0.001827	0.270673
-7.957809	-1.749612	0.400384	0.001949	0.270539
-8.126730	-1.714879	0.405389	0.001991	0.270545
-8.144405	-1.709567	0.410394	0.001995	0.270553
-8.214825	-1.698797	0.415398	0.002012	0.270540
-8.278132	-1.681820	0.420403	0.002028	0.270559
-8.269457	-1.686497	0.425408	0.002026	0.270546
-7.872380	-1.763510	0.430413	0.001929	0.270551
-7.996610	-1.793763	0.435418	0.001959	0.270324
-8.430487	-1.728523	0.440422	0.002065	0.270240
-8.281809	-1.754838	0.445427	0.002029	0.270252
-8.227747	-1.793224	0.450432	0.002016	0.270137
-8.612945	-1.770327	0.455437	0.002110	0.269917
-8.406343	-1.809519	0.460442	0.002059	0.269923
-8.285494	-1.869381	0.465446	0.002030	0.269773
-8.822780	-1.801962	0.470451	0.002161	0.269614
-8.889977	-1.791393	0.475456	0.002178	0.269603
-8.914139	-1.817007	0.480461	0.002184	0.269476
-9.468679	-1.750073	0.485466	0.002319	0.269301
-9.163462	-1.812691	0.490470	0.002244	0.269290
-9.013346	-1.839304	0.495475	0.002208	0.269302
-9.621460	-1.776630	0.500480	0.002356	0.269065
-9.572652	-1.785537	0.505485	0.002345	0.269068
-9.556893	-1.787937	0.510490	0.002341	0.269070
-9.605946	-1.821553	0.515494	0.002353	0.268890
-10.056844	-1.768925	0.520499	0.002463	0.268739
-10.051237	-1.772320	0.525504	0.002462	0.268730
-10.048601	-1.771740	0.530509	0.002461	0.268734
-10.276024	-1.740135	0.535514	0.002517	0.268679
-10.728302	-1.716667	0.540518	0.002627	0.268406
-10.615591	-1.735487	0.545523	0.002600	0.268420
-10.879490	-1.685148	0.550528	0.002664	0.268413
-10.662566	-1.726933	0.555533	0.002611	0.268417
-10.616210	-1.735142	0.560538	0.002600	0.268420
-10.446870	-1.830616	0.565542	0.002559	0.268160
-10.937350	-1.748568	0.570547	0.002678	0.268100
-11.072825	-1.724365	0.575552	0.002711	0.268090
-10.694263	-1.833797	0.580557	0.002619	0.267943
-11.306669	-1.748234	0.585562	0.002769	0.267797
-11.408203	-1.730870	0.590566	0.002793	0.267786
-11.331482	-1.742865	0.595571	0.002775	0.267799
-11.474159	-1.772505	0.600576	0.002810	0.267557
-11.375376	-1.813743	0.605581	0.002786	0.267465
-11.450920	-1.797698	0.610586	0.002804	0.267470
-11.596076	-1.826808	0.615590	0.002840	0.267228
-11.872968	-1.788187	0.620595	0.002907	0.267162
-11.763595	-1.812531	0.625600	0.002881	0.267150
-11.603739	-1.900112	0.630605	0.002842	0.266913
-12.285223	-1.783296	0.635610	0.003008	0.266841
-12.334588	-1.776388	0.640614	0.003020	0.266830
-12.136925	-1.849218	0.645619	0.002972	0.266686
-13.071990	-1.701024	0.650624	0.003200	0.266537
-13.061323	-1.703847	0.655629	0.003198	0.266533
-13.003818	-1.713628	0.660634	0.003184	0.266540
-12.936924	-1.729205	0.665638	0.003167	0.266529
-12.873814	-1.738095	0.670643	0.003152	0.266544
-13.057660	-1.741608	0.675648	0.003197	0.266377
-13.289210	-1.736849	0.680653	0.003254	0.266205
-13.337297	-1.725738	0.685658	0.003265	0.266212
-13.519072	-1.691853	0.690662	0.003310	0.266204
-13.632618	-1.667948	0.695667	0.003338	0.266211
-13.641719	-1.684604	0.700672	0.003340	0.266133
-13.688267	-1.733372	0.705677	0.003351	0.265888
-13.601640	-1.749096	0.710682	0.003330	0.265894
-13.185623	-1.842944	0.715686	0.003229	0.265843
-13.245487	-1.894627	0.720691	0.003243	0.265574
-13.213034	-1.926383	0.725696	0.003235	0.265467
-13.615209	-1.894523	0.730701	0.003334	0.265267
-13.590061	-1.930491	0.735706	0.003328	0.265136
-14.317204	-1.834767	0.740710	0.003505	0.264936
-14.361305	-1.822977	0.745715	0.003516	0.264949
-14.703922	-1.757123	0.750720	0.003600	0.264943
-14.937284	-1.771041	0.755725	0.003657	0.264689
-15.578855	-1.621553	0.760730	0.003813	0.264788
-15.565593	-1.616814	0.765734	0.003810	0.264819
-15.505828	-1.598298	0.770739	0.003796	0.264948
-15.882172	-1.526147	0.775744	0.003888	0.264940
-15.587139	-1.584372	0.780749	0.003816	0.264939
-15.394183	-1.628687	0.785754	0.003768	0.264912
-15.459866	-1.681612	0.790758	0.003785	0.264632
-15.093546	-1.751602	0.795763	0.003695	0.264641
-15.021240	-1.774831	0.800768	0.003677	0.264602
-14.773472	-1.889819	0.805773	0.003617	0.264321
-14.632974	-1.943919	0.810778	0.003583	0.264208
-14.991171	-1.907605	0.815782	0.003670	0.264063
-15.236829	-1.931990	0.820787	0.003730	0.263754
-15.477699	-1.899034	0.825792	0.003789	0.263693
-15.844805	-1.889673	0.830797	0.003879	0.263425
-16.008000	-1.855859	0.835802	0.003919	0.263432
-16.446846	-1.794045	0.840806	0.004026	0.263328
-17.150445	-1.706111	0.845811	0.004198	0.263113
-17.122450	-1.662084	0.850816	0.004191	0.263324
-17.086181	-1.721512	0.855821	0.004182	0.263101
-17.618311	-1.562560	0.860826	0.004312	0.263333
-17.709552	-1.524199	0.865830	0.004335	0.263420
-17.281120	-1.604765	0.870835	0.004230	0.263435
-17.326679	-1.614396	0.875840	0.004241	0.263356
-17.750117	-1.589275	0.880845	0.004345	0.263108
-17.506321	-1.635757	0.885850	0.004285	0.263114
-17.370524	-1.665382	0.890854	0.004252	0.263102
-17.061549	-1.724524	0.895859	0.004177	0.263108
-16.943833	-1.792062	0.900864	0.004148	0.262919
-17.203311	-1.767606	0.905869	0.004211	0.262805
-16.816006	-1.887590	0.910874	0.004117	0.262618
-17.021078	-1.882227	0.915878	0.004167	0.262468
-17.100427	-1.936151	0.920883	0.004186	0.262170
-17.546740	-1.861151	0.925888	0.004295	0.262116
-17.696545	-1.895021	0.930893	0.004332	0.261844
-17.860391	-1.859564	0.935898	0.004372	0.261858
-18.577537	-1.786490	0.940902	0.004547	0.261567
-18.688709	-1.767593	0.945907	0.004574	0.261554
-18.818632	-1.743220	0.950912	0.004606	0.261549
-18.702070	-1.766516	0.955917	0.004578	0.261547
-18.852473	-1.734454	0.960922	0.004614	0.261558
-19.035810	-1.728198	0.965926	0.004659	0.261430
-19.645992	-1.655685	0.970931	0.004808	0.261226
-19.652612	-1.587391	0.975936	0.004810	0.261514
-19.529748	-1.672684	0.980941	0.004780	0.261251
-19.837511	-1.618675	0.985946	0.004855	0.261223
-20.184845	-1.538330	0.990950	0.004940	0.261275
-19.786415	-1.577698	0.995955	0.004843	0.261442
-19.915048	-1.578927	1.000960	0.004874	0.261328

-19.984532	-1.590678	1.010957	0.004891	0.261219
-19.414759	-1.701542	1.020954	0.004752	0.261223
-18.913720	-1.815877	1.030950	0.004630	0.261155
-18.440598	-1.981697	1.040947	0.004514	0.260842
-18.749344	-1.997325	1.050944	0.004590	0.260513
-19.455823	-1.911454	1.060941	0.004763	0.260284
-20.291341	-1.729978	1.070938	0.004967	0.260358
-20.318486	-1.671863	1.080934	0.004973	0.260586
-20.609825	-1.552225	1.090931	0.005044	0.260854
-20.460488	-1.512273	1.100928	0.005008	0.261152
-20.452592	-1.444679	1.110925	0.005006	0.261449
-19.979019	-1.496572	1.120922	0.004890	0.261625
-18.732900	-1.738003	1.130918	0.004586	0.261640
-18.074337	-1.911054	1.140915	0.004426	0.261453
-18.372037	-1.923586	1.150912	0.004498	0.261147
-18.657059	-1.924345	1.160909	0.004568	0.260903
-18.974477	-1.861160	1.170906	0.004646	0.260906
-19.591384	-1.740059	1.180902	0.004796	0.260905
-19.871506	-1.634209	1.190899	0.004865	0.261124
-19.840966	-1.582693	1.200896	0.004857	0.261371
-19.594082	-1.588741	1.210893	0.004797	0.261553
-19.407806	-1.568936	1.220890	0.004752	0.261795
-18.723119	-1.689137	1.230886	0.004584	0.261856
-18.502898	-1.732278	1.240883	0.004531	0.261856
-18.647020	-1.767236	1.250880	0.004566	0.261585
-18.679732	-1.744744	1.260877	0.004574	0.261654
-19.035157	-1.632637	1.270874	0.004661	0.261835
-19.181778	-1.598629	1.280870	0.004697	0.261857
-18.441379	-1.731553	1.290867	0.004516	0.261910
-18.106342	-1.810480	1.300864	0.004434	0.261854
-17.924267	-1.846725	1.310861	0.004390	0.261852
-18.337617	-1.781442	1.320858	0.004491	0.261783
-18.599172	-1.713354	1.330854	0.004555	0.261855
-19.192723	-1.590177	1.340851	0.004700	0.261882
-18.678391	-1.625723	1.350848	0.004574	0.262163
-18.183533	-1.722362	1.360845	0.004453	0.262166
-18.059576	-1.746368	1.370842	0.004423	0.262167
-18.093194	-1.739230	1.380838	0.004431	0.262169
-18.270812	-1.705414	1.390835	0.004475	0.262164
-18.355652	-1.670401	1.400832	0.004496	0.262242
-18.073309	-1.670756	1.410829	0.004427	0.262478
-17.729166	-1.737507	1.420826	0.004343	0.262482
-17.867410	-1.709792	1.430822	0.004377	0.262484
-17.837140	-1.716959	1.440819	0.004369	0.262478
-18.097627	-1.665611	1.450816	0.004433	0.262479
-17.869456	-1.710263	1.460813	0.004377	0.262480
-17.376094	-1.807004	1.470810	0.004257	0.262480
-17.502623	-1.781120	1.480806	0.004288	0.262484
-17.488256	-1.784870	1.490803	0.004284	0.262480
-17.743364	-1.735662	1.500800	0.004347	0.262476
-18.090404	-1.638576	1.510797	0.004431	0.262599
-18.015501	-1.603921	1.520794	0.004413	0.262810
-17.987923	-1.554418	1.530790	0.004406	0.263045
-17.515866	-1.631830	1.540787	0.004291	0.263110
-17.226944	-1.688727	1.550784	0.004221	0.263109
-16.560899	-1.819683	1.560781	0.004058	0.263109
-16.546797	-1.866132	1.570778	0.004055	0.262922
-16.592233	-1.883558	1.580774	0.004066	0.262809
-16.942391	-1.815268	1.590771	0.004152	0.262807
-17.222655	-1.760144	1.600768	0.004220	0.262807
-17.706650	-1.659586	1.610765	0.004338	0.262830
-17.854537	-1.564963	1.620762	0.004374	0.263110
-17.474177	-1.567370	1.630758	0.004281	0.263418
-17.222297	-1.614530	1.640755	0.004220	0.263428
-16.703661	-1.676082	1.650752	0.004093	0.263600
-16.487646	-1.728644	1.660749	0.004041	0.263556
-16.318271	-1.791273	1.670746	0.003999	0.263431
-16.252545	-1.804088	1.680742	0.003983	0.263431
-16.361742	-1.784217	1.690739	0.004010	0.263424
-16.358739	-1.783990	1.700736	0.004010	0.263428
-16.475811	-1.761091	1.710733	0.004038	0.263427
-16.590520	-1.738087	1.720730	0.004066	0.263429
-16.840168	-1.689017	1.730726	0.004127	0.263429
-16.666126	-1.687156	1.740723	0.004085	0.263582
-16.491123	-1.683733	1.750720	0.004042	0.263743
-16.413413	-1.698238	1.760717	0.004023	0.263746
-16.138356	-1.751322	1.770714	0.003956	0.263750
-16.438419	-1.692408	1.780710	0.004029	0.263749
-16.405816	-1.627729	1.790707	0.004021	0.264052
-16.030364	-1.695004	1.800704	0.003930	0.264079
-16.016115	-1.697362	1.810701	0.003926	0.264081
-16.080123	-1.684332	1.820698	0.003942	0.264083
-15.562367	-1.785336	1.830694	0.003816	0.264086
-14.962598	-1.925332	1.840691	0.003669	0.263991
-15.367969	-1.903587	1.850688	0.003768	0.263745
-15.960981	-1.786953	1.860685	0.003913	0.263745
-16.260349	-1.692100	1.870682	0.003986	0.263898
-16.310989	-1.638426	1.880678	0.003999	0.264084
-16.229753	-1.603634	1.890675	0.003979	0.264299
-16.119843	-1.607689	1.900672	0.003952	0.264373
-15.632003	-1.641743	1.910669	0.003833	0.264636
-15.268533	-1.713308	1.920666	0.003744	0.264635
-14.909215	-1.790471	1.930662	0.003657	0.264607
-15.158600	-1.807720	1.940659	0.003718	0.264325
-15.379215	-1.765135	1.950656	0.003772	0.264322
-15.261164	-1.740629	1.960653	0.003743	0.264524
-15.040778	-1.757364	1.970650	0.003689	0.264637
-15.203710	-1.757544	1.980646	0.003729	0.264500
-15.265489	-1.714029	1.990643	0.003744	0.264633
-15.061593	-1.753984	2.000640	0.003694	0.264633
-15.012386	-1.762986	2.010637	0.003682	0.264636
-15.300225	-1.706768	2.020634	0.003753	0.264634
-15.062511	-1.696029	2.030630	0.003695	0.264878
-14.832740	-1.725361	2.040627	0.003639	0.264945
-15.083911	-1.676756	2.050624	0.003700	0.264941
-15.137251	-1.665235	2.060621	0.003713	0.264945
-14.623253	-1.737201	2.070618	0.003588	0.265068
-14.523120	-1.785560	2.080614	0.003563	0.264946
-14.541344	-1.746718	2.090611	0.003568	0.265096
-14.355594	-1.791235	2.100608	0.003522	0.265061
-14.552945	-1.767450	2.110605	0.003571	0.264998
-14.619088	-1.716825	2.120602	0.003587	0.265157
-14.788145	-1.655719	2.130598	0.003628	0.265275
-14.683084	-1.676485	2.140595	0.003603	0.265274
-14.498089	-1.644066	2.150592	0.003557	0.265565
-13.947279	-1.750309	2.160589	0.003423	0.265573
-13.712869	-1.851259	2.170586	0.003366	0.265341
-13.583708	-1.891513	2.180582	0.003334	0.265278
-14.089770	-1.792942	2.190579	0.003458	0.265274
-14.511866	-1.709940	2.200576	0.003561	0.265274
-14.597844	-1.635476	2.210573	0.003582	0.265517
-14.671218	-1.592331	2.220570	0.003600	0.265638
-14.376806	-1.589682	2.230566	0.003528	0.265894
-14.121280	-1.640396	2.240563	0.003466	0.265891
-13.379611	-1.756172	2.250560	0.003285	0.266018
-13.239180	-1.813549	2.260557	0.003251	0.265892
-12.781273	-1.939347	2.270554	0.003139	0.265740
-12.830767	-1.968692	2.280550	0.003151	0.265575
-13.313489	-1.939988	2.290547	0.003269	0.265295
-14.088478	-1.745260	2.300544	0.003458	0.265474
-14.516601	-1.622434	2.310541	0.003563	0.265638
-14.800525	-1.477204	2.320538	0.003632	0.266015
-14.449235	-1.455291	2.330534	0.003546	0.266398
-13.764220	-1.524621	2.340531	0.003379	0.266673
-12.586674	-1.779624	2.350528	0.003092	0.266574
-12.242050	-1.877597	2.360525	0.003008	0.266446
-12.088156	-1.977944	2.370522	0.002970	0.266150
-12.578789	-1.942071	2.380518	0.003090	0.265895
-13.003628	-1.858930	2.390515	0.003194	0.265893
-13.693175	-1.721117	2.400512	0.003362	0.265903
-13.315750	-1.723313	2.410509	0.003270	0.266206
-13.106635	-1.763837	2.420506	0.003219	0.266208
-13.458685	-1.663322	2.430502	0.003305	0.266340
-13.341835	-1.638286	2.440499	0.003277	0.266542
-13.557684	-1.546981	2.450496	0.003329	0.266748
-13.490216	-1.526456	2.460493	0.003313	0.266890
-12.572828	-1.642767	2.470490	0.003089	0.267158
-12.219506	-1.764940	2.480486	0.003003	0.266937
-11.623876	-1.904599	2.490483	0.002857	0.266841
-11.345149	-2.020405	2.500480	0.002789	0.266584
-11.448699	-2.076320	2.510477	0.002815	0.266263
-12.059487	-1.968589	2.520474	0.002964	0.266211
-13.207455	-1.743232	2.530470	0.003244	0.266209
-13.517330	-1.620938	2.540467	0.003320	0.266468
-13.817633	-1.468313	2.550464	0.003393	0.266862
-13.302022	-1.484754	2.560461	0.003267	0.267219
-12.812027	-1.521016	2.570458	0.003148	0.267470
-11.816653	-1.717111	2.580454	0.002905	0.267468
-11.148949	-1.848933	2.590451	0.002742	0.267465
-10.895311	-1.972019	2.600448	0.002680	0.267158
-11.484032	-1.920525	2.610445	0.002824	0.266888
-11.592276	-1.910270	2.620442	0.002850	0.266841
-11.860388	-1.857927	2.630438	0.002916	0.266839
-12.344051	-1.762663	2.640435	0.003034	0.266840
-12.516978	-1.654225	2.650432	0.003076	0.267153
-12.354353	-1.635644	2.660429	0.003037	0.267365
-12.062650	-1.668555	2.670426	0.002965	0.267467
-12.005170	-1.649687	2.680422	0.002951	0.267594
-11.402735	-1.739680	2.690419	0.002804	0.267712
-11.252771	-1.774502	2.700416	0.002768	0.267690
-11.490061	-1.781816	2.710413	0.002826	0.267463
-11.407179	-1.782287	2.720410	0.002806	0.267530
-11.566414	-1.732960	2.730406	0.002845	0.267605
-11.386261	-1.724038	2.740403	0.002801	0.267791
-11.251083	-1.751081	2.750400	0.002768	0.267788
-10.986991	-1.801862	2.760397	0.002703	0.267793
-10.832006	-1.831907	2.770394	0.002665	0.267794
-11.003142	-1.872520	2.780390	0.002707	0.267483
-10.959061	-1.852670	2.790387	0.002697	0.267602
-11.252150	-1.765271	2.800384	0.002768	0.267727
-11.355506	-1.729596	2.810381	0.002794	0.267791
-11.986936	-1.569773	2.820378	0.002948	0.267941
-11.917088	-1.510863	2.830374	0.002931	0.268245
-11.041773	-1.642181	2.840371	0.002717	0.268415
-10.497805	-1.749795	2.850368	0.002584	0.268412
-9.940954	-1.858515	2.860365	0.002448	0.268414
-9.677829	-1.986130	2.870362	0.002384	0.268097
-9.740883	-2.028643	2.880358	0.002400	0.267866
-10.278059	-1.940506	2.890355	0.002531	0.267793
-11.119463	-1.774822	2.900352	0.002736	0.267794
-11.512350	-1.637329	2.910349	0.002832	0.268047
-11.818750	-1.501892	2.920346	0.002907	0.268361
-11.364602	-1.501453	2.930342	0.002796	0.268736
-10.486629	-1.600332	2.940339	0.002582	0.269043
-9.472836	-1.831757	2.950336	0.002334	0.268909
-9.016737	-1.993214	2.960333	0.002223	0.268609
-9.122002	-2.046600	2.970330	0.002249	0.268299
-10.041951	-1.914162	2.980326	0.002474	0.268096
-10.793632	-1.728101	2.990323	0.002657	0.268256
-11.399889	-1.532959	3.000320	0.002805	0.268574
-11.232195	-1.468964	3.010317	0.002764	0.268979
-10.354085	-1.574908	3.020314	0.002550	0.269256
-9.162631	-1.815976	3.030310	0.002259	0.269227
-8.342554	-2.041257	3.040307	0.002059	0.268960
-8.312477	-2.141828	3.050304	0.002052	0.268564
-9.213189	-2.048371	3.060301	0.002272	0.268214
-10.275586	-1.809350	3.070298	0.002531	0.268341
-11.275289	-1.553777	3.080294	0.002775	0.268588
-11.524395	-1.372053	3.090291	0.002836	0.269142
-11.111518	-1.350100	3.100288	0.002735	0.269571
-10.217310	-1.442159	3.110285	0.002517	0.269919
-9.022353	-1.675979	3.120282	0.002225	0.269923
-7.867724	-1.936046	3.130278	0.001943	0.269785
-7.391870	-2.130002	3.140275	0.001827	0.269367
-7.537998	-2.210828	3.150272	0.001863	0.268910
-8.264207	-2.154262	3.160269	0.002041	0.268550
-9.669444	-1.909155	3.170266	0.002384	0.268420
-10.765619	-1.598484	3.180262	0.002651	0.268818
-11.507314	-1.334377	3.190259	0.002833	0.269311
-10.832199	-1.316944	3.200256	0.002668	0.269936
-9.442922	-1.515820	3.210253	0.002328	0.270244
-8.006962	-1.797140	3.220250	0.001978	0.270247
-8.128566	-1.843439	3.230246	0.002008	0.269955
-8.077439	-1.868962	3.240243	0.001995	0.269890
-8.372285	-1.878926	3.250240	0.002067	0.269608
-8.653651	-1.823279	3.260237	0.002136	0.269609
-8.717722	-1.810328	3.270234	0.002152	0.269610
-8.520006	-1.849394	3.280230	0.002104	0.269609
-8.590518	-1.836336	3.290227	0.002121	0.269606
-8.286375	-1.895779	3.300224	0.002047	0.269607
-8.495832	-1.854843	3.310221	0.002098	0.269606
-9.130916	-1.704409	3.320218	0.002253	0.269712
-10.029584	-1.443561	3.330214	0.002472	0.270063
-9.820529	-1.365978	3.340211	0.002421	0.270555
-9.047891	-1.444936	3.350208	0.002233	0.270857
-8.005095	-1.649026	3.360205	0.001978	0.270860
-7.189439	-1.808341	3.370202	0.001779	0.270864
-6.002105	-2.132479	3.380198	0.001489	0.270487
-5.620587	-2.355140	3.390195	0.001396	0.269873
-7.105252	-2.182862	3.400192	0.001759	0.269376
-8.376209	-1.951473	3.410189	0.002069	0.269299
-10.360677	-1.464961	3.420186	0.002554	0.269701
-10.922360	-1.159229	3.430182	0.002691	0.270513
-9.843401	-1.187977	3.440179	0.002427	0.271272
-7.891125	-1.514335	3.450176	0.001951	0.271509
-5.703083	-1.978628	3.460173	0.001416	0.271366
-5.467565	-2.170197	3.470170	0.001359	0.270764
-5.589859	-2.274965	3.480166	0.001389	0.270230
-6.393540	-2.226594	3.490163	0.001585	0.269774
-8.654509	-1.794411	3.500160	0.002138	0.269724
-10.198241	-1.358338	3.510157	0.002515	0.270276
-10.077458	-1.178791	3.520154	0.002485	0.271118
-8.708693	-1.319481	3.530150	0.002151	0.271649
-7.661054	-1.444110	3.540147	0.001895	0.271984
-5.615050	-1.895935	3.550144	0.001395	0.271778
-5.084946	-2.117800	3.560141	0.001266	0.271291
-5.109459	-2.250794	3.570138	0.001272	0.270720
-5.189956	-2.362250	3.580134	0.001292	0.270192
-6.859218	-2.098404	3.590131	0.001700	0.269925
-9.007753	-1.631633	3.600128	0.002224	0.270110
-10.040018	-1.253751	3.610125	0.002476	0.270836
-9.479457	-1.161758	3.620122	0.002339	0.271673
-8.021071	-1.316816	3.630118	0.001983	0.272215
-5.738861	-1.735910	3.640115	0.001426	0.272336
-4.812161	-2.036532	3.650112	0.001200	0.271847
-4.343803	-2.258172	3.660109	0.001086	0.271311
-5.180853	-2.241086	3.670106	0.001290	0.270700
-6.743394	-1.970020	3.680102	0.001672	0.270551
-8.605592	-1.530296	3.690099	0.002127	0.270857
-8.071466	-1.502185	3.700096	0.001996	0.271408
-7.854677	-1.447124	3.710093	0.001943	0.271811
-6.719942	-1.593664	3.720090	0.001666	0.272126
-5.382807	-1.866590	3.730086	0.001340	0.272084
-4.986227	-2.032418	3.740083	0.001243	0.271721
-5.546230	-1.973119	3.750080	0.001380	0.271511
-6.285656	-1.873817	3.760077	0.001560	0.271321
-7.070008	-1.672331	3.770074	0.001752	0.271516
-7.890633	-1.414893	3.780070	0.001952	0.271913
-6.930901	-1.501730	3.790067	0.001718	0.272333
-6.137884	-1.631307	3.800064	0.001524	0.272441
-4.888593	-1.891269	3.810061	0.001219	0.272381
-4.447883	-2.063331	3.820058	0.001112	0.272028
-4.331561	-2.178383	3.830054	0.001084	0.271647
-5.307927	-2.073302	3.840051	0.001322	0.271288
-6.263532	-1.873346	3.850048	0.001556	0.271339
-7.523635	-1.543591	3.860045	0.001863	0.271678
-7.841427	-1.344700	3.870042	0.001941	0.272241
-7.108447	-1.348398	3.880038	0.001762	0.272819
-5.811284	-1.541381	3.890035	0.001445	0.273073
-4.390286	-1.837592	3.900032	0.001098	0.273003
-3.537909	-2.100387	3.910029	0.000890	0.272611
-3.541318	-2.244636	3.920026	0.000891	0.272013
-4.728648	-2.058250	3.930022	0.001181	0.271819
-5.772414	-1.874266	3.940019	0.001436	0.271732
-6.478949	-1.681348	3.950016	0.001609	0.271955
-6.797991	-1.526564	3.960013	0.001687	0.272335
-6.477263	-1.482917	3.970010	0.001608	0.272774
-5.678278	-1.566768	3.980006	0.001413	0.273074
-4.812590	-1.737780	3.990003	0.001202	0.273070
-3.693808	-1.986828	4.000000	0.000929	0.272950
-4.187734	-1.955636	4.009997	0.001049	0.272679
-4.600080	-1.931626	4.019994	0.001150	0.272444
-5.071998	-1.838462	4.029990	0.001265	0.272446
-5.558995	-1.685362	4.039987	0.001384	0.272682
-5.949663	-1.539807	4.049984	0.001480	0.272965
-5.321074	-1.589843	4.059981	0.001326	0.273266
-4.527299	-1.714337	4.069978	0.001132	0.273395
-3.755939	-1.919491	4.079974	0.000944	0.273175
-3.459551	-2.031761	4.089971	0.000872	0.272953
-4.319835	-1.907317	4.099968	0.001082	0.272769
-5.093027	-1.745000	4.109965	0.001271	0.272812
-4.901978	-1.718098	4.119962	0.001224	0.273077
-4.810167	-1.722468	4.129958	0.001202	0.273133
-4.257289	-1.768223	4.139955	0.001067	0.273391
-4.358140	-1.748553	4.149952	0.001092	0.273390
-4.258402	-1.767835	4.159949	0.001067	0.273391
-4.349177	-1.750044	4.169946	0.001090	0.273391
-4.147551	-1.788606	4.179942	0.001040	0.273395
-4.408010	-1.737041	4.189939	0.001104	0.273396
-3.868483	-1.792705	4.199936	0.000972	0.273602
-3.954852	-1.806151	4.209933	0.000994	0.273477
-3.999850	-1.768241	4.219930	0.001005	0.273597
-3.817465	-1.775533	4.229926	0.000960	0.273713
-3.464691	-1.860645	4.239923	0.000874	0.273648
-3.464608	-1.924333	4.249920	0.000874	0.273387
-3.398874	-1.937015	4.259917	0.000858	0.273388
-3.452620	-1.925257	4.269914	0.000871	0.273392
-4.385563	-1.740377	4.279910	0.001099	0.273399
-5.101606	-1.504734	4.289907	0.001274	0.273788
-4.775520	-1.478034	4.299904	0.001194	0.274160
-4.354500	-1.490139	4.309901	0.001092	0.274448
-3.307900	-1.664312	4.319898	0.000836	0.274577
-2.268324	-1.904095	4.329894	0.000582	0.274431
-1.956881	-2.032183	4.339891	0.000506	0.274157
-1.934195	-2.112482	4.349888	0.000501	0.273847
-2.588975	-2.055468	4.359885	0.000661	0.273553
-3.430379	-1.912228	4.369882	0.000866	0.273462
-3.957161	-1.746762	4.379878	0.000995	0.273716
-4.762017	-1.502454	4.389875	0.001192	0.274069
-4.521999	-1.454805	4.399872	0.001133	0.274457
-3.612950	-1.544258	4.409869	0.000911	0.274821
-2.720482	-1.702483	4.419866	0.000693	0.274890
-2.165227	-1.831247	4.429862	0.000558	0.274810
-2.020598	-1.915613	4.439859	0.000522	0.274581
-1.931529	-1.982866	4.449856	0.000501	0.274377
-1.998991	-2.006126	4.459853	0.000517	0.274228
-2.645119	-1.923406	4.469850	0.000675	0.274047
-3.021627	-1.795792	4.479846	0.000767	0.274266
-3.460476	-1.689521	4.489843	0.000874	0.274348
-3.272925	-1.670776	4.499840	0.000828	0.274575
-2.960509	-1.661965	4.509837	0.000752	0.274862
-2.280709	-1.789104	4.519834	0.000586	0.274888
-2.234855	-1.797870	4.529830	0.000575	0.274888
-2.011317	-1.842389	4.539827	0.000521	0.274886
-2.003908	-1.844147	4.549824	0.000519	0.274884
-2.365481	-1.808083	4.559821	0.000607	0.274741
-2.477838	-1.750258	4.569818	0.000635	0.274887
-2.241854	-1.796457	4.579814	0.000577	0.274888
-2.275346	-1.789524	4.589811	0.000585	0.274889
-2.007490	-1.784020	4.599808	0.000520	0.275126
-1.851625	-1.822491	4.609805	0.000482	0.275094
-1.872780	-1.869226	4.619802	0.000487	0.274886
-1.857578	-1.835963	4.629798	0.000484	0.275033
-1.752049	-1.813315	4.639795	0.000458	0.275210
-1.837398	-1.797201	4.649792	0.000479	0.275207
-2.192762	-1.726681	4.659789	0.000566	0.275210
-2.205488	-1.698242	4.669786	0.000569	0.275316
-1.728652	-1.743203	4.679782	0.000452	0.275514
-1.585220	-1.771257	4.689779	0.000417	0.275514
-1.545341	-1.780368	4.699776	0.000408	0.275509
-1.665821	-1.756409	4.709773	0.000437	0.275510
-1.640282	-1.757575	4.719770	0.000431	0.275525
-1.410765	-1.728135	4.729766	0.000375	0.275829
-1.325877	-1.744380	4.739763	0.000354	0.275830
-1.195586	-1.771033	4.749760	0.000322	0.275826
-1.180372	-1.773990	4.759757	0.000319	0.275826
-1.176246	-1.773683	4.769754	0.000318	0.275830
-1.371493	-1.734411	4.779750	0.000366	0.275833
-1.894576	-1.598770	4.789747	0.000493	0.275967
-1.778838	-1.566961	4.799744	0.000465	0.276189
-1.293941	-1.591162	4.809741	0.000347	0.276477
-1.041215	-1.640795	4.819738	0.000285	0.276477
-1.018795	-1.644243	4.829734	0.000280	0.276480
-1.053258	-1.620062	4.839731	0.000288	0.276551
-0.979814	-1.577924	4.849728	0.000270	0.276780
-1.022926	-1.570097	4.859725	0.000281	0.276777
-0.797356	-1.614049	4.869722	0.000226	0.276779
-0.764962	-1.594310	4.879718	0.000218	0.276884
-0.608523	-1.573945	4.889715	0.000180	0.277091
-0.563201	-1.583617	4.899712	0.000169	0.277088
-0.577130	-1.580988	4.909709	0.000172	0.277087
-0.584258	-1.579102	4.919706	0.000174	0.277089
-0.715331	-1.553197	4.929702	0.000206	0.277089
-0.671472	-1.490979	4.939699	0.000195	0.277376
-0.663221	-1.486927	4.949696	0.000193	0.277399
-0.619134	-1.460140	4.959693	0.000183	0.277542
-0.408981	-1.454890	4.969690	0.000131	0.277730
-0.361080	-1.464345	4.979686	0.000120	0.277729
-0.418234	-1.434709	4.989683	0.000134	0.277804
-0.497948	-1.362939	4.999680	0.000153	0.278030
-0.627573	-1.318646	5.009677	0.000185	0.278106
-0.854604	-1.207237	5.019674	0.000240	0.278375
-0.658143	-1.170770	5.029670	0.000192	0.278677
-0.651600	-1.109140	5.039667	0.000191	0.278930
-0.404028	-1.114407	5.049664	0.000130	0.279105
-0.157291	-1.131811	5.059661	0.000070	0.279229
-0.036526	-1.142840	5.069658	0.000041	0.279280
0.044529	-1.093855	5.079654	0.000021	0.279541
-0.117214	-1.062311	5.089651	0.000060	0.279539
-0.316418	-0.951713	5.099648	0.000109	0.279826
-0.549013	-0.845339	5.109645	0.000166	0.280069
-0.659067	-0.742810	5.119642	0.000193	0.280393
-0.581718	-0.671439	5.129638	0.000174	0.280739
-0.467161	-0.605468	5.139635	0.000146	0.281092
-0.228280	-0.564244	5.149632	0.000088	0.281444
-0.039480	-0.534692	5.159629	0.000041	0.281709
0.212761	-0.540399	5.169626	-0.000020	0.281883
0.111755	-0.475025	5.179622	0.000005	0.282064
0.139124	-0.403005	5.189619	-0.000002	0.282372
-0.009979	-0.313258	5.199616	0.000034	0.282612
-0.032294	-0.237581	5.209613	0.000040	0.282895
0.000203	-0.166637	5.219610	0.000032	0.283201
0.058357	-0.093826	5.229606	0.000018	0.283535
-0.047193	0.012598	5.239603	0.000043	0.283873
0.000000	0.064294	5.249600	0.000032	0.284114

0.152384	0.057846	5.254605	-0.000005	0.284207
0.151526	0.134775	5.259610	-0.000005	0.284510
0.046477	0.198818	5.264614	0.000021	0.284681
0.228699	0.226702	5.269619	-0.000024	0.284931
0.166224	0.304095	5.274624	-0.000009	0.285188
0.332497	0.339672	5.279629	-0.000049	0.285456
0.268311	0.434225	5.284634	-0.000034	0.285778
0.183583	0.536356	5.289638	-0.000013	0.286113
0.268301	0.616112	5.294643	-0.000034	0.286491
0.240722	0.711429	5.299648	-0.000027	0.286843
0.283477	0.800715	5.304653	-0.000038	0.287225
0.272454	0.915695	5.309658	-0.000035	0.287665
0.320426	1.017020	5.314662	-0.000047	0.288097
0.394353	1.119330	5.319667	-0.000065	0.288551
0.407463	1.237736	5.324672	-0.000068	0.289021
0.450462	1.336810	5.329677	-0.000079	0.289438
0.543416	1.451814	5.334682	-0.000101	0.289954
0.460140	1.605213	5.339686	-0.000081	0.290484
0.479954	1.748135	5.344691	-0.000086	0.291051
0.446642	1.905368	5.349696	-0.000078	0.291631
0.497975	2.053514	5.354701	-0.000091	0.292239
0.438969	2.231800	5.359706	-0.000076	0.292878
0.438657	2.403725	5.364710	-0.000076	0.293536
0.588802	2.539080	5.369715	-0.000113	0.294165
0.516120	2.724337	5.374720	-0.000095	0.294817
0.715887	2.874122	5.379725	-0.000144	0.295535
0.805614	3.049483	5.384730	-0.000166	0.296267
0.784122	3.239341	5.389734	-0.000161	0.296969
0.934562	3.414169	5.394739	-0.000198	0.297740
0.996467	3.603475	5.399744	-0.000213	0.298499
1.162679	3.755994	5.404749	-0.000254	0.299194
1.244634	3.948838	5.409754	-0.000274	0.299976
1.221993	4.152543	5.414758	-0.000269	0.300721
1.135523	4.401273	5.419763	-0.000248	0.301584
1.163764	4.618620	5.424768	-0.000255	0.302412
1.146505	4.857298	5.429773	-0.000251	0.303284
1.111577	5.101935	5.434778	-0.000242	0.304162
1.052249	5.354201	5.439782	-0.000228	0.305049
1.248589	5.579402	5.444787	-0.000276	0.306017
1.063745	5.876692	5.449792	-0.000231	0.306973
1.093570	6.145520	5.454797	-0.000238	0.307975
1.093979	6.418113	5.459802	-0.000239	0.308967
1.190054	6.669570	5.464806	-0.000262	0.309947
1.313920	6.942431	5.469811	-0.000293	0.311021
1.446506	7.204501	5.474816	-0.000325	0.312059
1.680815	7.455125	5.479821	-0.000383	0.313123
1.640323	7.751800	5.484826	-0.000373	0.314156
1.802157	8.006495	5.489830	-0.000413	0.315178
2.091723	8.264707	5.494835	-0.000484	0.316297
2.196337	8.538981	5.499840	-0.000509	0.317341
2.165833	8.856176	5.504845	-0.000502	0.318439
2.153844	9.154307	5.509850	-0.000499	0.319480
2.035459	9.503892	5.514854	-0.000471	0.320624
2.197201	9.811598	5.519859	-0.000510	0.321810
2.162125	10.155431	5.524864	-0.000502	0.322982
2.130513	10.500040	5.529869	-0.000494	0.324156
2.128379	10.856312	5.534874	-0.000494	0.325385
1.998907	11.247358	5.539878	-0.000463	0.326644
1.945254	11.644309	5.544883	-0.000450	0.327969
1.989876	12.003971	5.549888	-0.000461	0.329227
1.914757	12.410598	5.554893	-0.000443	0.330560
1.984455	12.811176	5.559898	-0.000460	0.331963
2.171756	13.177893	5.564902	-0.000506	0.333324
2.290112	13.556652	5.569907	-0.000535	0.334674
2.301507	13.973954	5.574912	-0.000538	0.336077
2.493579	14.360846	5.579917	-0.000586	0.337492
2.858356	14.707396	5.584922	-0.000675	0.338879
2.956294	15.094163	5.589926	-0.000699	0.340220
3.059769	15.509763	5.594931	-0.000725	0.341655
3.174471	15.913803	5.599936	-0.000753	0.343053
3.172657	16.341106	5.604941	-0.000753	0.344446
3.203737	16.780784	5.609946	-0.000761	0.345895
3.239386	17.223807	5.614950	-0.000770	0.347352
3.353023	17.662460	5.619955	-0.000798	0.348838
3.276280	18.130928	5.624960	-0.000779	0.350293
3.278224	18.611791	5.629965	-0.000780	0.351831
3.288894	19.095961	5.634970	-0.000783	0.353378
3.142766	19.603895	5.639974	-0.000748	0.354897
3.139336	20.123816	5.644979	-0.000747	0.356535
3.266408	20.615875	5.649984	-0.000778	0.358158
3.304096	21.119783	5.654989	-0.000788	0.359756
3.412762	21.635836	5.659994	-0.000815	0.361428
3.462995	22.160656	5.664998	-0.000827	0.363084
3.559779	22.680231	5.670003	-0.000851	0.364744
3.630895	23.217447	5.675008	-0.000869	0.366436
3.648595	23.776298	5.680013	-0.000874	0.368154
3.802961	24.293543	5.685018	-0.000912	0.369818
3.847869	24.859333	5.690022	-0.000923	0.371558
3.906522	25.429753	5.695027	-0.000938	0.373311
3.929408	26.000663	5.700032	-0.000944	0.375036
3.982901	26.593965	5.705037	-0.000957	0.376838
4.080206	27.176023	5.710042	-0.000982	0.378623
4.119295	27.771571	5.715046	-0.000991	0.380407
4.157758	28.395494	5.720051	-0.001001	0.382265
4.181583	29.011745	5.725056	-0.001007	0.384083
4.201672	29.653163	5.730061	-0.001013	0.385963
4.439726	30.260504	5.735066	-0.001071	0.387860
4.440448	30.888107	5.740070	-0.001072	0.389671
4.675813	31.513203	5.745075	-0.001130	0.391599
4.626798	32.180051	5.750080	-0.001118	0.393477
4.774500	32.814652	5.755085	-0.001155	0.395365
4.893882	33.484278	5.760090	-0.001184	0.397326
4.907930	34.146563	5.765094	-0.001188	0.399200
5.082904	34.821988	5.770099	-0.001232	0.401189
5.035598	35.530109	5.775104	-0.001220	0.403139
4.999092	36.245016	5.780109	-0.001212	0.405104
5.029464	36.984780	5.785114	-0.001220	0.407164
5.066375	37.688570	5.790118	-0.001229	0.409119
5.234205	38.419652	5.795123	-0.001271	0.411208
5.316561	39.147805	5.800128	-0.001292	0.413234
5.455592	39.878130	5.805133	-0.001326	0.415285
5.576226	40.632222	5.810138	-0.001356	0.417381
5.610892	41.379556	5.815142	-0.001365	0.419403
6.024875	42.093747	5.820147	-0.001467	0.421525
6.062725	42.858591	5.825152	-0.001476	0.423575
5.968196	43.665906	5.830157	-0.001454	0.425659
5.980104	44.476516	5.835162	-0.001457	0.427797
6.018391	45.274763	5.840166	-0.001467	0.429905
6.180945	46.087254	5.845171	-0.001507	0.432102
5.983660	46.937452	5.850176	-0.001460	0.434205
6.013944	47.801469	5.855181	-0.001468	0.436447
5.980831	48.675828	5.860186	-0.001460	0.438672
5.970731	49.560526	5.865190	-0.001458	0.440924
6.177417	50.417278	5.870195	-0.001509	0.443201
6.163862	51.318716	5.875200	-0.001507	0.445470
6.372975	52.194950	5.880205	-0.001558	0.447774
6.498761	53.077837	5.885210	-0.001590	0.450042
6.559276	53.997586	5.890214	-0.001605	0.452358
6.723521	54.891447	5.895219	-0.001646	0.454648
6.989466	55.790929	5.900224	-0.001711	0.456990
7.107616	56.690063	5.905229	-0.001741	0.459248
7.348968	57.603316	5.910234	-0.001801	0.461588
7.318336	58.552238	5.915238	-0.001794	0.463874
7.415164	59.516473	5.920243	-0.001818	0.466246
7.410987	60.480756	5.925248	-0.001818	0.468558
7.454233	61.467179	5.930253	-0.001829	0.470934
7.639868	62.425714	5.935258	-0.001875	0.473298
7.451944	63.475558	5.940262	-0.001830	0.475694
7.503519	64.505678	5.945267	-0.001843	0.478141
7.467326	65.557554	5.950272	-0.001835	0.480586
7.274768	66.664821	5.955277	-0.001789	0.483077
7.379479	67.739998	5.960282	-0.001815	0.485615
7.334370	68.843983	5.965286	-0.001805	0.488138
7.404499	69.953655	5.970291	-0.001823	0.490713
7.371650	71.087331	5.975296	-0.001815	0.493284
7.736242	72.163719	5.980301	-0.001905	0.495886
7.894473	73.275884	5.985306	-0.001945	0.498465
7.991007	74.409212	5.990310	-0.001969	0.501052
8.356692	75.495246	5.995315	-0.002059	0.503636
8.651823	76.600673	6.000320	-0.002132	0.506219
8.933059	77.682166	6.005325	-0.002201	0.508731
9.185604	78.796122	6.010330	-0.002264	0.511289
9.259319	79.914473	6.015334	-0.002283	0.513768
9.470807	81.056458	6.020339	-0.002335	0.516345
9.622933	82.176435	6.025344	-0.002373	0.518836
9.735571	83.345561	6.030349	-0.002401	0.521405
9.747297	84.521170	6.035354	-0.002405	0.523933
9.634932	85.761317	6.040358	-0.002378	0.526535
9.519062	86.999853	6.045363	-0.002351	0.529120
9.380361	88.293579	6.050368	-0.002318	0.531799
9.137537	89.616473	6.055373	-0.002259	0.534484
9.042201	90.962535	6.060378	-0.002237	0.537263
8.940856	92.313728	6.065382	-0.002213	0.540036
8.978185	93.676354	6.070387	-0.002223	0.542875
8.965706	95.064653	6.075392	-0.002221	0.545731
9.032589	96.432878	6.080397	-0.002238	0.548563
9.272770	97.809475	6.085402	-0.002298	0.551466
9.501286	99.151760	6.090406	-0.002355	0.554279
9.812734	100.517595	6.095411	-0.002432	0.557158
10.119006	101.864649	6.100416	-0.002508	0.559982
10.439113	103.207863	6.105421	-0.002587	0.562790
10.978267	104.519795	6.110426	-0.002719	0.565606
11.208899	105.839673	6.115430	-0.002777	0.568306
11.366254	107.221409	6.120435	-0.002816	0.571086
11.507471	108.578573	6.125440	-0.002851	0.573799
11.502502	110.007856	6.130445	-0.002851	0.576585
11.356417	111.478708	6.135450	-0.002817	0.579385
11.451698	112.924553	6.140454	-0.002841	0.582213
11.444719	114.408329	6.145459	-0.002840	0.585062
11.281227	115.937629	6.150464	-0.002801	0.587927
11.173996	117.503865	6.155469	-0.002776	0.590869
11.134629	119.050171	6.160474	-0.002768	0.593783
11.031157	120.663925	6.165478	-0.002743	0.596786
11.048336	122.265098	6.170483	-0.002749	0.599795
11.314040	123.830077	6.175488	-0.002815	0.602810
11.454414	125.438912	6.180493	-0.002850	0.605846
11.611541	127.025069	6.185498	-0.002890	0.608832
11.876239	128.614896	6.190502	-0.002955	0.611848
12.283147	130.186281	6.195507	-0.003056	0.614865
12.487514	131.773178	6.200512	-0.003107	0.617825
12.792696	133.359230	6.205517	-0.003183	0.620804
13.087103	134.938111	6.210522	-0.003256	0.623752
13.104465	136.579164	6.215526	-0.003261	0.626702
13.381364	138.180399	6.220531	-0.003330	0.629657
13.237385	139.867585	6.225536	-0.003296	0.632606
13.296821	141.563029	6.230541	-0.003311	0.635626
13.362118	143.250261	6.235546	-0.003329	0.638618
13.290664	145.001429	6.240550	-0.003312	0.641663
13.468248	146.725952	6.245555	-0.003357	0.644730
13.575963	148.456635	6.250560	-0.003384	0.647770
13.505530	150.254115	6.255565	-0.003368	0.650852
13.734664	152.009103	6.260570	-0.003426	0.653945
13.710971	153.826879	6.265574	-0.003421	0.657047
13.901689	155.631438	6.270579	-0.003469	0.660183
14.092039	157.426255	6.275584	-0.003517	0.663287
14.154851	159.276001	6.280589	-0.003533	0.666428
14.378910	161.098469	6.285594	-0.003589	0.669561
14.480777	162.931548	6.290598	-0.003615	0.672657
14.474602	164.832680	6.295603	-0.003615	0.675818
14.788423	166.661633	6.300608	-0.003693	0.678946
14.840358	168.555708	6.305613	-0.003707	0.682084
14.853947	170.498667	6.310618	-0.003712	0.685276
14.833059	172.414723	6.315622	-0.003708	0.688399
14.990467	174.369940	6.320627	-0.003748	0.691626
14.970984	176.367905	6.325632	-0.003745	0.694853
15.519713	178.233577	6.330637	-0.003880	0.698027
15.738462	180.195225	6.335642	-0.003935	0.701239
15.821870	182.166322	6.340646	-0.003956	0.704410
15.904439	184.153399	6.345651	-0.003978	0.707592
15.953061	186.171526	6.350656	-0.003991	0.710798
16.088962	188.181964	6.355661	-0.004026	0.714004
16.189499	190.219712	6.360666	-0.004052	0.717228
16.212468	192.292368	6.365670	-0.004059	0.720469
16.290579	194.377572	6.370675	-0.004079	0.723731
16.327990	196.480387	6.375680	-0.004090	0.726994
16.506970	198.575318	6.380685	-0.004135	0.730271
16.450072	200.735564	6.385690	-0.004123	0.733565
16.612164	202.876171	6.390694	-0.004164	0.736877
16.678207	205.067229	6.395699	-0.004182	0.740224
16.834866	207.239595	6.400704	-0.004221	0.743553
16.857461	209.451275	6.405709	-0.004228	0.746888
17.077801	211.661727	6.410714	-0.004284	0.750263
17.303489	213.840703	6.415718	-0.004341	0.753577
17.598347	216.036526	6.420723	-0.004414	0.756921
17.693742	218.272805	6.425728	-0.004439	0.760255
17.865417	220.496222	6.430733	-0.004482	0.763576
18.196799	222.706050	6.435738	-0.004565	0.766907
18.340206	224.947083	6.440742	-0.004602	0.770217
18.431769	227.211457	6.445747	-0.004625	0.773532
18.466482	229.515514	6.450752	-0.004636	0.776875
18.547992	231.839235	6.455757	-0.004657	0.780245
18.556335	234.190291	6.460762	-0.004661	0.783619
18.408423	236.587849	6.465766	-0.004626	0.787003
18.474331	238.995741	6.470771	-0.004644	0.790445
18.632459	241.398123	6.475776	-0.004684	0.793888
18.661719	243.828726	6.480781	-0.004693	0.797322
18.786072	246.293763	6.485786	-0.004725	0.800815
18.813918	248.782522	6.490790	-0.004734	0.804301
18.923619	251.258544	6.495795	-0.004762	0.807775
19.151445	253.738768	6.500800	-0.004820	0.811270
19.555603	256.195813	6.505805	-0.004920	0.814765
19.662206	258.702011	6.510810	-0.004948	0.818235
19.965046	261.174821	6.515814	-0.005024	0.821695
20.234770	263.675630	6.520819	-0.005091	0.825171
20.355119	266.195879	6.525824	-0.005123	0.828620
20.485112	268.704783	6.530829	-0.005156	0.832041
20.763725	271.233286	6.535834	-0.005226	0.835513
20.972437	273.759883	6.540838	-0.005279	0.838950
21.036443	276.320081	6.545843	-0.005296	0.842381
21.267205	278.876522	6.550848	-0.005354	0.845835
21.164265	281.502305	6.555853	-0.005331	0.849284
21.124922	284.157576	6.560858	-0.005323	0.852773
21.032983	286.851349	6.565862	-0.005303	0.856286
21.042160	289.591139	6.570867	-0.005307	0.859869
21.151379	292.319435	6.575872	-0.005335	0.863446
21.218955	295.055519	6.580877	-0.005354	0.867009
21.202035	297.854364	6.585882	-0.005352	0.870618
21.296221	300.652852	6.590886	-0.005377	0.874238
21.405285	303.471921	6.595891	-0.005405	0.877872
21.594070	306.291646	6.600896	-0.005453	0.881512
21.793798	309.110632	6.605901	-0.005504	0.885139
22.260601	311.897656	6.610906	-0.005620	0.888773
22.403642	314.698840	6.615910	-0.005657	0.892334
22.708237	317.521651	6.620915	-0.005733	0.895946
22.968326	320.352515	6.625920	-0.005799	0.899543
23.273229	323.159550	6.630925	-0.005875	0.903106
23.439922	325.997546	6.635930	-0.005918	0.906661
23.574299	328.848257	6.640934	-0.005953	0.910211
23.692312	331.732494	6.645939	-0.005984	0.913785
23.829738	334.607531	6.650944	-0.006019	0.917337
23.825358	337.538704	6.655949	-0.006020	0.920913
23.912877	340.506091	6.660954	-0.006044	0.924538
23.853139	343.486831	6.665958	-0.006031	0.928133
23.848812	346.507931	6.670963	-0.006032	0.931775
24.019776	349.539271	6.675968	-0.006076	0.935454
24.098245	352.596729	6.680973	-0.006097	0.939130
24.219496	355.685522	6.685978	-0.006129	0.942837
24.383914	358.731398	6.690982	-0.006172	0.946489
24.518125	361.833900	6.695987	-0.006206	0.950187
24.600531	364.968937	6.700992	-0.006229	0.953897
24.756986	368.084254	6.705997	-0.006269	0.957587
25.105679	371.197199	6.711002	-0.006357	0.961300
25.172935	374.340601	6.716006	-0.006375	0.964975
25.410446	377.485656	6.721011	-0.006435	0.968673
25.667139	380.632294	6.726016	-0.006500	0.972364
25.727425	383.821873	6.731021	-0.006517	0.976048
25.957662	387.016379	6.736026	-0.006576	0.979759
25.996183	390.253425	6.741030	-0.006587	0.983465
26.307019	393.456135	6.746035	-0.006666	0.987175
26.397884	396.689157	6.751040	-0.006690	0.990859
26.576806	399.924402	6.756045	-0.006736	0.994551
26.746228	403.192421	6.761050	-0.006780	0.998264
26.724359	406.486388	6.766054	-0.006777	1.001952
26.686378	409.837181	6.771059	-0.006770	1.005687
26.905672	413.171729	6.776064	-0.006826	1.009443
26.967563	416.545443	6.781069	-0.006843	1.013196
27.112122	419.929106	6.786074	-0.006881	1.016963
27.112885	423.359176	6.791078	-0.006884	1.020738
27.207706	426.807900	6.796083	-0.006909	1.024538
27.250185	430.299840	6.801088	-0.006922	1.028361
27.385138	433.762032	6.806093	-0.006957	1.032156
27.566604	437.262952	6.811098	-0.007004	1.035988
27.727930	440.777955	6.816102	-0.007046	1.039817
27.944420	444.296166	6.821107	-0.007101	1.043646
28.210990	447.805556	6.826112	-0.007169	1.047462
28.484164	451.292016	6.831117	-0.007238	1.051241
28.905223	454.790690	6.836122	-0.007343	1.055047
29.152078	458.288501	6.841126	-0.007406	1.058806
29.200234	461.861509	6.846131	-0.007420	1.062592
29.268118	465.421807	6.851136	-0.007440	1.066355
29.395933	468.994001	6.856141	-0.007473	1.070128
29.506825	472.624632	6.861146	-0.007503	1.073947
29.465327	476.283585	6.866150	-0.007495	1.077752
29.631104	479.943750	6.871155	-0.007538	1.081584
29.671104	483.632886	6.876160	-0.007551	1.085409
30.030089	487.288089	6.881165	-0.007641	1.089245
30.330248	490.962572	6.886170	-0.007717	1.093077
30.392181	494.665102	6.891174	-0.007735	1.096879
30.705265	498.365346	6.896179	-0.007814	1.100712
30.746955	502.107202	6.901184	-0.007827	1.104525
30.859581	505.856781	6.906189	-0.007857	1.108345
30.911461	509.662801	6.911194	-0.007872	1.112197
31.005258	513.445872	6.916198	-0.007898	1.116021
31.155875	517.289241	6.921203	-0.007937	1.119903
31.373035	521.113680	6.926208	-0.007993	1.123764
31.433788	524.965203	6.931213	-0.008010	1.127611
31.664676	528.841359	6.936218	-0.008070	1.131499
31.693143	532.738992	6.941222	-0.008079	1.135359
32.039330	536.631017	6.946227	-0.008167	1.139258
32.215858	540.544895	6.951232	-0.008212	1.143134
32.309646	544.473666	6.956237	-0.008238	1.146997
32.533997	548.386516	6.961242	-0.008296	1.150854
32.636367	552.343941	6.966246	-0.008323	1.154720
32.824404	556.315902	6.971251	-0.008372	1.158603
33.087155	560.289837	6.976256	-0.008439	1.162487
33.250903	564.237868	6.981261	-0.008482	1.166316
33.550175	568.205187	6.986266	-0.008558	1.170175
33.566016	572.239930	6.991270	-0.008565	1.174037
33.542542	576.321371	6.996275	-0.008562	1.177923
33.637672	580.438187	7.001280	-0.008588	1.181851
33.617274	584.533711	7.006285	-0.008586	1.185725
33.876474	588.659244	7.011290	-0.008652	1.189663
34.046763	592.796741	7.016294	-0.008696	1.193584
34.180135	596.971617	7.021299	-0.008732	1.197521
34.439101	601.136454	7.026304	-0.008798	1.201456
34.553511	605.290587	7.031309	-0.008829	1.205345
34.806990	609.480788	7.036314	-0.008894	1.209278
35.057420	613.665796	7.041318	-0.008958	1.213192
35.369598	617.849618	7.046323	-0.009037	1.217103
35.520452	622.068456	7.051328	-0.009077	1.221007
35.743865	626.262326	7.056333	-0.009135	1.224887
35.931526	630.491542	7.061338	-0.009183	1.228782
35.947703	634.755422	7.066342	-0.009190	1.232668
36.268670	638.987692	7.071347	-0.009272	1.236562
36.254582	643.292009	7.076352	-0.009271	1.240456
36.408723	647.578146	7.081357	-0.009312	1.244347
36.735358	651.882418	7.086362	-0.009395	1.248271
36.670822	656.243127	7.091366	-0.009382	1.252170
36.675150	660.660021	7.096371	-0.009386	1.256118
36.929317	665.042274	7.101376	-0.009451	1.260063
36.928870	669.469900	7.106381	-0.009454	1.263995
37.098333	673.927713	7.111386	-0.009499	1.267968
37.056256	678.430759	7.116390	-0.009492	1.271936
37.313425	682.919158	7.121395	-0.009558	1.275925
37.553802	687.419351	7.126400	-0.009620	1.279909
37.780441	691.894802	7.131405	-0.009678	1.283858
37.965012	696.429301	7.136410	-0.009726	1.287839
38.202900	700.953850	7.141414	-0.009788	1.291807
38.735517	705.400408	7.146419	-0.009921	1.295740
38.875706	709.920863	7.151424	-0.009958	1.299666
38.842131	714.451687	7.156429	-0.009953	1.303562
39.224806	718.948189	7.161434	-0.010050	1.307480
39.287654	723.502456	7.166438	-0.010069	1.311387
39.453552	728.067230	7.171443	-0.010112	1.315308
39.554747	732.673268	7.176448	-0.010140	1.319242
39.444490	737.337070	7.181453	-0.010117	1.323182
39.777083	741.984371	7.186458	-0.010201	1.327161
39.790593	746.669684	7.191462	-0.010208	1.331114
39.868702	751.389275	7.196467	-0.010230	1.335093
40.128836	756.114289	7.201472	-0.010297	1.339092
40.061286	760.896002	7.206477	-0.010284	1.343078
40.308787	765.677985	7.211482	-0.010348	1.347099
40.478504	770.450553	7.216486	-0.010393	1.351088
40.614437	775.254574	7.221491	-0.010429	1.355087
40.808060	780.085970	7.226496	-0.010480	1.359104
41.129534	784.862728	7.231501	-0.010562	1.363083
41.303545	789.699862	7.236506	-0.010608	1.367079
41.425212	794.552924	7.241510	-0.010641	1.371069
41.605344	799.415080	7.246515	-0.010688	1.375063
41.946053	804.269873	7.251520	-0.010775	1.379062
41.925257	809.176714	7.256525	-0.010773	1.383041
42.148761	814.091393	7.261530	-0.010831	1.387049
41.978556	819.075092	7.266534	-0.010793	1.391046
42.413871	823.995339	7.271539	-0.010903	1.395065
42.457873	828.991158	7.276544	-0.010917	1.399078
42.505701	833.988981	7.281549	-0.010933	1.403082
42.742684	839.027570	7.286554	-0.010994	1.407133
42.966341	844.047982	7.291558	-0.011052	1.411157
42.999725	849.140635	7.296563	-0.011064	1.415200
43.253634	854.206867	7.301568	-0.011129	1.419240
43.241749	859.310140	7.306573	-0.011130	1.423262
43.407436	864.459649	7.311578	-0.011174	1.427333
43.549459	869.608314	7.316582	-0.011213	1.431389
43.592463	874.809839	7.321587	-0.011227	1.435461
43.858876	880.000424	7.326592	-0.011295	1.439543
43.940930	885.195218	7.331597	-0.011319	1.443592
44.284783	890.409003	7.336602	-0.011407	1.447679
44.387872	895.646086	7.341606	-0.011436	1.451741
44.604605	900.898445	7.346611	-0.011492	1.455818
44.960800	906.150720	7.351616	-0.011583	1.459902
45.202113	911.327194	7.356621	-0.011646	1.463901
45.330375	916.607568	7.361626	-0.011681	1.467954
45.466163	921.861381	7.366630	-0.011718	1.471977
45.554874	927.177965	7.371635	-0.011743	1.476030
45.694177	932.522731	7.376640	-0.011781	1.480100
45.918163	937.797905	7.381645	-0.011839	1.484116
46.143636	943.137677	7.386650	-0.011898	1.488171
46.386689	948.466360	7.391654	-0.011961	1.492209
46.590242	953.830305	7.396659	-0.012015	1.496257
46.658299	959.236183	7.401664	-0.012035	1.500309
46.954039	964.569543	7.406669	-0.012111	1.504324
47.099450	969.956351	7.411674	-0.012151	1.508349
47.133307	975.404030	7.416678	-0.012163	1.512394
47.348625	980.844717	7.421683	-0.012219	1.516447
47.557558	986.313065	7.426688	-0.012274	1.520508
47.897139	991.706751	7.431693	-0.012361	1.524519
48.229731	997.121616	7.436698	-0.012446	1.528534
48.303451	1002.580648	7.441702	-0.012468	1.532540
48.474858	1008.069159	7.446707	-0.012513	1.536568
48.985055	1013.507024	7.451712	-0.012642	1.540590
49.082780	1018.947429	7.456717	-0.012670	1.544553
49.370231	1024.373055	7.461722	-0.012744	1.548519
49.466435	1029.838833	7.466726	-0.012771	1.552480
49.610556	1035.336481	7.471731	-0.012810	1.556460
49.917525	1040.833848	7.476736	-0.012889	1.560449
49.941787	1046.338209	7.481741	-0.012899	1.564399
50.043010	1051.897709	7.486746	-0.012927	1.568387
50.169178	1057.469939	7.491750	-0.012962	1.572377
50.375833	1063.075821	7.496755	-0.013017	1.576391
50.478018	1068.711679	7.501760	-0.013045	1.580404
50.506735	1074.342303	7.506765	-0.013056	1.584393
50.749023	1080.005214	7.511770	-0.013120	1.588421
50.794216	1085.708329	7.516774	-0.013135	1.592444
51.114249	1091.396846	7.521779	-0.013217	1.596478
51.188282	1097.136269	7.526784	-0.013239	1.600509
51.411313	1102.830393	7.531789	-0.013297	1.604515
51.824209	1108.529687	7.536794	-0.013402	1.608537
52.154337	1114.187945	7.541798	-0.013487	1.612511
52.365129	1119.888993	7.546803	-0.013543	1.616491
52.719890	1125.581570	7.551808	-0.013633	1.620471
52.870647	1131.258200	7.556813	-0.013674	1.624408
53.169703	1136.913578	7.561818	-0.013751	1.628337
53.395639	1142.562942	7.566822	-0.013810	1.632245
53.351997	1148.319023	7.571827	-0.013804	1.636185
53.376817	1154.112993	7.576832	-0.013814	1.640150
53.488212	1159.884231	7.581837	-0.013845	1.644100
53.566002	1165.732544	7.586842	-0.013868	1.648089
53.690522	1171.587497	7.591846	-0.013903	1.652077
53.726347	1177.510560	7.596851	-0.013916	1.656093
53.963692	1183.432008	7.601856	-0.013978	1.660119
54.103132	1189.331470	7.606861	-0.014016	1.664111
54.246626	1195.271514	7.611866	-0.014055	1.668120
54.476229	1201.215538	7.616870	-0.014116	1.672132
54.741426	1207.174806	7.621875	-0.014185	1.676148
55.109253	1213.100172	7.626880	-0.014279	1.680143
55.363916	1219.000186	7.631885	-0.014345	1.684099
55.705757	1224.915523	7.636890	-0.014433	1.688066
56.026060	1230.774690	7.641894	-0.014515	1.691983
56.297862	1236.667753	7.646899	-0.014586	1.695909
56.533104	1242.585041	7.651904	-0.014647	1.699838
56.578099	1248.497541	7.656909	-0.014662	1.703734
56.782715	1254.417571	7.661914	-0.014717	1.707643
56.757463	1260.405499	7.666918	-0.014715	1.711564
56.916131	1266.407405	7.671923	-0.014758	1.715504
57.012638	1272.471253	7.676928	-0.014785	1.719469
57.034893	1278.526427	7.681933	-0.014795	1.723411
57.050160	1284.652210	7.686938	-0.014803	1.727389
57.200204	1290.793377	7.691942	-0.014844	1.731382
57.459223	1296.955223	7.696947	-0.014912	1.735391
57.721273	1303.127152	7.701952	-0.014980	1.739397
57.921581	1309.236557	7.706957	-0.015033	1.743347
58.195134	1315.374914	7.711962	-0.015105	1.747314
58.575436	1321.476857	7.716966	-0.015202	1.751260
58.874182	1327.585423	7.721971	-0.015279	1.755192
59.157361	1333.689772	7.726976	-0.015353	1.759112
59.338312	1339.773689	7.731981	-0.015401	1.762999
59.751694	1345.838997	7.736986	-0.015506	1.766890
59.971961	1351.905899	7.741990	-0.015564	1.770753
60.094066	1358.025628	7.746995	-0.015598	1.774632
60.150654	1364.210517	7.752000	-0.015617	1.778536
60.424816	1370.304134	7.757005	-0.015688	1.782396
60.633656	1376.437073	7.762010	-0.015743	1.786267
60.750547	1382.586869	7.767014	-0.015776	1.790130
60.939401	1388.765050	7.772019	-0.015827	1.794009
61.027910	1394.987438	7.777024	-0.015853	1.797898
61.163265	1401.149014	7.782029	-0.015890	1.801745
61.528700	1407.383166	7.787034	-0.015984	1.805652
61.657984	1413.596684	7.792038	-0.016020	1.809514
61.965761	1419.809494	7.797043	-0.016099	1.813385
62.407780	1425.997744	7.802048	-0.016212	1.817245
62.550066	1432.124080	7.807053	-0.016251	1.821030
62.935838	1438.295266	7.812058	-0.016349	1.824858
62.983572	1444.481737	7.817062	-0.016365	1.828655
63.124565	1450.676919	7.822067	-0.016404	1.832458
63.392009	1456.890650	7.827072	-0.016474	1.836277
63.501915	1463.094587	7.832077	-0.016505	1.840067
63.648411	1469.376187	7.837082	-0.016545	1.843899
63.720352	1475.673412	7.842086	-0.016567	1.847727
63.854072	1481.953099	7.847091	-0.016604	1.851541
64.113634	1488.311623	7.852096	-0.016672	1.855407
64.205265	1494.643490	7.857101	-0.016699	1.859233
64.383045	1501.011906	7.862106	-0.016747	1.863081
64.713317	1507.328155	7.867110	-0.016832	1.866904
65.003229	1513.598028	7.872115	-0.016907	1.870688
65.201413	1519.963243	7.877120	-0.016960	1.874512
65.575505	1526.237832	7.882125	-0.017056	1.878291
65.955059	1532.489589	7.887130	-0.017153	1.882049
66.305644	1538.691203	7.892134	-0.017243	1.885766
66.558330	1544.919884	7.897139	-0.017309	1.889484
66.740514	1551.191485	7.902144	-0.017358	1.893214
66.830992	1557.463017	7.907149	-0.017385	1.896927
67.044699	1563.721649	7.912154	-0.017442	1.900637
66.986176	1570.051553	7.917158	-0.017432	1.904358
67.041941	1576.431097	7.922163	-0.017450	1.908110
66.953738	1582.906232	7.927168	-0.017433	1.911898
66.837679	1589.422651	7.932173	-0.017409	1.915701
66.819566	1596.029816	7.937178	-0.017409	1.919557
67.076589	1602.618357	7.942182	-0.017477	1.923419
67.073999	1609.258160	7.947187	-0.017481	1.927280
67.375736	1615.884036	7.952192	-0.017559	1.931152
67.611093	1622.518511	7.957197	-0.017621	1.935015
68.088584	1629.120799	7.962202	-0.017743	1.938873
68.464688	1635.648228	7.967206	-0.017839	1.942672
68.839411	1642.108029	7.972211	-0.017935	1.946423
69.281644	1648.568603	7.977216	-0.018048	1.950174
69.417440	1655.010073	7.982221	-0.018086	1.953880
69.691543	1661.507486	7.987226	-0.018157	1.957623
69.800402	1667.948487	7.992230	-0.018188	1.961313
70.182464	1674.374959	7.997235	-0.018286	1.965010
70.382243	1680.863242	8.002240	-0.018339	1.968720
70.347875	1687.387192	8.007245	-0.018336	1.972424
70.479792	1693.937170	8.012250	-0.018373	1.976150
70.552917	1700.500805	8.017254	-0.018395	1.979871
70.670810	1707.086577	8.022259	-0.018428	1.983601
70.777114	1713.754419	8.027264	-0.018459	1.987370
70.984874	1720.347658	8.032269	-0.018515	1.991098
71.141207	1727.022397	8.037274	-0.018557	1.994860
71.150579	1733.730233	8.042278	-0.018564	1.998622
71.258214	1740.464283	8.047283	-0.018595	2.002400
71.412203	1747.229259	8.052288	-0.018638	2.006191
71.521982	1753.986681	8.057293	-0.018669	2.009968
71.830222	1760.803823	8.062298	-0.018750	2.013786
72.097423	1767.586631	8.067302	-0.018820	2.017575
72.234366	1774.341527	8.072307	-0.018858	2.021331
72.400335	1781.128878	8.077312	-0.018903	2.025100
72.511951	1787.923844	8.082317	-0.018935	2.028862
72.643083	1794.793018	8.087322	-0.018972	2.032659
72.957570	1801.646964	8.092326	-0.019054	2.036455
73.148624	1808.410517	8.097331	-0.019105	2.040185
73.271889	1815.307489	8.102336	-0.019140	2.043976
73.361488	1822.185073	8.107341	-0.019167	2.047746
73.742369	1829.080789	8.112346	-0.019265	2.051542
74.028906	1835.911924	8.117350	-0.019340	2.055289
74.280338	1842.722844	8.122355	-0.019406	2.059015
74.543826	1849.582805	8.127360	-0.019475	2.062762
74.836022	1856.369771	8.132365	-0.019551	2.066464
74.975180	1863.175044	8.137370	-0.019590	2.070158
75.217370	1870.028510	8.142374	-0.019654	2.073879
75.367718	1876.870134	8.147379	-0.019696	2.077581
75.478757	1883.755763	8.152384	-0.019728	2.081296
75.551985	1890.619301	8.157389	-0.019750	2.084990
75.750876	1897.568734	8.162394	-0.019804	2.088732
75.656105	1904.589207	8.167398	-0.019786	2.092484
75.605695	1911.684365	8.172403	-0.019778	2.096273
75.682727	1918.795748	8.177408	-0.019802	2.100072
75.835993	1925.896430	8.182413	-0.019845	2.103865
76.058834	1933.039641	8.187418	-0.019904	2.107679
76.169027	1940.191145	8.192422	-0.019936	2.111482
76.373286	1947.337425	8.197427	-0.019991	2.115282
76.539690	1954.530662	8.202432	-0.020037	2.119098
76.804947	1961.651822	8.207437	-0.020106	2.122876
77.113057	1968.838891	8.212442	-0.020187	2.126684
77.491219	1975.938976	8.217446	-0.020284	2.130446
77.711288	1983.036354	8.222451	-0.020343	2.134188
78.115107	1990.129164	8.227456	-0.020447	2.137934
78.296971	1997.175268	8.232461	-0.020496	2.141633
78.810613	2004.180550	8.237466	-0.020626	2.145328
78.916668	2011.185978	8.242470	-0.020657	2.148987
79.285919	2018.186592	8.247475	-0.020752	2.152657
79.441186	2025.225291	8.252480	-0.020795	2.156325
79.451566	2032.225836	8.257485	-0.020803	2.159956
79.587360	2039.327153	8.262490	-0.020841	2.163642
79.604482	2046.470566	8.267494	-0.020850	2.167336
79.473527	2053.710671	8.272499	-0.020823	2.171062
79.583921	2060.988950	8.277504	-0.020855	2.174819
79.605132	2068.295727	8.282509	-0.020866	2.178577
79.649293	2075.676538	8.287514	-0.020882	2.182369
79.871579	2083.050838	8.292518	-0.020941	2.186163
80.065879	2090.376851	8.297523	-0.020994	2.189924
80.385036	2097.746063	8.302528	-0.021077	2.193709
80.661064	2105.049784	8.307533	-0.021150	2.197451
80.860633	2112.407193	8.312538	-0.021204	2.201209
81.135280	2119.741334	8.317542	-0.021276	2.204954
81.321797	2127.027935	8.322547	-0.021327	2.208662
81.664451	2134.387955	8.327552	-0.021416	2.212412
81.855519	2141.711226	8.332557	-0.021467	2.216126
82.100457	2148.995404	8.337562	-0.021532	2.219818
82.243239	2156.303401	8.342566	-0.021572	2.223509
82.467924	2163.617956	8.347571	-0.021632	2.227203
82.586386	2171.010971	8.352576	-0.021667	2.230922
82.869251	2178.333687	8.357581	-0.021741	2.234612
83.027474	2185.656267	8.362586	-0.021785	2.238286
83.031444	2193.089067	8.367590	-0.021791	2.242000
83.248483	2200.503079	8.372595	-0.021849	2.245712
83.312483	2207.974275	8.377600	-0.021870	2.249436
83.415032	2215.461913	8.382605	-0.021900	2.253165
83.715480	2222.986554	8.387610	-0.021979	2.256919
83.828297	2230.500126	8.392614	-0.022012	2.260649
84.179889	2237.899972	8.397619	-0.022103	2.264332
84.229401	2245.428712	8.402624	-0.022120	2.268053
84.397767	2252.933333	8.407629	-0.022167	2.271763
84.736592	2260.453386	8.412634	-0.022255	2.275487
85.072732	2267.856300	8.417638	-0.022342	2.279146
85.074659	2275.343026	8.422643	-0.022348	2.282819
85.277339	2282.911638	8.427648	-0.022403	2.286539
85.325289	2290.468138	8.432653	-0.022420	2.290237
85.604606	2298.034968	8.437658	-0.022494	2.293949
85.851180	2305.567531	8.442662	-0.022559	2.297636
86.061996	2313.093235	8.447667	-0.022616	2.301312
86.201752	2320.701080	8.452672	-0.022655	2.305017
86.236945	2328.265521	8.457677	-0.022669	2.308688
86.463483	2335.898333	8.462682	-0.022730	2.312399
86.632225	2343.555521	8.467686	-0.022777	2.316112
87.063106	2351.104379	8.472691	-0.022887	2.319782
87.295694	2358.655904	8.477696	-0.022949	2.323436
87.368495	2366.265904	8.482701	-0.022973	2.327103
87.701326	2373.908048	8.487706	-0.023059	2.330795
87.885417	2381.525494	8.492710	-0.023110	2.334460
87.832325	2389.130777	8.497715	-0.023102	2.338099
88.155131	2396.801031	8.502720	-0.023186	2.341787
88.257244	2404.446161	8.507725	-0.023217	2.345443
88.248100	2412.180644	8.512730	-0.023220	2.349129
88.314815	2419.956415	8.517734	-0.023242	2.352834
88.479208	2427.725911	8.522739	-0.023287	2.356536
88.795115	2435.527495	8.527744	-0.023370	2.360256
88.860393	2443.292993	8.532749	-0.023391	2.363938
89.203898	2451.081948	8.537754	-0.023481	2.367642
89.375374	2458.891004	8.542758	-0.023528	2.371340
89.443600	2466.710377	8.547763	-0.023550	2.375030
89.531057	2474.572749	8.552768	-0.023577	2.378737
90.014125	2482.339614	8.557773	-0.023701	2.382415
90.308287	2490.134991	8.562778	-0.023778	2.386090
90.672465	2497.897207	8.567783	-0.023873	2.389748
90.889766	2505.587589	8.572787	-0.023931	2.393359
91.111900	2513.325918	8.577792	-0.023991	2.396986
91.404868	2521.023820	8.582797	-0.024068	2.400593
91.774663	2528.700869	8.587802	-0.024164	2.404190
91.725020	2536.418120	8.592807	-0.024157	2.407775
91.698763	2544.236166	8.597811	-0.024156	2.411404
91.688710	2552.170809	8.602816	-0.024159	2.415082
91.547525	2560.098170	8.607821	-0.024130	2.418743
91.795605	2568.042609	8.612826	-0.024196	2.422429
91.851574	2576.077932	8.617831	-0.024216	2.426140
91.999279	2584.097819	8.622835	-0.024258	2.429844
92.231439	2592.172075	8.627840	-0.024320	2.433572
92.332165	2600.144222	8.632845	-0.024350	2.437239
92.842908	2608.147269	8.637850	-0.024481	2.440938
93.075691	2616.161589	8.642855	-0.024543	2.444622
93.218242	2624.117046	8.647859	-0.024584	2.448267
93.815374	2632.079348	8.652864	-0.024735	2.451936
93.949295	2639.967762	8.657869	-0.024773	2.455539
94.352068	2647.829095	8.662874	-0.024877	2.459140
94.550928	2655.658232	8.667879	-0.024931	2.462710
94.795819	2663.500932	8.672883	-0.024997	2.466283
94.994333	2671.407914	8.677888	-0.025051	2.469877
95.080712	2679.263613	8.682893	-0.025078	2.473437
95.360570	2687.103560	8.687898	-0.025151	2.476996
95.341418	2695.056875	8.692903	-0.025152	2.480584
95.363858	2703.056992	8.697907	-0.025163	2.484190
95.583753	2711.057587	8.702912	-0.025223	2.487802
95.503982	2719.122660	8.707917	-0.025209	2.491421
95.533582	2727.321648	8.712922	-0.025222	2.495101
95.772466	2735.486927	8.717927	-0.025286	2.498772
95.941900	2743.552732	8.722931	-0.025333	2.502389
96.379559	2751.690235	8.727936	-0.025446	2.506046
96.517809	2759.800255	8.732941	-0.025485	2.509671
96.938540	2767.875167	8.737946	-0.025594	2.513289
97.314790	2775.835795	8.742951	-0.025691	2.516849
97.689176	2783.761019	8.747955	-0.025788	2.520388
97.931051	2791.786581	8.752960	-0.025853	2.523960
98.296314	2799.618583	8.757965	-0.025948	2.527447
98.467921	2807.540833	8.762970	-0.025996	2.530959
98.656997	2815.487400	8.767975	-0.026047	2.534478
98.710089	2823.375743	8.772979	-0.026066	2.537959
98.900955	2831.341809	8.777984	-0.026118	2.541477
98.786454	2839.393042	8.782989	-0.026096	2.545012
98.865290	2847.512296	8.787994	-0.026121	2.548582
99.042069	2855.637176	8.792999	-0.026170	2.552154
99.078865	2863.737039	8.798003	-0.026184	2.555703
99.351330	2871.953970	8.803008	-0.026257	2.559310
99.352567	2880.140055	8.808013	-0.026263	2.562885
99.650115	2888.334188	8.813018	-0.026341	2.566473
99.689027	2896.609678	8.818023	-0.026357	2.570079
99.787445	2904.922816	8.823027	-0.026387	2.573699
100.065621	2913.177547	8.828032	-0.026460	2.577297
100.303666	2921.387978	8.833037	-0.026524	2.580869
100.697882	2929.618093	8.838042	-0.026626	2.584452
100.955745	2937.820554	8.843047	-0.026695	2.588012
101.024671	2945.983527	8.848051	-0.026718	2.591540
101.230547	2954.237000	8.853056	-0.026774	2.595110
101.358304	2962.467470	8.858061	-0.026811	2.598660
101.432094	2970.729418	8.863066	-0.026835	2.602217
101.572166	2979.061241	8.868071	-0.026875	2.605802
101.687032	2987.393206	8.873075	-0.026909	2.609381
101.967044	2995.820300	8.878080	-0.026983	2.613003
102.172263	3004.062584	8.883085	-0.027039	2.616538
102.456305	3012.373722	8.888090	-0.027114	2.620102
102.692284	3020.707832	8.893095	-0.027178	2.623667
102.934630	3028.949696	8.898099	-0.027243	2.627189
103.253061	3037.264646	8.903104	-0.027327	2.630741
103.229753	3045.553088	8.908109	-0.027327	2.634261
103.453222	3053.894392	8.913114	-0.027387	2.637810
103.580266	3062.202552	8.918119	-0.027424	2.641336
103.530593	3070.618469	8.923123	-0.027418	2.644894
103.748946	3079.137040	8.928128	-0.027477	2.648503
103.772931	3087.613070	8.933133	-0.027489	2.652081
103.954060	3096.114153	8.938138	-0.027539	2.655671
104.151725	3104.644401	8.943143	-0.027594	2.659269
104.137248	3113.199268	8.948147	-0.027596	2.662864
104.377392	3121.787025	8.953152	-0.027661	2.666478
104.663242	3130.325099	8.958157	-0.027737	2.670069
104.989036	3138.865407	8.963162	-0.027822	2.673658
105.409137	3147.319253	8.968167	-0.027931	2.677210
105.687962	3155.684209	8.973171	-0.028005	2.680714
106.094836	3164.127782	8.978176	-0.028110	2.684251
106.347278	3172.499130	8.983181	-0.028178	2.687747
106.570031	3180.808755	8.988186	-0.028238	2.691212
106.900473	3189.147342	8.993191	-0.028325	2.694689
107.101471	3197.433538	8.998195	-0.028380	2.698133
107.262408	3205.751208	9.003200	-0.028425	2.701585
107.444222	3214.047249	9.008205	-0.028475	2.705024
107.484925	3222.431319	9.013210	-0.028491	2.708489
107.598925	3230.872364	9.018215	-0.028525	2.711977
107.436793	3239.303472	9.023219	-0.028491	2.715444
107.360235	3247.950570	9.028224	-0.028479	2.718999
107.398018	3256.632209	9.033229	-0.028494	2.722568
107.357181	3265.350810	9.038234	-0.028490	2.726145
107.579151	3274.198890	9.043239	-0.028551	2.729780
107.816776	3282.956584	9.048243	-0.028615	2.733375
107.959023	3291.805179	9.053248	-0.028656	2.736998
108.329535	3300.471109	9.058253	-0.028753	2.740551
108.664347	3309.168220	9.063258	-0.028841	2.744111
108.924934	3317.884311	9.068263	-0.028910	2.747671
109.318499	3326.476388	9.073267	-0.029013	2.751181
109.734836	3335.023568	9.078272	-0.029120	2.754669
109.980657	3343.554204	9.083277	-0.029186	2.758139
110.279587	3352.053438	9.088282	-0.029265	2.761594
110.444740	3360.565991	9.093287	-0.029312	2.765045
110.744879	3369.037254	9.098291	-0.029391	2.768480
110.850194	3377.622865	9.103296	-0.029423	2.771949
110.851661	3386.080742	9.108301	-0.029429	2.775359
110.928498	3394.723969	9.113306	-0.029454	2.778841
111.012207	3403.420931	9.118311	-0.029481	2.782341
110.981478	3412.068535	9.123315	-0.029479	2.785813
111.125292	3420.889806	9.128320	-0.029521	2.789356
111.362611	3429.653236	9.133325	-0.029585	2.792875
111.778017	3438.321557	9.138330	-0.029692	2.796359
111.988179	3447.000509	9.143335	-0.029750	2.799835
112.070473	3455.755191	9.148339	-0.029776	2.803332
112.421183	3464.498918	9.153344	-0.029868	2.806830
112.483783	3473.204558	9.158349	-0.029889	2.810298
112.657768	3481.948824	9.163354	-0.029938	2.813780
113.029176	3490.715065	9.168359	-0.030035	2.817275
113.272969	3499.328930	9.173363	-0.030101	2.820700
113.521165	3508.014525	9.178368	-0.030167	2.824150
113.682276	3516.682045	9.183373	-0.030213	2.827585
113.898303	3525.358971	9.188378	-0.030272	2.831021
114.229455	3533.979513	9.193383	-0.030359	2.834435
114.282911	3542.616187	9.198387	-0.030378	2.837841
114.619439	3551.331140	9.203392	-0.030466	2.841285
114.796407	3559.917685	9.208397	-0.030516	2.844667
115.022211	3568.603869	9.213402	-0.030577	2.848087
115.142554	3577.346296	9.218407	-0.030612	2.851520
115.297984	3585.896745	9.223411	-0.030656	2.854876
115.455107	3594.651985	9.228416	-0.030701	2.858308
115.670771	3603.371683	9.233421	-0.030760	2.861723
115.752618	3612.046245	9.238426	-0.030786	2.865113
115.894805	3620.877820	9.243431	-0.030827	2.868561
115.999186	3629.668234	9.248435	-0.030859	2.871988
116.027929	3638.489782	9.253440	-0.030872	2.875421
116.057676	3647.405430	9.258445	-0.030885	2.878885
116.272658	3656.353664	9.263450	-0.030944	2.882365
116.469988	3665.312843	9.268455	-0.030999	2.885844
116.502860	3674.269573	9.273459	-0.031013	2.889313
116.738064	3683.353000	9.278464	-0.031077	2.892833
116.778008	3692.370532	9.283469	-0.031093	2.896316
117.185173	3701.285081	9.288474	-0.031199	2.899769
117.548567	3710.257403	9.293479	-0.031294	2.903237
117.827626	3719.136970	9.298483	-0.031368	2.906663
118.043963	3728.023820	9.303488	-0.031428	2.910086
118.393613	3736.826467	9.308493	-0.031519	2.913477
118.509976	3745.691956	9.313498	-0.031554	2.916880
118.765428	3754.543403	9.318503	-0.031623	2.920278
118.789822	3763.377415	9.323507	-0.031635	2.923658
119.021110	3772.354835	9.328512	-0.031698	2.927096
119.220726	3781.272868	9.333517	-0.031753	2.930506
119.363233	3790.100666	9.338522	-0.031794	2.933875
119.491884	3799.104008	9.343527	-0.031832	2.937307
119.639795	3808.054694	9.348531	-0.031874	2.940716
119.822624	3817.005455	9.353536	-0.031925	2.944122
119.899401	3826.051565	9.358541	-0.031950	2.947556
119.943262	3835.136659	9.363546	-0.031967	2.951000
120.043004	3844.170684	9.368551	-0.031998	2.954423
120.079372	3853.343766	9.373555	-0.032013	2.957892
120.239496	3862.595735	9.378560	-0.032059	2.961391
120.314131	3871.805529	9.383565	-0.032084	2.964867
120.326331	3881.109400	9.388570	-0.032093	2.968372
120.600292	3890.456241	9.393575	-0.032167	2.971898
120.675630	3899.785298	9.398579	-0.032192	2.975407
121.029459	3909.053893	9.403584	-0.032285	2.978897
121.316282	3918.316677	9.408589	-0.032361	2.982379
121.769106	3927.545003	9.413594	-0.032479	2.985849
122.187235	3936.665304	9.418599	-0.032587	2.989274
122.402560	3945.680962	9.423603	-0.032646	2.992649
122.699715	3954.802327	9.428608	-0.032725	2.996062
122.881250	3963.807175	9.433613	-0.032776	2.999424
123.091485	3972.863526	9.438618	-0.032834	3.002803
123.256634	3982.007794	9.443623	-0.032880	3.006209
123.104102	3991.128633	9.448627	-0.032850	3.009593
123.271732	4000.356648	9.453632	-0.032897	3.013023
123.141509	4009.650490	9.458637	-0.032872	3.016464
123.210582	4019.002133	9.463642	-0.032895	3.019928
123.401049	4028.417351	9.468647	-0.032948	3.023416
123.555701	4037.804148	9.473651	-0.032993	3.026888
123.817286	4047.277142	9.478656	-0.033063	3.030391
123.929599	4056.579003	9.483661	-0.033097	3.033822
124.003761	4066.037900	9.488666	-0.033122	3.037306
124.225924	4075.583568	9.493671	-0.033183	3.040822
124.387630	4085.037161	9.498675	-0.033229	3.044299
124.732184	4094.523141	9.503680	-0.033320	3.047789
124.841919	4104.007830	9.508685	-0.033354	3.051267
125.142988	4113.425408	9.513690	-0.033434	3.054723
125.438470	4122.841466	9.518695	-0.033513	3.058174
125.542754	4132.223218	9.523699	-0.033545	3.061603
125.727912	4141.737808	9.528704	-0.033597	3.065078
125.975514	4151.096503	9.533709	-0.033664	3.068495
126.174115	4160.498715	9.538714	-0.033719	3.071922
126.569534	4169.924959	9.543719	-0.033822	3.075360
126.710370	4179.222145	9.548723	-0.033863	3.078740
127.051862	4188.621289	9.553728	-0.033953	3.082158
127.344207	4197.952020	9.558733	-0.034031	3.085547
127.314660	4207.276754	9.563738	-0.034031	3.088921
127.437779	4216.703964	9.568743	-0.034068	3.092332
127.536703	4226.095895	9.573747	-0.034098	3.095727
127.722922	4235.561013	9.578752	-0.034150	3.099146
127.840094	4245.032273	9.583757	-0.034186	3.102562
127.935731	4254.569449	9.588762	-0.034216	3.105997
128.115946	4264.143204	9.593767	-0.034267	3.109443
128.202356	4273.612779	9.598771	-0.034294	3.112846
128.445169	4283.252948	9.603776	-0.034361	3.116311
128.655676	4292.862763	9.608781	-0.034419	3.119760
129.008221	4302.322993	9.613786	-0.034512	3.123155
129.315645	4311.893100	9.618791	-0.034593	3.126585
129.309888	4321.450872	9.623795	-0.034599	3.129998
129.563250	4330.954185	9.628800	-0.034667	3.133395
129.659136	4340.523003	9.633805	-0.034698	3.136807
129.912449	4350.091163	9.638810	-0.034766	3.140219
130.079337	4359.637343	9.643815	-0.034814	3.143618
130.385124	4369.152551	9.648819	-0.034895	3.147005
130.654006	4378.767074	9.653824	-0.034968	3.150423
130.699156	4388.202460	9.658829	-0.034985	3.153768
130.765716	4397.780523	9.663834	-0.035008	3.157161
130.947950	4407.494311	9.668839	-0.035060	3.160601
131.148973	4417.100798	9.673843	-0.035116	3.164000
131.372558	4426.724169	9.678848	-0.035177	3.167401
131.546900	4436.367603	9.683853	-0.035226	3.170805
131.625363	4446.012964	9.688858	-0.035252	3.174203
131.802572	4455.683342	9.693863	-0.035303	3.177609
131.820792	4465.410508	9.698867	-0.035314	3.181027
131.902132	4475.251602	9.703872	-0.035341	3.184483
132.167228	4485.004733	9.708877	-0.035412	3.187909
132.314933	4494.759411	9.713882	-0.035455	3.191329
132.449776	4504.653190	9.718887	-0.035495	3.194793
132.475958	4514.454151	9.723891	-0.035509	3.198219
132.738980	4524.395919	9.728896	-0.035580	3.201696
132.788931	4534.341131	9.733901	-0.035599	3.205165
132.983424	4544.278769	9.738906	-0.035654	3.208631
133.270334	4554.244630	9.743911	-0.035731	3.212105
133.450221	4564.124145	9.748915	-0.035782	3.215543
133.710040	4574.064996	9.753920	-0.035852	3.219000
133.993370	4583.857594	9.758925	-0.035928	3.222403
134.092388	4593.747322	9.763930	-0.035959	3.225831
134.446855	4603.704534	9.768935	-0.036053	3.229285
134.438448	4613.439885	9.773939	-0.036058	3.232651
134.615707	4623.406151	9.778944	-0.036108	3.236097
134.669468	4633.418064	9.783949	-0.036128	3.239552
134.902430	4643.357026	9.788954	-0.036192	3.242982
135.017249	4653.405649	9.793959	-0.036228	3.246444
135.095401	4663.443732	9.798963	-0.036254	3.249897
135.340839	4673.490453	9.803968	-0.036321	3.253353
135.436978	4683.536228	9.808973	-0.036351	3.256803
135.531491	4693.640211	9.813978	-0.036382	3.260268
135.937566	4703.811851	9.818983	-0.036488	3.263759
135.971919	4713.796992	9.823987	-0.036503	3.267175
136.142908	4723.956282	9.828992	-0.036552	3.270650
136.474769	4734.087604	9.833997	-0.036641	3.274115
136.694975	4744.056959	9.839002	-0.036701	3.277519
136.997841	4754.183260	9.844007	-0.036783	3.280974
136.943100	4764.264376	9.849011	-0.036776	3.284403
137.088834	4774.454545	9.854016	-0.036819	3.287869
137.259473	4784.634803	9.859021	-0.036868	3.291329
137.354079	4794.792544	9.864026	-0.036898	3.294776
137.537650	4805.084938	9.869031	-0.036950	3.298267
137.697810	4815.230043	9.874035	-0.036997	3.301703
137.937063	4825.508817	9.879040	-0.037062	3.305183
137.982155	4835.797597	9.884045	-0.037081	3.308659
138.117125	4845.992167	9.889050	-0.037121	3.312101
138.238749	4856.392826	9.894055	-0.037158	3.315608
138.385412	4866.775357	9.899059	-0.037201	3.319107
138.590357	4877.115555	9.904064	-0.037258	3.322588
138.860121	4887.492912	9.909069	-0.037332	3.326079
139.129692	4897.819943	9.914074	-0.037405	3.329550
139.304589	4908.180822	9.919079	-0.037455	3.333027
139.406955	4918.430676	9.924083	-0.037487	3.336461
139.629509	4928.853662	9.929088	-0.037549	3.339952
139.961159	4939.212676	9.934093	-0.037637	3.343420
139.890459	4949.516258	9.939098	-0.037627	3.346859
140.177538	4959.947170	9.944103	-0.037705	3.350343
140.221748	4970.360738	9.949107	-0.037723	3.353813
140.448116	4980.769918	9.954112	-0.037785	3.357281
140.628021	4991.248826	9.959117	-0.037837	3.360768
140.726713	5001.736389	9.964122	-0.037868	3.364253
140.806111	5012.322522	9.969127	-0.037895	3.367766
141.001542	5022.807308	9.974131	-0.037950	3.371244
141.188720	5033.374247	9.979136	-0.038004	3.374746
141.418956	5043.950111	9.984141	-0.038067	3.378248
141.627052	5054.367107	9.989146	-0.038125	3.381693
141.958867	5064.982681	9.994151	-0.038214	3.385202
142.175407	5075.448510	9.999155	-0.038274	3.388656
142.484036	5085.828614	10.004160	-0.038357	3.392080
142.780433	5096.237111	10.009165	-0.038437	3.395509
142.926780	5106.659885	10.014170	-0.038480	3.398938
143.206890	5117.098194	10.019175	-0.038556	3.402370
143.210885	5127.503464	10.024179	-0.038564	3.405783
143.390249	5138.007027	10.029184	-0.038615	3.409228
143.532173	5148.484967	10.034189	-0.038657	3.412660
143.584433	5158.925286	10.039194	-0.038678	3.416075
143.759102	5169.564412	10.044199	-0.038728	3.419554
143.932738	5180.146596	10.049203	-0.038778	3.423010
144.159126	5190.686371	10.054208	-0.038840	3.426450
144.238167	5201.258100	10.059213	-0.038867	3.429895
144.327292	5211.912057	10.064218	-0.038896	3.433363
144.548068	5222.579498	10.069223	-0.038958	3.436833
144.723376	5233.229161	10.074227	-0.039008	3.440294
145.001974	5243.971688	10.079232	-0.039084	3.443783
145.326232	5254.624949	10.084237	-0.039171	3.447240
145.274436	5265.218995	10.089242	-0.039165	3.450669
145.731742	5275.927628	10.094247	-0.039285	3.454138
145.896057	5286.498719	10.099251	-0.039332	3.457556
146.259250	5297.003030	10.104256	-0.039429	3.460952
146.456843	5307.606431	10.109261	-0.039484	3.464373
146.668824	5318.184932	10.114266	-0.039544	3.467784
147.020373	5328.594311	10.119271	-0.039637	3.471138
147.184656	5339.055922	10.124275	-0.039684	3.474504
147.422546	5349.581112	10.129280	-0.039750	3.477888
147.495747	5360.049597	10.134285	-0.039775	3.481247
147.416866	5370.609578	10.139290	-0.039763	3.484631
147.456593	5381.412911	10.144295	-0.039781	3.488092
147.503842	5392.055841	10.149299	-0.039800	3.491497
147.595329	5402.838379	10.154304	-0.039830	3.494944
147.609749	5413.745276	10.159309	-0.039841	3.498427
147.406464	5424.721677	10.164314	-0.039799	3.501925
147.718073	5435.809168	10.169319	-0.039883	3.505462
147.989417	5446.787985	10.174323	-0.039957	3.508961
148.160039	5457.828035	10.179328	-0.040006	3.512473
148.400758	5468.802823	10.184333	-0.040073	3.515963
148.700827	5479.762801	10.189338	-0.040154	3.519445
148.873611	5490.814534	10.194343	-0.040204	3.522951
148.850641	5501.843345	10.199347	-0.040206	3.526444
149.142583	5512.876290	10.204352	-0.040285	3.529938
149.418083	5523.909129	10.209357	-0.040360	3.533429
149.444659	5534.902849	10.214362	-0.040375	3.536901
149.752481	5545.895210	10.219367	-0.040458	3.540372
149.819101	5556.942943	10.224371	-0.040482	3.543855
150.139070	5568.056057	10.229376	-0.040568	3.547357
150.195172	5579.040756	10.234381	-0.040589	3.550813
150.312568	5590.107619	10.239386	-0.040626	3.554292
150.540325	5601.280093	10.244391	-0.040689	3.557802
150.601303	5612.393810	10.249395	-0.040712	3.561288
150.936824	5623.466247	10.254400	-0.040802	3.564760

151.322298	5634.425288	10.259405	-0.040904	3.568195
151.291362	5645.254251	10.264410	-0.040904	3.571580
151.483748	5656.087086	10.269415	-0.040958	3.574967
151.553440	5666.877312	10.274419	-0.040983	3.578335
151.679023	5677.640887	10.279424	-0.041021	3.581692
151.748277	5688.355308	10.284429	-0.041046	3.585031
151.869710	5699.010867	10.289434	-0.041083	3.588348
151.797390	5709.752818	10.294439	-0.041073	3.591687
151.750841	5720.382264	10.299443	-0.041069	3.594989
151.797543	5731.220865	10.304448	-0.041088	3.598353
151.943688	5741.992060	10.309453	-0.041131	3.601694
152.201919	5752.521926	10.314458	-0.041202	3.604959
152.746842	5763.110423	10.319463	-0.041343	3.608241
153.024242	5773.388589	10.324467	-0.041418	3.611422
153.394714	5783.461959	10.329472	-0.041515	3.614537
153.874994	5793.543079	10.334477	-0.041640	3.617653
154.093810	5803.272104	10.339482	-0.041700	3.620656
154.428496	5813.069886	10.344487	-0.041789	3.623678
154.715413	5822.678579	10.349491	-0.041866	3.626639
154.968196	5832.037369	10.354496	-0.041934	3.629520
154.953216	5841.522952	10.359501	-0.041937	3.632435
154.700432	5850.965754	10.364506	-0.041882	3.635334
154.670091	5860.605297	10.369511	-0.041881	3.638292
154.525495	5870.232332	10.374515	-0.041853	3.641243
154.417231	5879.898754	10.379520	-0.041833	3.644204
154.455757	5889.677250	10.384525	-0.041849	3.647198
154.681937	5899.197534	10.389530	-0.041911	3.650112
154.934375	5908.822983	10.394535	-0.041980	3.653056
155.031218	5918.305910	10.399539	-0.042010	3.655953
155.393136	5927.649503	10.404544	-0.042105	3.658807
155.609091	5937.032937	10.409549	-0.042165	3.661670
155.973933	5946.073688	10.414554	-0.042260	3.664427
156.324283	5955.199774	10.419559	-0.042352	3.667208
156.541723	5963.947123	10.424563	-0.042412	3.669871
156.747379	5972.802938	10.429568	-0.042468	3.672564
156.838610	5981.539575	10.434573	-0.042496	3.675219
157.047693	5990.201624	10.439578	-0.042554	3.677850
157.318853	5998.796478	10.444583	-0.042626	3.680459
157.208357	6007.349685	10.449587	-0.042605	3.683051
157.246618	6015.973535	10.454592	-0.042620	3.685663
157.031161	6024.538048	10.459597	-0.042574	3.688254
157.021649	6033.205083	10.464602	-0.042578	3.690876
157.124176	6041.815892	10.469607	-0.042609	3.693479
157.048226	6050.497724	10.474611	-0.042596	3.696101
157.383873	6059.020598	10.479616	-0.042684	3.698676
157.583687	6067.615640	10.484621	-0.042739	3.701270
157.843777	6075.848757	10.489626	-0.042809	3.703753
158.110999	6084.335194	10.494631	-0.042880	3.706311
158.224508	6092.322388	10.499635	-0.042913	3.708716
158.478956	6100.528955	10.504640	-0.042981	3.711186
158.767330	6108.444346	10.509645	-0.043057	3.713567
158.875445	6116.412201	10.514650	-0.043089	3.715961
158.935061	6124.281137	10.519655	-0.043109	3.718324
159.149970	6132.121916	10.524659	-0.043167	3.720678
159.192575	6139.863786	10.529664	-0.043183	3.722999
159.348459	6147.668818	10.534669	-0.043227	3.725339
159.238182	6155.337815	10.539674	-0.043205	3.727635
159.155195	6163.093429	10.544679	-0.043190	3.729955
159.156206	6170.909737	10.549683	-0.043196	3.732293
159.346870	6178.597969	10.554688	-0.043248	3.734592
159.305552	6186.432127	10.559693	-0.043244	3.736932
159.344606	6194.000914	10.564698	-0.043259	3.739192
159.514508	6201.864074	10.569703	-0.043306	3.741539
159.513314	6209.397923	10.574707	-0.043311	3.743785
159.754596	6217.121891	10.579712	-0.043375	3.746088
160.084425	6224.449693	10.584717	-0.043461	3.748271
160.373646	6231.856041	10.589722	-0.043537	3.750477
160.643045	6239.096066	10.594727	-0.043608	3.752632
160.935127	6246.163520	10.599731	-0.043684	3.754734
161.135528	6253.175555	10.604736	-0.043738	3.756819
161.213396	6260.072551	10.609741	-0.043762	3.758867
161.290525	6267.038598	10.614746	-0.043785	3.760935
161.422317	6273.853964	10.619751	-0.043822	3.762957
161.545035	6280.693206	10.624755	-0.043857	3.764985
161.505714	6287.504877	10.629760	-0.043852	3.767003
161.488786	6294.271353	10.634765	-0.043853	3.769007
161.268695	6301.174154	10.639770	-0.043804	3.771049
161.431356	6307.961120	10.644775	-0.043849	3.773057
161.301510	6314.869978	10.649779	-0.043822	3.775099
161.281701	6321.769372	10.654784	-0.043822	3.777138
161.328565	6328.617649	10.659789	-0.043838	3.779161
161.424436	6335.571578	10.664794	-0.043866	3.781214
161.582661	6342.311502	10.669799	-0.043910	3.783203
161.723613	6349.155880	10.674803	-0.043949	3.785221
161.890467	6355.784290	10.679808	-0.043995	3.787175
162.115823	6362.369860	10.684813	-0.044054	3.789116
162.425542	6368.924955	10.689818	-0.044135	3.791047
162.727979	6375.168405	10.694823	-0.044213	3.792885
162.962960	6381.450861	10.699827	-0.044275	3.794734
163.131516	6387.629976	10.704832	-0.044320	3.796551
163.291672	6393.600715	10.709837	-0.044364	3.798306
163.202256	6399.655872	10.714842	-0.044346	3.800084
163.308691	6405.762648	10.719847	-0.044376	3.801877
163.319206	6411.740397	10.724851	-0.044383	3.803630
163.265388	6417.844081	10.729856	-0.044374	3.805420
163.351283	6423.859606	10.734861	-0.044399	3.807184
163.381056	6429.778375	10.739866	-0.044411	3.808918
163.462851	6435.872042	10.744871	-0.044435	3.810703
163.522432	6441.722403	10.749875	-0.044454	3.812416
163.701885	6447.613675	10.754880	-0.044502	3.814140
163.842045	6453.588158	10.759885	-0.044540	3.815888
164.041491	6459.139686	10.764890	-0.044593	3.817511
164.049919	6464.976579	10.769895	-0.044599	3.819217
163.987731	6470.723749	10.774899	-0.044588	3.820895
164.099209	6476.316691	10.779904	-0.044619	3.822528
164.203819	6482.102605	10.784909	-0.044649	3.824217
164.395338	6487.743654	10.789914	-0.044699	3.825863
164.669450	6493.055511	10.794919	-0.044770	3.827412
164.714785	6498.489486	10.799923	-0.044785	3.828996
164.926878	6503.921070	10.804928	-0.044841	3.830579
165.145020	6509.159751	10.809933	-0.044898	3.832105
165.127034	6514.342487	10.814938	-0.044897	3.833614
165.168981	6519.664139	10.819943	-0.044911	3.835162
165.153425	6524.842408	10.824947	-0.044911	3.836668
165.191827	6529.940655	10.829952	-0.044924	3.838150
165.124993	6535.272714	10.834957	-0.044911	3.839700
165.140069	6540.524594	10.839962	-0.044918	3.841226
165.133723	6545.693778	10.844967	-0.044921	3.842727
165.226497	6551.003032	10.849971	-0.044947	3.844268
165.303709	6556.260750	10.854976	-0.044970	3.845794
165.508143	6561.069673	10.859981	-0.045023	3.847189
165.515665	6566.083150	10.864986	-0.045028	3.848643
165.710188	6571.225483	10.869991	-0.045079	3.850133
165.793985	6576.098984	10.874995	-0.045103	3.851545
165.773463	6580.930765	10.880000	-0.045102	3.852945
166.104526	6585.957316	10.885005	-0.045186	3.854400
166.177796	6590.722010	10.890010	-0.045207	3.855779
166.370861	6595.313929	10.895015	-0.045258	3.857108
166.525016	6599.994096	10.900019	-0.045299	3.858462
166.754969	6604.561019	10.905024	-0.045358	3.859783
166.749347	6609.115764	10.910029	-0.045360	3.861099
166.768033	6613.419005	10.915034	-0.045367	3.862342
166.930440	6618.035345	10.920039	-0.045410	3.863675
166.995160	6622.464553	10.925043	-0.045429	3.864954
166.928117	6626.828836	10.930048	-0.045416	3.866214
166.963638	6631.123667	10.935053	-0.045428	3.867453
166.920409	6635.524204	10.940058	-0.045420	3.868722
166.961717	6640.040578	10.945063	-0.045433	3.870024
167.041614	6644.406634	10.950067	-0.045456	3.871282
167.079195	6648.631268	10.955072	-0.045468	3.872500
167.111503	6653.077335	10.960077	-0.045479	3.873780
167.219183	6657.411782	10.965082	-0.045509	3.875029
167.239052	6661.733914	10.970087	-0.045516	3.876273
167.180783	6665.861342	10.975091	-0.045505	3.877460
167.345345	6670.209514	10.980096	-0.045548	3.878711
167.437955	6674.487737	10.985101	-0.045574	3.879942
167.633010	6678.640976	10.990106	-0.045625	3.881136
167.766232	6682.608881	10.995111	-0.045660	3.882276
167.982101	6686.689649	11.000115	-0.045716	3.883449
168.062057	6690.615595	11.005120	-0.045738	3.884577
168.179810	6694.602394	11.010125	-0.045769	3.885721
168.277902	6698.160783	11.015130	-0.045796	3.886743
168.378489	6702.008460	11.020135	-0.045823	3.887847
168.364260	6705.827104	11.025139	-0.045822	3.888943
168.382583	6709.615163	11.030144	-0.045829	3.890029
168.496016	6713.343055	11.035149	-0.045860	3.891098
168.463007	6716.883917	11.040154	-0.045854	3.892113
168.292498	6720.678809	11.045159	-0.045815	3.893200
168.400540	6724.558010	11.050163	-0.045844	3.894312
168.512638	6728.257362	11.055168	-0.045874	3.895371
168.449312	6731.946116	11.060173	-0.045861	3.896428
168.503851	6735.500370	11.065178	-0.045877	3.897445
168.512633	6739.315325	11.070183	-0.045882	3.898537
168.707216	6743.039351	11.075187	-0.045932	3.899602
168.757714	6746.638042	11.080192	-0.045947	3.900632
168.822329	6750.112097	11.085197	-0.045965	3.901625
168.975247	6753.628430	11.090202	-0.046005	3.902630
169.036349	6757.164397	11.095207	-0.046022	3.903641
169.110246	6760.638989	11.100211	-0.046043	3.904634
169.097659	6764.104742	11.105216	-0.046042	3.905624
169.183691	6767.284811	11.110221	-0.046066	3.906532
169.089238	6770.705310	11.115226	-0.046045	3.907509
169.400652	6774.197404	11.120231	-0.046123	3.908505
169.636004	6777.398366	11.125235	-0.046183	3.909419
169.621319	6780.616703	11.130240	-0.046182	3.910337
169.770389	6783.745937	11.135245	-0.046220	3.911230
169.724576	6786.758851	11.140250	-0.046211	3.912089
169.730665	6789.925723	11.145255	-0.046215	3.912992
169.888247	6793.059324	11.150259	-0.046256	3.913885
169.826539	6796.127977	11.155264	-0.046243	3.914759
169.911628	6799.316744	11.160269	-0.046266	3.915668
169.910673	6802.165361	11.165274	-0.046268	3.916479
170.080913	6805.257977	11.170279	-0.046311	3.917360
169.922440	6808.269027	11.175283	-0.046275	3.918217
169.887511	6811.301578	11.180288	-0.046268	3.919081
169.789317	6814.490566	11.185293	-0.046247	3.919988
169.779029	6817.590326	11.190298	-0.046246	3.920870
169.583987	6820.667642	11.195303	-0.046201	3.921746
169.644025	6823.909343	11.200307	-0.046218	3.922667
169.887738	6827.043227	11.205312	-0.046279	3.923558
169.938341	6830.185409	11.210317	-0.046294	3.924452
170.221651	6833.096703	11.215322	-0.046365	3.925279
170.356463	6836.054674	11.220327	-0.046400	3.926119
170.566894	6838.685846	11.225331	-0.046453	3.926867
170.756671	6841.443951	11.230336	-0.046502	3.927650
170.945007	6844.100379	11.235341	-0.046550	3.928404
171.109045	6846.591255	11.240346	-0.046591	3.929112
170.987481	6849.226320	11.245351	-0.046564	3.929860
170.904298	6851.803615	11.250355	-0.046545	3.930591
170.812986	6854.154697	11.255360	-0.046524	3.931258
170.585075	6856.890041	11.260365	-0.046471	3.932034
170.624139	6859.563579	11.265370	-0.046482	3.932793
170.626090	6862.395017	11.270375	-0.046484	3.933596
170.421670	6865.126459	11.275379	-0.046436	3.934370
170.461187	6868.008652	11.280384	-0.046448	3.935187
170.610215	6870.746246	11.285389	-0.046486	3.935963
170.769341	6873.292702	11.290394	-0.046527	3.936685
170.919750	6875.918979	11.295399	-0.046566	3.937429
171.004870	6878.621692	11.300403	-0.046588	3.938194
171.436758	6881.052304	11.305408	-0.046696	3.938882
171.616686	6883.379169	11.310413	-0.046741	3.939541
171.588240	6885.601180	11.315418	-0.046736	3.940170
171.916961	6887.889494	11.320423	-0.046818	3.940818
171.865147	6889.804389	11.325427	-0.046806	3.941360
171.971672	6891.907517	11.330432	-0.046834	3.941955
171.936087	6894.009500	11.335437	-0.046827	3.942549
171.771024	6896.146770	11.340442	-0.046788	3.943154
171.639720	6898.415800	11.345447	-0.046757	3.943796
171.519839	6900.690736	11.350451	-0.046729	3.944439
171.383944	6903.021195	11.355456	-0.046698	3.945098
171.387654	6905.431953	11.360461	-0.046700	3.945780
171.265725	6907.552242	11.365466	-0.046672	3.946379
171.204973	6910.029867	11.370471	-0.046659	3.947080
171.148765	6912.544402	11.375475	-0.046647	3.947790
171.369627	6914.979595	11.380480	-0.046703	3.948478
171.631183	6917.357899	11.385485	-0.046768	3.949150
171.751585	6919.529431	11.390490	-0.046799	3.949763
171.961524	6921.738110	11.395495	-0.046852	3.950386
172.212844	6923.632127	11.400499	-0.046915	3.950921
172.389436	6925.408925	11.405504	-0.046959	3.951422
172.451595	6927.451044	11.410509	-0.046976	3.951998
172.477071	6929.226703	11.415514	-0.046983	3.952499
172.689193	6931.075201	11.420519	-0.047036	3.953021
172.609662	6932.888569	11.425523	-0.047018	3.953533
172.570751	6934.588319	11.430528	-0.047010	3.954012
172.594551	6936.543105	11.435533	-0.047017	3.954563
172.425954	6938.294822	11.440538	-0.046977	3.955058
172.465489	6940.200357	11.445543	-0.046988	3.955595
172.319434	6941.903875	11.450547	-0.046953	3.956075
172.223536	6943.825963	11.455552	-0.046931	3.956617
172.200737	6945.821710	11.460557	-0.046927	3.957180
171.871155	6947.829754	11.465562	-0.046848	3.957746
172.040406	6949.989731	11.470567	-0.046891	3.958355
172.083248	6952.090787	11.475571	-0.046903	3.958947
172.203941	6954.154819	11.480576	-0.046934	3.959528
172.495729	6956.132355	11.485581	-0.047006	3.960085
172.469067	6957.911446	11.490586	-0.047001	3.960586
172.691416	6959.578791	11.495591	-0.047057	3.961055
172.888933	6961.286161	11.500595	-0.047106	3.961535
172.942325	6962.929881	11.505600	-0.047120	3.961998
172.948496	6964.519229	11.510605	-0.047123	3.962446
172.828495	6966.277885	11.515610	-0.047095	3.962941
172.876825	6967.870027	11.520615	-0.047108	3.963389
173.022329	6969.599294	11.525619	-0.047144	3.963875
172.901901	6971.105563	11.530624	-0.047116	3.964299
172.854997	6972.904220	11.535629	-0.047106	3.964805
172.744053	6974.486347	11.540634	-0.047080	3.965250
172.659307	6976.253042	11.545639	-0.047060	3.965747
172.818893	6977.780269	11.550643	-0.047100	3.966177
172.788429	6979.458823	11.555648	-0.047094	3.966649
172.890681	6981.190448	11.560653	-0.047120	3.967135
172.999881	6982.797944	11.565658	-0.047148	3.967587
173.073950	6984.388790	11.570663	-0.047167	3.968034
173.223013	6986.005767	11.575667	-0.047205	3.968488
173.350117	6987.408408	11.580672	-0.047237	3.968882
173.486944	6988.811252	11.585677	-0.047271	3.969276
173.375041	6990.269574	11.590682	-0.047245	3.969686
173.415512	6991.638851	11.595687	-0.047256	3.970071
173.492114	6993.051808	11.600691	-0.047275	3.970468
173.294351	6994.196635	11.605696	-0.047228	3.970790
173.243705	6995.750318	11.610701	-0.047217	3.971226
173.088970	6997.155724	11.615706	-0.047180	3.971621
172.985900	6998.728325	11.620711	-0.047156	3.972063
172.772466	7000.402766	11.625715	-0.047105	3.972533
172.708649	7002.188343	11.630720	-0.047090	3.973035
172.943641	7003.895784	11.635725	-0.047149	3.973514
173.017093	7005.479038	11.640730	-0.047168	3.973958
173.247793	7007.137939	11.645735	-0.047225	3.974423
173.379694	7008.490495	11.650739	-0.047259	3.974802
173.598590	7009.854836	11.655744	-0.047313	3.975185
173.898392	7011.313293	11.660749	-0.047387	3.975594
174.131021	7012.024722	11.665754	-0.047445	3.975793
174.283745	7013.136396	11.670759	-0.047483	3.976104
174.255247	7014.130187	11.675763	-0.047476	3.976383
174.230853	7015.058394	11.680768	-0.047471	3.976643
174.149232	7016.105427	11.685773	-0.047452	3.976937
173.980211	7017.067380	11.690778	-0.047411	3.977207
173.767376	7018.300788	11.695783	-0.047360	3.977554
173.551205	7019.611101	11.700787	-0.047308	3.977921
173.451998	7020.925594	11.705792	-0.047285	3.978290
173.338869	7022.435015	11.710797	-0.047258	3.978713
173.235044	7023.841059	11.715802	-0.047234	3.979108
173.150189	7025.321991	11.720807	-0.047214	3.979523
173.172258	7027.033258	11.725811	-0.047221	3.980002
173.174653	7028.410345	11.730816	-0.047222	3.980388
173.406615	7029.792409	11.735821	-0.047280	3.980775
173.580722	7031.151957	11.740826	-0.047323	3.981156
173.870887	7032.443316	11.745831	-0.047395	3.981517
174.303820	7033.549620	11.750835	-0.047501	3.981826
174.449579	7034.309675	11.755840	-0.047538	3.982039
174.648349	7035.364431	11.760845	-0.047587	3.982334
174.751950	7036.148842	11.765850	-0.047613	3.982553
174.752464	7036.687327	11.770855	-0.047613	3.982704
174.623668	7037.650867	11.775859	-0.047582	3.982974
174.367043	7038.500980	11.780864	-0.047520	3.983212
174.097814	7039.504928	11.785869	-0.047455	3.983494
173.748076	7040.552988	11.790874	-0.047370	3.983788
173.498670	7041.895105	11.795879	-0.047310	3.984164
173.473314	7043.368264	11.800883	-0.047305	3.984577
173.453512	7044.695484	11.805888	-0.047301	3.984948
173.431634	7046.153335	11.810893	-0.047297	3.985356
173.301584	7047.266940	11.815898	-0.047266	3.985668
173.516716	7048.772473	11.820903	-0.047320	3.986089
173.690180	7050.092645	11.825907	-0.047363	3.986458
173.926022	7051.238185	11.830912	-0.047421	3.986778
174.156368	7052.399419	11.835917	-0.047478	3.987102
174.364432	7053.312807	11.840922	-0.047530	3.987358
174.540701	7054.167989	11.845927	-0.047573	3.987596
174.789951	7055.296150	11.850931	-0.047635	3.987911
174.826579	7055.794318	11.855936	-0.047644	3.988051
174.908116	7056.455834	11.860941	-0.047665	3.988235
174.747346	7057.305412	11.865946	-0.047626	3.988473
174.604437	7057.889424	11.870951	-0.047591	3.988637
174.413609	7058.770118	11.875955	-0.047545	3.988884
174.054793	7059.802599	11.880960	-0.047458	3.989173
173.750957	7061.056663	11.885965	-0.047385	3.989524
173.720639	7062.271536	11.890970	-0.047379	3.989864
173.603139	7063.622126	11.895975	-0.047351	3.990242
173.560564	7064.850523	11.900979	-0.047341	3.990585
173.620583	7065.930101	11.905984	-0.047357	3.990887
173.926989	7067.273076	11.910989	-0.047432	3.991261
174.031858	7068.384482	11.915994	-0.047459	3.991572
174.386025	7069.499014	11.920999	-0.047546	3.991882
174.621119	7070.379172	11.926003	-0.047604	3.992128
174.739291	7070.992504	11.931008	-0.047633	3.992299
174.919946	7071.974058	11.936013	-0.047678	3.992573
175.049623	7072.523850	11.941018	-0.047710	3.992726
175.091151	7073.150105	11.946023	-0.047721	3.992901
175.219275	7073.718940	11.951027	-0.047752	3.993059
174.986613	7074.175428	11.956032	-0.047696	3.993187
174.964213	7074.973412	11.961037	-0.047691	3.993410
174.496669	7075.508575	11.966042	-0.047577	3.993561
174.339866	7076.436367	11.971047	-0.047539	3.993820
174.197977	7077.591299	11.976051	-0.047506	3.994143
174.047934	7078.514791	11.981056	-0.047469	3.994401
174.097422	7079.693763	11.986061	-0.047482	3.994730
174.174083	7080.790297	11.991066	-0.047502	3.995036
174.321608	7081.829332	11.996071	-0.047539	3.995326
174.489450	7082.643797	12.001075	-0.047580	3.995553
174.778985	7083.202035	12.006080	-0.047651	3.995708
175.004515	7084.199398	12.011085	-0.047707	3.995986
175.157724	7084.579861	12.016090	-0.047745	3.996092
175.250395	7085.229452	12.021095	-0.047768	3.996273
175.304902	7085.455877	12.026099	-0.047781	3.996336
175.362323	7086.384925	12.031104	-0.047796	3.996595
175.288628	7086.420123	12.036109	-0.047778	3.996605
175.245814	7087.242119	12.041114	-0.047768	3.996834
175.056593	7087.458747	12.046119	-0.047722	3.996895
174.967048	7088.381116	12.051123	-0.047701	3.997153
174.858803	7088.764029	12.056128	-0.047674	3.997260
174.720027	7089.802449	12.061133	-0.047641	3.997550
174.564604	7090.494991	12.066138	-0.047604	3.997744
174.434817	7091.332145	12.071143	-0.047573	3.997977
174.487649	7092.177580	12.076147	-0.047586	3.998213
174.601885	7093.060518	12.081152	-0.047615	3.998459
174.803776	7094.030444	12.086157	-0.047665	3.998729
174.976423	7094.420327	12.091162	-0.047707	3.998837
175.253494	7095.427941	12.096167	-0.047775	3.999118
175.444767	7095.474335	12.101171	-0.047822	3.999130
175.418667	7096.185027	12.106176	-0.047816	3.999329
175.543309	7096.536514	12.111181	-0.047847	3.999426
175.604889	7096.478815	12.116186	-0.047862	3.999410
175.479802	7097.347711	12.121191	-0.047832	3.999653
175.502587	7097.703964	12.126195	-0.047838	3.999752
175.252785	7097.729831	12.131200	-0.047777	3.999760
175.302621	7098.816398	12.136205	-0.047790	4.000063
175.117253	7098.764426	12.141210	-0.047744	4.000048
175.043025	7099.947434	12.146215	-0.047727	4.000378
174.946914	7100.139226	12.151219	-0.047703	4.000432
174.860547	7100.854099	12.156224	-0.047683	4.000632
175.042146	7101.454833	12.161229	-0.047728	4.000799
175.053635	7102.016051	12.166234	-0.047731	4.000955
175.098918	7102.717592	12.171239	-0.047742	4.001151
175.247631	7103.126592	12.176243	-0.047779	4.001264
175.267102	7103.723794	12.181248	-0.047784	4.001431
175.435438	7104.340238	12.186253	-0.047826	4.001602
175.307926	7104.441068	12.191258	-0.047794	4.001630
175.380840	7105.342387	12.196263	-0.047813	4.001881
175.524522	7105.366045	12.201267	-0.047848	4.001888
175.361837	7105.788102	12.206272	-0.047809	4.002006
175.528196	7106.535715	12.211277	-0.047850	4.002214
175.381338	7106.485131	12.216282	-0.047814	4.002200
175.431767	7107.284427	12.221287	-0.047827	4.002422
175.462086	7107.658926	12.226291	-0.047834	4.002527
175.443708	7107.613944	12.231296	-0.047830	4.002514
175.400593	7108.794588	12.236301	-0.047820	4.002843
175.400277	7108.806911	12.241306	-0.047820	4.002847
175.378170	7109.214605	12.246311	-0.047815	4.002960
175.402196	7109.962273	12.251315	-0.047821	4.003169
175.357417	7109.905843	12.256320	-0.047810	4.003153
175.500723	7110.905647	12.261325	-0.047846	4.003431
175.514829	7110.970774	12.266330	-0.047849	4.003449
175.511057	7110.997637	12.271335	-0.047848	4.003457
175.511388	7112.136354	12.276339	-0.047849	4.003774
175.374823	7112.157551	12.281344	-0.047816	4.003780
175.345755	7112.521563	12.286349	-0.047809	4.003882
175.224457	7113.323029	12.291354	-0.047780	4.004105
175.224953	7113.468751	12.296359	-0.047780	4.004146
175.416147	7114.423283	12.301363	-0.047827	4.004411
175.423486	7114.412138	12.306368	-0.047829	4.004408
175.473924	7115.008977	12.311373	-0.047842	4.004574
175.513700	7115.550812	12.316378	-0.047852	4.004725
175.569287	7115.522163	12.321383	-0.047865	4.004717
175.631767	7116.083284	12.326387	-0.047881	4.004873
175.624205	7116.646038	12.331392	-0.047880	4.005030
175.664341	7116.705823	12.336397	-0.047889	4.005046
175.647275	7116.663062	12.341402	-0.047885	4.005034
175.652138	7117.732756	12.346407	-0.047887	4.005332
175.812094	7117.913612	12.351411	-0.047926	4.005382
175.724023	7117.873566	12.356416	-0.047905	4.005371
175.752134	7117.935491	12.361421	-0.047912	4.005388
175.701002	7118.451948	12.366426	-0.047899	4.005532
175.643543	7118.747456	12.371431	-0.047886	4.005615
175.586510	7118.764877	12.376435	-0.047872	4.005620
175.321595	7119.079806	12.381440	-0.047807	4.005708
175.624924	7119.838396	12.386445	-0.047882	4.005918
175.407369	7119.815099	12.391450	-0.047829	4.005913
175.412050	7120.500347	12.396455	-0.047830	4.006103
175.556187	7120.986155	12.401459	-0.047866	4.006238
175.580979	7120.967315	12.406464	-0.047872	4.006233
175.613622	7121.641663	12.411469	-0.047880	4.006420
175.699907	7122.146052	12.416474	-0.047901	4.006561
175.745647	7122.118431	12.421479	-0.047913	4.006553
175.749698	7122.194737	12.426483	-0.047914	4.006574
175.795019	7122.669608	12.431488	-0.047925	4.006706
175.864347	7123.237818	12.436493	-0.047942	4.006864
175.855898	7123.190627	12.441498	-0.047940	4.006851
175.839938	7123.214034	12.446503	-0.047936	4.006858
175.836170	7123.205025	12.451507	-0.047935	4.006855
175.897971	7123.360391	12.456512	-0.047951	4.006898
175.836438	7124.406418	12.461517	-0.047936	4.007189
175.736411	7124.365105	12.466522	-0.047912	4.007178
175.668153	7124.349888	12.471527	-0.047895	4.007174
175.764938	7124.386681	12.476531	-0.047919	4.007184
175.642511	7125.005907	12.481536	-0.047889	4.007357
175.800269	7125.504356	12.486541	-0.047928	4.007495
175.798909	7125.477417	12.491546	-0.047928	4.007488
175.792416	7125.471746	12.496551	-0.047926	4.007486
175.785739	7125.859858	12.501555	-0.047925	4.007594
175.966216	7126.648021	12.506560	-0.047969	4.007813
175.983902	7126.711016	12.511565	-0.047974	4.007830
175.973140	7126.662669	12.516570	-0.047971	4.007817
175.988388	7126.691982	12.521575	-0.047975	4.007825
176.084318	7126.692877	12.526579	-0.047998	4.007825
176.044479	7126.661088	12.531584	-0.047988	4.007816
176.074799	7126.718592	12.536589	-0.047996	4.007832
176.036429	7126.668865	12.541594	-0.047986	4.007819
175.915420	7127.694377	12.546599	-0.047957	4.008104
175.814810	7127.792174	12.551603	-0.047933	4.008132
175.711312	7127.736223	12.556608	-0.047907	4.008116
175.739629	7127.761172	12.561613	-0.047914	4.008123
175.702415	7128.167012	12.566618	-0.047906	4.008236
175.567363	7128.885015	12.571623	-0.047873	4.008436
175.586915	7128.903152	12.576627	-0.047878	4.008441
175.558832	7128.962361	12.581632	-0.047871	4.008458
175.804243	7130.057684	12.586637	-0.047932	4.008762
175.998824	7130.037074	12.591642	-0.047979	4.008756
176.170681	7129.997172	12.596647	-0.048021	4.008744
176.293085	7130.046583	12.601651	-0.048051	4.008758
176.387766	7129.982385	12.606656	-0.048074	4.008740
176.475292	7130.044934	12.611661	-0.048095	4.008757
176.467262	7130.032512	12.616666	-0.048093	4.008753
176.440150	7130.004199	12.621671	-0.048087	4.008745
176.326964	7130.067097	12.626675	-0.048059	4.008763
176.084543	7130.005329	12.631680	-0.048000	4.008747
175.971318	7130.033438	12.636685	-0.047972	4.008755
175.947809	7130.036581	12.641690	-0.047966	4.008756
175.791783	7129.980118	12.646695	-0.047928	4.008740
175.751628	7130.043706	12.651699	-0.047918	4.008758
175.749035	7130.813553	12.656704	-0.047918	4.008972
175.775562	7131.180797	12.661709	-0.047925	4.009075
175.964962	7131.156776	12.666714	-0.047971	4.009067
175.896616	7131.158372	12.671719	-0.047954	4.009068
176.058421	7131.183472	12.676723	-0.047994	4.009075
176.093219	7131.135541	12.681728	-0.048002	4.009061
176.172749	7131.194654	12.686733	-0.048022	4.009077
176.291918	7131.140787	12.691738	-0.048051	4.009062
176.305944	7131.157754	12.696743	-0.048054	4.009067
176.454612	7131.169262	12.701747	-0.048091	4.009070
176.328538	7131.132152	12.706752	-0.048060	4.009060
176.455956	7131.187230	12.711757	-0.048091	4.009075
176.330907	7131.141151	12.716762	-0.048060	4.009062
176.368301	7131.154972	12.721767	-0.048069	4.009066
176.247791	7131.181888	12.726771	-0.048040	4.009074
176.079961	7131.147749	12.731776	-0.047999	4.009065
176.097835	7131.180465	12.736781	-0.048003	4.009074
175.969283	7131.316171	12.741786	-0.047972	4.009112
176.012809	7132.238054	12.746791	-0.047983	4.009368
175.972779	7132.292671	12.751795	-0.047973	4.009383
175.941058	7132.242982	12.756800	-0.047966	4.009370
176.075122	7132.305988	12.761805	-0.047998	4.009387
176.095571	7132.290467	12.766810	-0.048003	4.009382
176.102106	7132.253488	12.771815	-0.048005	4.009372
176.188659	7132.293594	12.776819	-0.048026	4.009383
176.285423	7132.268697	12.781824	-0.048050	4.009376
176.298908	7132.306986	12.786829	-0.048053	4.009386
176.322618	7132.295986	12.791834	-0.048059	4.009383
176.306400	7132.249812	12.796839	-0.048055	4.009370
176.376173	7132.313330	12.801843	-0.048072	4.009388
176.358151	7132.262648	12.806848	-0.048067	4.009374
176.443726	7132.309480	12.811853	-0.048088	4.009387
176.408298	7132.305775	12.816858	-0.048079	4.009386
176.306578	7132.276746	12.821863	-0.048055	4.009378
176.337837	7132.347755	12.826867	-0.048062	4.009398
176.210547	7132.282565	12.831872	-0.048031	4.009380
176.263840	7132.301030	12.836877	-0.048044	4.009385
176.241762	7132.306431	12.841882	-0.048039	4.009386
176.219985	7132.283774	12.846887	-0.048033	4.009380
176.340515	7132.332061	12.851891	-0.048063	4.009393
176.315341	7132.262230	12.856896	-0.048056	4.009374
176.285406	7132.305719	12.861901	-0.048049	4.009386
176.487263	7132.309881	12.866906	-0.048098	4.009387
176.494561	7132.271787	12.871911	-0.048100	4.009376
176.588915	7132.299621	12.876915	-0.048123	4.009384
176.434209	7132.270088	12.881920	-0.048085	4.009376
176.604357	7131.931611	12.886925	-0.048127	4.009281
176.553436	7131.170156	12.891930	-0.048114	4.009070
176.441823	7131.165730	12.896935	-0.048086	4.009069
176.511051	7131.231481	12.901939	-0.048103	4.009087
176.338216	7131.140055	12.906944	-0.048061	4.009062
176.361422	7131.206492	12.911949	-0.048067	4.009080
176.494885	7131.194287	12.916954	-0.048099	4.009076
176.541270	7131.150954	12.921959	-0.048111	4.009064
176.461833	7131.197338	12.926963	-0.048091	4.009077
176.531672	7131.135148	12.931968	-0.048108	4.009060
176.402792	7131.184431	12.936973	-0.048077	4.009074
176.322269	7131.178055	12.941978	-0.048057	4.009072
176.332753	7131.170297	12.946983	-0.048059	4.009070
176.539286	7131.186843	12.951987	-0.048110	4.009074
176.336597	7130.168117	12.956992	-0.048060	4.008791
176.363888	7130.016869	12.961997	-0.048066	4.008749
176.351118	7130.041437	12.967002	-0.048063	4.008756
176.312103	7129.980466	12.972007	-0.048053	4.008739
176.364386	7130.023604	12.977011	-0.048066	4.008751
176.253778	7129.975424	12.982016	-0.048039	4.008738
176.372677	7130.021436	12.987021	-0.048068	4.008750
176.329939	7130.025520	12.992026	-0.048058	4.008752
176.346028	7129.950480	12.997031	-0.048062	4.008731
176.425001	7130.043249	13.002035	-0.048081	4.008756
176.468504	7129.995402	13.007040	-0.048091	4.008743
176.527956	7130.010551	13.012045	-0.048106	4.008747
176.466566	7130.036904	13.017050	-0.048091	4.008755
176.427926	7129.983793	13.022055	-0.048081	4.008740
176.608849	7130.067424	13.027059	-0.048126	4.008763
176.623729	7129.975539	13.032064	-0.048129	4.008737
176.616259	7129.467094	13.037069	-0.048127	4.008596
176.503212	7128.875757	13.042074	-0.048099	4.008431
176.532843	7128.874912	13.047079	-0.048106	4.008431
176.670584	7128.902017	13.052083	-0.048140	4.008438
176.477594	7128.841847	13.057088	-0.048093	4.008422
176.581307	7128.892197	13.062093	-0.048118	4.008436
176.502101	7128.872374	13.067098	-0.048098	4.008430
176.354295	7128.879960	13.072103	-0.048062	4.008433
176.349535	7128.903479	13.077107	-0.048061	4.008439
176.228325	7128.855207	13.082112	-0.048031	4.008426
176.411471	7128.901815	13.087117	-0.048076	4.008439
176.386593	7128.881381	13.092122	-0.048070	4.008433
176.386786	7128.883626	13.097127	-0.048070	4.008434
176.451084	7128.714784	13.102131	-0.048086	4.008387
176.536394	7127.710170	13.107136	-0.048106	4.008107
176.246527	7127.754579	13.112141	-0.048035	4.008120
176.409304	7127.775179	13.117146	-0.048075	4.008125
176.411832	7127.722464	13.122151	-0.048075	4.008111
176.602256	7127.772498	13.127155	-0.048122	4.008124
176.458020	7127.719529	13.132160	-0.048087	4.008110
176.532677	7127.758378	13.137165	-0.048105	4.008120
176.539707	7127.750588	13.142170	-0.048106	4.008118
176.512248	7127.704325	13.147175	-0.048100	4.008105
176.534696	7127.770737	13.152179	-0.048105	4.008124
176.635584	7127.466478	13.157184	-0.048130	4.008039
176.497418	7126.717913	13.162189	-0.048095	4.007831
176.568020	7126.681546	13.167194	-0.048112	4.007821
176.681384	7126.694947	13.172199	-0.048140	4.007824
176.591659	7126.701961	13.177203	-0.048118	4.007826
176.384963	7126.658515	13.182208	-0.048068	4.007815
176.439223	7126.694924	13.187213	-0.048081	4.007825
176.558367	7126.670231	13.192218	-0.048110	4.007818
176.500256	7126.680906	13.197223	-0.048096	4.007821
176.532289	7126.526370	13.202227	-0.048103	4.007778
176.391412	7125.445751	13.207232	-0.048068	4.007477
176.519482	7125.489574	13.212237	-0.048099	4.007489
176.436346	7125.510115	13.217242	-0.048079	4.007495
176.508977	7125.455817	13.222247	-0.048097	4.007480
176.629447	7125.497326	13.227251	-0.048126	4.007491
176.475042	7125.446524	13.232256	-0.048088	4.007477
176.587162	7125.462151	13.237261	-0.048116	4.007481
176.473812	7125.484654	13.242266	-0.048088	4.007488
176.603695	7125.461181	13.247271	-0.048120	4.007481
176.574889	7125.025620	13.252275	-0.048112	4.007360
176.647195	7124.326262	13.257280	-0.048130	4.007165
176.701031	7124.343588	13.262285	-0.048143	4.007170
176.704059	7124.352590	13.267290	-0.048143	4.007172
176.617614	7124.302426	13.272295	-0.048122	4.007159
176.663544	7124.374648	13.277299	-0.048134	4.007179
176.609827	7123.765014	13.282304	-0.048120	4.007009
176.726102	7123.222041	13.287309	-0.048148	4.006858
176.633757	7123.203238	13.292314	-0.048125	4.006853
176.577403	7123.207203	13.297319	-0.048112	4.006854
176.596697	7123.238788	13.302323	-0.048116	4.006863
176.567640	7123.179067	13.307328	-0.048109	4.006846
176.515016	7123.232422	13.312333	-0.048096	4.006861
176.541198	7122.768276	13.317338	-0.048102	4.006732
176.620576	7122.088157	13.322343	-0.048121	4.006542
176.720144	7122.163102	13.327347	-0.048145	4.006563
176.609938	7122.113854	13.332352	-0.048118	4.006549
176.649245	7122.115337	13.337357	-0.048128	4.006550
176.559528	7122.140307	13.342362	-0.048106	4.006557
176.387531	7122.090491	13.347367	-0.048064	4.006544
176.448484	7122.159471	13.352371	-0.048079	4.006563
176.484390	7122.108206	13.357376	-0.048088	4.006548
176.535796	7121.125036	13.362381	-0.048100	4.006274
176.460719	7120.983029	13.367386	-0.048081	4.006235
176.491692	7120.959760	13.372391	-0.048089	4.006228
176.558217	7121.000745	13.377395	-0.048105	4.006240
176.485858	7120.960826	13.382400	-0.048087	4.006229
176.629435	7120.978966	13.387405	-0.048122	4.006233
176.606411	7120.966417	13.392410	-0.048116	4.006230
176.566271	7120.962682	13.397415	-0.048107	4.006229
176.742922	7120.660365	13.402419	-0.048150	4.006145
176.692487	7119.807564	13.407424	-0.048137	4.005907
176.800489	7119.810794	13.412429	-0.048163	4.005908
176.741314	7119.823709	13.417434	-0.048148	4.005912
176.693881	7119.780658	13.422439	-0.048137	4.005900
176.766121	7119.558149	13.427443	-0.048154	4.005838
176.647724	7118.732829	13.432448	-0.048125	4.005608
176.521743	7118.752986	13.437453	-0.048094	4.005614
176.379946	7118.753935	13.442458	-0.048059	4.005615
176.375872	7118.740440	13.447463	-0.048058	4.005611
176.406767	7118.792304	13.452467	-0.048066	4.005625
176.489853	7118.733627	13.457472	-0.048086	4.005609
176.557282	7118.765639	13.462477	-0.048102	4.005618
176.461032	7118.771489	13.467482	-0.048079	4.005619
176.489397	7118.717920	13.472487	-0.048086	4.005604
176.511977	7118.766344	13.477491	-0.048091	4.005618
176.572391	7118.236492	13.482496	-0.048106	4.005470
176.575298	7117.929275	13.487501	-0.048106	4.005385
176.604581	7117.910478	13.492506	-0.048113	4.005379
176.505840	7117.893880	13.497511	-0.048089	4.005375
176.683802	7117.938107	13.502515	-0.048133	4.005387
176.625863	7117.882635	13.507520	-0.048118	4.005372
176.661017	7117.925564	13.512525	-0.048127	4.005383
176.766573	7117.085558	13.517530	-0.048152	4.005149
176.633040	7116.667248	13.522535	-0.048119	4.005033
176.642172	7116.705451	13.527539	-0.048121	4.005044
176.594389	7116.652320	13.532544	-0.048110	4.005029
176.532900	7116.692125	13.537549	-0.048095	4.005040
176.576617	7116.673460	13.542554	-0.048105	4.005035
176.528089	7116.664049	13.547559	-0.048093	4.005032
176.457878	7115.924554	13.552563	-0.048076	4.004827
176.502070	7115.542644	13.557568	-0.048086	4.004720
176.539234	7115.532888	13.562573	-0.048095	4.004717
176.623737	7115.570647	13.567578	-0.048116	4.004728
176.630600	7115.516894	13.572583	-0.048117	4.004713
176.618190	7115.596381	13.577587	-0.048114	4.004735
176.565895	7115.536488	13.582592	-0.048102	4.004718
176.515891	7115.512492	13.587597	-0.048089	4.004712
176.568563	7115.256231	13.592602	-0.048102	4.004640
176.493158	7114.373271	13.597607	-0.048083	4.004395
176.564113	7114.428839	13.602611	-0.048100	4.004410
176.495002	7114.391222	13.607616	-0.048083	4.004400
176.398717	7114.422865	13.612621	-0.048060	4.004409
176.340667	7114.405527	13.617626	-0.048046	4.004404
176.220889	7114.379786	13.622631	-0.048016	4.004397
176.397488	7114.432940	13.627635	-0.048059	4.004411
176.428377	7114.390618	13.632640	-0.048067	4.004400
176.483597	7114.419139	13.637645	-0.048080	4.004407
176.573587	7114.396405	13.642650	-0.048102	4.004401
176.462208	7114.386435	13.647655	-0.048075	4.004398
176.628265	7114.439494	13.652659	-0.048116	4.004413
176.631037	7113.807265	13.657664	-0.048116	4.004237
176.850241	7113.295823	13.662669	-0.048169	4.004094
176.883845	7113.343204	13.667674	-0.048177	4.004107
176.795352	7113.269547	13.672679	-0.048156	4.004086
176.694441	7113.195780	13.677683	-0.048131	4.004066
176.731705	7112.139098	13.682688	-0.048139	4.003772
176.651123	7112.180971	13.687693	-0.048119	4.003784
176.542121	7112.184480	13.692698	-0.048093	4.003785
176.426148	7112.134126	13.697703	-0.048064	4.003771
176.383155	7112.198750	13.702707	-0.048054	4.003789
176.379031	7112.147153	13.707712	-0.048053	4.003775
176.387633	7112.161800	13.712717	-0.048055	4.003779
176.574175	7112.173552	13.717722	-0.048100	4.003782
176.597109	7112.154701	13.722727	-0.048106	4.003776
176.722895	7111.312957	13.727731	-0.048136	4.003542
176.661643	7110.981779	13.732736	-0.048121	4.003450
176.760394	7111.015159	13.737741	-0.048145	4.003459
176.783157	7111.020964	13.742746	-0.048151	4.003460
176.807918	7110.998768	13.747751	-0.048157	4.003454
176.819416	7110.008135	13.752755	-0.048159	4.003178
176.829460	7109.903998	13.757760	-0.048161	4.003149
176.738461	7109.916639	13.762765	-0.048139	4.003153
176.716977	7109.944465	13.767770	-0.048133	4.003160
176.609784	7109.778773	13.772775	-0.048107	4.003115
176.726005	7108.813808	13.777779	-0.048135	4.002845
176.603461	7108.784709	13.782784	-0.048105	4.002838
176.680758	7108.794356	13.787789	-0.048124	4.002840
176.671837	7108.799879	13.792794	-0.048122	4.002842
176.610988	7108.763481	13.797799	-0.048107	4.002832
176.839294	7108.501037	13.802803	-0.048162	4.002758
176.749015	7107.625092	13.807808	-0.048139	4.002514
176.715525	7107.606868	13.812813	-0.048131	4.002509
176.599299	7107.650665	13.817818	-0.048103	4.002522
176.635387	7107.578148	13.822823	-0.048112	4.002501
176.565732	7107.631319	13.827827	-0.048095	4.002516
176.397886	7107.609672	13.832832	-0.048053	4.002511
176.578983	7107.275116	13.837837	-0.048097	4.002417
176.527077	7106.502671	13.842842	-0.048084	4.002202
176.605526	7106.473106	13.847847	-0.048103	4.002194
176.700362	7106.527716	13.852851	-0.048127	4.002209
176.621890	7106.482211	13.857856	-0.048107	4.002196
176.667028	7106.510616	13.862861	-0.048118	4.002204
176.810158	7106.449126	13.867866	-0.048153	4.002186
176.891015	7105.307046	13.872871	-0.048172	4.001868
176.921937	7105.321879	13.877875	-0.048180	4.001872
176.850924	7105.299971	13.882880	-0.048162	4.001866
176.771679	7105.004634	13.887885	-0.048143	4.001784
176.738591	7104.310891	13.892890	-0.048134	4.001591
176.646819	7104.266402	13.897895	-0.048112	4.001579
176.672029	7104.330475	13.902899	-0.048118	4.001596
176.602151	7104.281695	13.907904	-0.048101	4.001583
176.612207	7104.290743	13.912909	-0.048103	4.001585
176.519304	7104.305617	13.917914	-0.048080	4.001590
176.552649	7103.320123	13.922919	-0.048088	4.001315
176.683410	7103.117386	13.927923	-0.048120	4.001258
176.566317	7103.088366	13.932928	-0.048091	4.001250
176.665007	7103.108263	13.937933	-0.048115	4.001256
176.794430	7103.126187	13.942938	-0.048147	4.001260
176.887793	7102.952251	13.947943	-0.048169	4.001212
176.897561	7102.048400	13.952947	-0.048171	4.000960
176.882094	7102.046026	13.957952	-0.048167	4.000959
176.949978	7102.004048	13.962957	-0.048184	4.000947
177.041788	7101.435850	13.967962	-0.048206	4.000789
176.852292	7100.873090	13.972967	-0.048159	4.000632
176.857205	7100.913451	13.977971	-0.048160	4.000644
176.876424	7100.867696	13.982976	-0.048165	4.000631
176.884559	7100.107313	13.987981	-0.048166	4.000419
176.649139	7100.006739	13.992986	-0.048109	4.000391
176.461097	7099.974887	13.997991	-0.048063	4.000383
176.546404	7100.024894	14.002995	-0.048083	4.000397
176.502752	7099.965163	14.008000	-0.048073	4.000380
176.530925	7100.005721	14.013005	-0.048080	4.000391
176.672721	7100.004696	14.018010	-0.048114	4.000391
176.425750	7099.033891	14.023015	-0.048053	4.000121
176.554666	7098.813267	14.028019	-0.048084	4.000059
176.685952	7098.822226	14.033024	-0.048116	4.000061
176.660321	7098.792891	14.038029	-0.048110	4.000053
176.755895	7098.840739	14.043034	-0.048134	4.000066
176.851048	7098.758684	14.048039	-0.048157	4.000043
176.870510	7098.023145	14.053043	-0.048161	3.999838
176.799055	7097.685490	14.058048	-0.048143	3.999744
176.992353	7097.673698	14.063053	-0.048190	3.999740
176.950779	7097.717013	14.068058	-0.048180	3.999752
176.849854	7096.491209	14.073063	-0.048155	3.999411
176.861451	7096.547289	14.078067	-0.048157	3.999426
176.798116	7096.507563	14.083072	-0.048142	3.999415
176.683145	7096.517784	14.088077	-0.048114	3.999418
176.655288	7095.982368	14.093082	-0.048107	3.999269
176.614663	7095.436790	14.098087	-0.048096	3.999117
176.568962	7095.471109	14.103091	-0.048085	3.999127
176.681027	7095.457501	14.108096	-0.048112	3.999123
176.579492	7095.461120	14.113101	-0.048088	3.999124
176.674181	7095.511180	14.118106	-0.048111	3.999138
176.639936	7095.436999	14.123111	-0.048102	3.999117
176.571742	7094.325868	14.128115	-0.048085	3.998807
176.536983	7094.249451	14.133120	-0.048076	3.998786
176.603527	7094.270160	14.138125	-0.048093	3.998792
176.637515	7094.288357	14.143130	-0.048101	3.998797
176.544702	7094.258469	14.148135	-0.048078	3.998789
176.605634	7094.307117	14.153139	-0.048093	3.998802
176.621252	7094.250155	14.158144	-0.048097	3.998786
176.499151	7093.614408	14.163149	-0.048066	3.998609
176.716326	7093.176307	14.168154	-0.048119	3.998487
176.702492	7093.078804	14.173159	-0.048116	3.998459
176.732569	7093.130547	14.178163	-0.048123	3.998474
176.831766	7093.120183	14.183168	-0.048147	3.998471
176.873591	7092.831736	14.188173	-0.048157	3.998390
176.903891	7092.056293	14.193178	-0.048164	3.998174
177.066557	7092.011760	14.198183	-0.048204	3.998161
177.076624	7091.941327	14.203187	-0.048206	3.998141
176.976421	7090.914135	14.208192	-0.048181	3.997855
176.978774	7090.887293	14.213197	-0.048181	3.997847
176.938365	7090.928366	14.218202	-0.048171	3.997859
176.792519	7089.943403	14.223207	-0.048135	3.997585
176.690277	7089.791473	14.228211	-0.048110	3.997542
176.594652	7089.747034	14.233216	-0.048087	3.997530
176.587044	7089.733541	14.238221	-0.048085	3.997527
176.594878	7089.806347	14.243226	-0.048087	3.997547
176.581124	7089.750276	14.248231	-0.048083	3.997531
176.668327	7089.297765	14.253235	-0.048104	3.997405
176.615832	7088.576664	14.258240	-0.048091	3.997204
176.811973	7088.624162	14.263245	-0.048139	3.997217
176.791559	7088.634064	14.268250	-0.048134	3.997219
176.641338	7088.607085	14.273255	-0.048097	3.997212
176.624718	7088.630447	14.278259	-0.048093	3.997219
176.620402	7087.681511	14.283264	-0.048091	3.996954
176.595013	7087.465346	14.288269	-0.048085	3.996894
176.815380	7087.537650	14.293274	-0.048139	3.996913
176.890076	7087.459937	14.298279	-0.048157	3.996892
176.897866	7087.348107	14.303283	-0.048159	3.996860
176.876277	7086.400226	14.308288	-0.048153	3.996596
176.871929	7086.419210	14.313293	-0.048152	3.996601
176.785457	7086.412907	14.318298	-0.048130	3.996600
176.915323	7086.222646	14.323303	-0.048162	3.996546
176.903967	7085.243599	14.328307	-0.048158	3.996273
176.777859	7085.259351	14.333312	-0.048128	3.996278
176.682154	7085.208225	14.338317	-0.048104	3.996264
176.693364	7085.266491	14.343322	-0.048107	3.996280
176.632104	7084.807307	14.348327	-0.048092	3.996152
176.639937	7084.185373	14.353331	-0.048093	3.995978
176.580784	7084.149094	14.358336	-0.048078	3.995968
176.493454	7084.149503	14.363341	-0.048057	3.995969
176.593434	7084.151432	14.368346	-0.048082	3.995969
176.537409	7084.103992	14.373351	-0.048068	3.995956
176.513766	7084.146309	14.378355	-0.048062	3.995968
176.621405	7084.123690	14.383360	-0.048088	3.995961
176.620541	7083.484936	14.388365	-0.048088	3.995783
176.699303	7083.003456	14.393370	-0.048106	3.995648
176.605740	7082.956836	14.398375	-0.048084	3.995636
176.754132	7083.008372	14.403379	-0.048120	3.995650
176.666853	7082.984175	14.408384	-0.048098	3.995643
176.690703	7082.973181	14.413389	-0.048104	3.995640
176.619253	7082.365227	14.418394	-0.048086	3.995470
176.649157	7082.104851	14.423399	-0.048093	3.995398
176.729311	7082.141289	14.428403	-0.048113	3.995408
176.824668	7082.126398	14.433408	-0.048136	3.995403
176.901195	7082.105763	14.438413	-0.048155	3.995397
176.931391	7081.083714	14.443418	-0.048161	3.995112
176.773732	7080.963893	14.448423	-0.048123	3.995079
176.805503	7080.968620	14.453427	-0.048131	3.995080
176.755931	7080.988353	14.458432	-0.048118	3.995086
176.740952	7080.308244	14.463437	-0.048114	3.994896
176.766951	7079.845452	14.468442	-0.048120	3.994767
176.578819	7079.810396	14.473447	-0.048074	3.994757
176.755486	7079.833057	14.478451	-0.048117	3.994763
176.663761	7079.806600	14.483456	-0.048095	3.994756
176.715869	7079.455864	14.488461	-0.048107	3.994658
176.630969	7078.680221	14.493466	-0.048086	3.994442
176.637433	7078.619887	14.498471	-0.048088	3.994425
176.776154	7078.653420	14.503475	-0.048121	3.994434
176.897647	7078.658860	14.508480	-0.048151	3.994435
176.867606	7078.174426	14.513485	-0.048143	3.994300
176.889332	7077.635630	14.518490	-0.048148	3.994149
176.780966	7077.592279	14.523495	-0.048122	3.994138
176.865200	7077.626492	14.528499	-0.048142	3.994147
176.885530	7077.280024	14.533504	-0.048147	3.994050
176.875190	7076.391047	14.538509	-0.048144	3.993802
176.879595	7076.427977	14.543514	-0.048145	3.993812
176.812102	7076.376012	14.548519	-0.048128	3.993798
176.676888	7076.179283	14.553523	-0.048095	3.993743
176.702050	7075.344323	14.558528	-0.048101	3.993510
176.590744	7075.288665	14.563533	-0.048073	3.993495
176.696865	7075.355460	14.568538	-0.048099	3.993513
176.588083	7075.311001	14.573543	-0.048073	3.993501
176.700961	7075.319715	14.578547	-0.048100	3.993503
176.654466	7075.242207	14.583552	-0.048089	3.993482
176.675308	7074.182570	14.588557	-0.048093	3.993186
176.766183	7074.212346	14.593562	-0.048115	3.993194
176.746113	7074.151822	14.598567	-0.048110	3.993177
176.921152	7074.205734	14.603571	-0.048153	3.993192
176.859175	7073.615009	14.608576	-0.048138	3.993027
176.900271	7073.082123	14.613581	-0.048147	3.992878
176.937837	7073.160662	14.618586	-0.048156	3.992900
176.754824	7073.060865	14.623591	-0.048112	3.992872
176.895235	7072.257159	14.628595	-0.048145	3.992647
176.908506	7071.942060	14.633600	-0.048148	3.992559
176.763061	7071.927516	14.638605	-0.048113	3.992556
176.607423	7071.957601	14.643610	-0.048075	3.992564
176.609334	7071.931908	14.648615	-0.048075	3.992557
176.509086	7071.023576	14.653619	-0.048050	3.992304
176.700302	7070.807117	14.658624	-0.048096	3.992243
176.705042	7070.749036	14.663629	-0.048098	3.992227
176.731578	7070.789475	14.668634	-0.048104	3.992238
176.662476	7070.748705	14.673639	-0.048087	3.992227
176.661301	7070.795635	14.678643	-0.048087	3.992240
176.715374	7069.960092	14.683648	-0.048099	3.992006
176.774761	7069.639812	14.688653	-0.048114	3.991917
176.896646	7069.723449	14.693658	-0.048143	3.991940
176.901981	7069.659789	14.698663	-0.048145	3.991922
176.900578	7069.089842	14.703667	-0.048144	3.991763
176.898614	7068.575785	14.708672	-0.048143	3.991619
176.788752	7068.552592	14.713677	-0.048116	3.991613
176.963629	7068.572930	14.718682	-0.048159	3.991618
176.940103	7067.507849	14.723687	-0.048152	3.991321
176.791146	7067.437432	14.728691	-0.048116	3.991301
176.830212	7067.460077	14.733696	-0.048125	3.991308
176.909466	7067.386936	14.738701	-0.048145	3.991287
176.682515	7066.321514	14.743706	-0.048088	3.990990
176.770200	7066.280842	14.748711	-0.048110	3.990978
176.773468	7066.337847	14.753715	-0.048111	3.990994
176.913545	7066.296455	14.758720	-0.048145	3.990982
176.814689	7065.713612	14.763725	-0.048120	3.990820
176.947801	7065.250977	14.768730	-0.048152	3.990690
176.774208	7065.193800	14.773735	-0.048110	3.990674
176.811159	7065.188494	14.778739	-0.048119	3.990673
176.860034	7064.919622	14.783744	-0.048131	3.990598
176.800148	7064.351657	14.788749	-0.048116	3.990439
176.974333	7064.424469	14.793754	-0.048158	3.990459
176.870206	7064.378996	14.798759	-0.048133	3.990446
176.840910	7063.747610	14.803763	-0.048125	3.990270
176.827124	7063.200148	14.808768	-0.048121	3.990117
176.605089	7063.186190	14.813773	-0.048067	3.990114
176.753417	7063.218581	14.818778	-0.048103	3.990122
176.593298	7063.169344	14.823783	-0.048064	3.990109
176.665908	7062.895103	14.828787	-0.048081	3.990032
176.659406	7062.018230	14.833792	-0.048079	3.989787
176.750267	7061.997688	14.838797	-0.048101	3.989781
176.837166	7062.028495	14.843802	-0.048123	3.989790
176.731578	7061.990844	14.848807	-0.048097	3.989779
176.843746	7061.466731	14.853811	-0.048124	3.989633
176.904727	7060.947836	14.858816	-0.048138	3.989487
176.807044	7060.903549	14.863821	-0.048114	3.989475
177.009872	7060.965371	14.868826	-0.048164	3.989492
177.001473	7060.040573	14.873831	-0.048161	3.989234
176.852792	7059.812761	14.878835	-0.048125	3.989170
176.947715	7059.823516	14.883840	-0.048148	3.989173
176.935032	7059.425855	14.888845	-0.048144	3.989062
177.088975	7058.685495	14.893850	-0.048182	3.988855
176.908381	7058.626091	14.898855	-0.048137	3.988838
176.881989	7058.576762	14.903859	-0.048131	3.988825
176.748985	7057.528380	14.908864	-0.048098	3.988532
176.829647	7057.534556	14.913869	-0.048117	3.988533
176.740006	7057.560693	14.918874	-0.048095	3.988541
176.510415	7057.515456	14.923879	-0.048039	3.988529
176.668291	7057.566863	14.928883	-0.048078	3.988543
176.707070	7056.910608	14.933888	-0.048087	3.988359
176.771580	7056.386317	14.938893	-0.048102	3.988212
176.840045	7056.419196	14.943898	-0.048119	3.988221
176.542982	7056.398039	14.948903	-0.048046	3.988216
176.622052	7056.395267	14.953907	-0.048065	3.988215
176.504543	7056.406687	14.958912	-0.048037	3.988219
176.571613	7055.612256	14.963917	-0.048053	3.987996
176.861509	7055.357593	14.968922	-0.048123	3.987924
176.877331	7055.313051	14.973927	-0.048127	3.987912
177.012643	7055.365393	14.978931	-0.048160	3.987926
177.118159	7054.560123	14.983936	-0.048185	3.987701
177.156380	7054.130605	14.988941	-0.048194	3.987581
177.176705	7054.109541	14.993946	-0.048199	3.987575
177.166157	7053.009919	14.998951	-0.048196	3.987267
177.147673	7053.015366	15.003955	-0.048191	3.987269
177.133812	7052.548682	15.008960	-0.048187	3.987138
176.870245	7051.889351	15.013965	-0.048123	3.986954
176.771855	7051.903152	15.018970	-0.048098	3.986959
176.543899	7051.865795	15.023975	-0.048043	3.986949
176.596310	7051.913049	15.028979	-0.048056	3.986962
176.608143	7051.687674	15.033984	-0.048058	3.986899
176.543264	7050.796569	15.038989	-0.048042	3.986649
176.666352	7050.857717	15.043994	-0.048072	3.986666
176.723437	7050.801206	15.048999	-0.048086	3.986650
176.715999	7050.797804	15.054003	-0.048084	3.986649
176.628808	7050.839588	15.059008	-0.048063	3.986661
176.701581	7050.447261	15.064013	-0.048080	3.986551
176.908741	7049.689857	15.069018	-0.048130	3.986339
176.740319	7049.632857	15.074023	-0.048089	3.986324
176.964761	7049.676864	15.079027	-0.048144	3.986335
176.977945	7049.288602	15.084032	-0.048147	3.986227
176.894120	7048.500168	15.089037	-0.048126	3.986006
177.016696	7048.565759	15.094042	-0.048156	3.986024
177.056493	7048.288186	15.099047	-0.048165	3.985947
176.938376	7047.462744	15.104051	-0.048136	3.985716
176.999339	7047.479912	15.109056	-0.048150	3.985721
176.817672	7047.446268	15.114061	-0.048106	3.985712
176.795631	7047.012073	15.119066	-0.048100	3.985590
176.751247	7046.633521	15.124071	-0.048089	3.985484
176.876484	7046.676800	15.129075	-0.048120	3.985496
176.945487	7046.661665	15.134080	-0.048137	3.985492
176.814307	7045.975694	15.139085	-0.048104	3.985300
176.874796	7045.475185	15.144090	-0.048118	3.985160
176.776220	7045.456642	15.149095	-0.048094	3.985155
176.761467	7045.469926	15.154099	-0.048091	3.985159
176.537195	7045.483972	15.159104	-0.048036	3.985163
176.453948	7044.737048	15.164109	-0.048015	3.984954
176.560666	7044.357387	15.169114	-0.048041	3.984848
176.685029	7044.343751	15.174119	-0.048071	3.984844
176.671749	7044.351467	15.179123	-0.048068	3.984846
176.764226	7044.358805	15.184128	-0.048090	3.984848
176.760663	7044.327544	15.189133	-0.048089	3.984839
176.807289	7043.746677	15.194138	-0.048100	3.984676
176.754439	7043.161795	15.199143	-0.048087	3.984513
176.755723	7043.207537	15.204147	-0.048087	3.984526
176.849413	7043.182531	15.209152	-0.048110	3.984518
176.771348	7043.044787	15.214157	-0.048091	3.984480
176.777340	7042.169225	15.219162	-0.048092	3.984235
176.798919	7042.129220	15.224167	-0.048097	3.984224
176.686704	7042.118405	15.229171	-0.048070	3.984221
176.707002	7042.162044	15.234176	-0.048074	3.984233
176.755500	7042.009572	15.239181	-0.048086	3.984190
176.822882	7040.990624	15.244186	-0.048102	3.983905
176.770601	7040.953459	15.249191	-0.048089	3.983895
176.804097	7040.982686	15.254195	-0.048097	3.983903
176.794492	7040.969236	15.259200	-0.048095	3.983899

176.598935	7040.011009	15.264205	-0.048046	3.983631
176.689103	7039.823157	15.269210	-0.048068	3.983578
176.732380	7039.777730	15.274215	-0.048079	3.983566
176.778697	7038.732032	15.279219	-0.048089	3.983273
176.792246	7038.417665	15.284224	-0.048092	3.983185
176.738546	7037.582123	15.289229	-0.048079	3.982951
176.831938	7036.716409	15.294234	-0.048101	3.982708
176.761832	7035.754876	15.299239	-0.048083	3.982439
176.621748	7034.779566	15.304243	-0.048048	3.982166
176.856685	7033.765590	15.309248	-0.048105	3.981882
176.658008	7032.526980	15.314253	-0.048055	3.981535
176.568640	7031.426300	15.319258	-0.048033	3.981227
176.497001	7030.091797	15.324263	-0.048014	3.980853
176.482860	7029.067584	15.329267	-0.048010	3.980567
176.593938	7027.604133	15.334272	-0.048036	3.980156
176.585929	7026.000791	15.339277	-0.048033	3.979707
176.618644	7024.571674	15.344282	-0.048040	3.979307
176.610559	7022.725853	15.349287	-0.048036	3.978789
176.680064	7020.947586	15.354291	-0.048052	3.978291
176.722083	7019.132615	15.359296	-0.048061	3.977782
176.693772	7016.984525	15.364301	-0.048053	3.977180
176.801274	7014.936676	15.369306	-0.048077	3.976605
176.683452	7012.728573	15.374311	-0.048047	3.975986
176.766729	7010.731263	15.379315	-0.048066	3.975426
176.766492	7008.286408	15.384320	-0.048064	3.974740
176.637877	7005.800060	15.389325	-0.048031	3.974042
176.713166	7003.328697	15.394330	-0.048048	3.973348
176.500144	7000.778257	15.399335	-0.047994	3.972633
176.418876	6998.144547	15.404339	-0.047972	3.971894
176.486953	6995.536631	15.409344	-0.047987	3.971161
176.406684	6993.019514	15.414349	-0.047965	3.970454
176.411060	6990.202157	15.419354	-0.047964	3.969663
176.350207	6987.323905	15.424359	-0.047947	3.968854
176.253068	6984.400517	15.429363	-0.047922	3.968033
176.195806	6981.364679	15.434368	-0.047905	3.967180
176.233598	6978.356636	15.439373	-0.047912	3.966334
176.236922	6975.488931	15.444378	-0.047911	3.965528
176.306502	6972.211481	15.449383	-0.047926	3.964606
176.345548	6968.846978	15.454387	-0.047933	3.963659
176.301919	6965.385262	15.459392	-0.047920	3.962685
176.349761	6961.817252	15.464397	-0.047929	3.961681
176.367945	6958.445148	15.469402	-0.047931	3.960731
176.300483	6954.685501	15.474407	-0.047912	3.959673
176.345306	6950.891897	15.479411	-0.047920	3.958604
176.402317	6947.039534	15.484416	-0.047931	3.957518
176.425696	6943.039668	15.489421	-0.047934	3.956391
176.499031	6939.169577	15.494426	-0.047949	3.955300
176.365190	6934.974306	15.499431	-0.047913	3.954117
176.308020	6930.764011	15.504435	-0.047896	3.952929
176.408456	6926.484763	15.509440	-0.047918	3.951722
176.282976	6922.229243	15.514445	-0.047884	3.950521
176.280260	6917.843898	15.519450	-0.047880	3.949283
176.045359	6913.350876	15.524455	-0.047820	3.948014
176.035300	6908.867788	15.529459	-0.047814	3.946747
175.933716	6904.564802	15.534464	-0.047786	3.945531
175.974086	6899.958828	15.539469	-0.047793	3.944229
175.944694	6895.305614	15.544474	-0.047782	3.942913
175.869504	6890.562267	15.549479	-0.047761	3.941571
175.915380	6885.868280	15.554483	-0.047768	3.940243
175.942952	6880.993890	15.559488	-0.047772	3.938863
176.006183	6875.871075	15.564493	-0.047784	3.937412
176.046031	6870.949515	15.569498	-0.047790	3.936018
176.106632	6865.769793	15.574503	-0.047801	3.934550
176.058444	6860.320960	15.579507	-0.047785	3.933005
176.092344	6855.033994	15.584512	-0.047790	3.931506
175.912948	6849.666234	15.589517	-0.047742	3.929983
175.970912	6844.184335	15.594522	-0.047752	3.928427
176.033573	6838.528718	15.599527	-0.047764	3.926821
175.968906	6833.020327	15.604531	-0.047744	3.925256
175.859243	6827.214273	15.609536	-0.047713	3.923606
175.681288	6821.411762	15.614541	-0.047665	3.921956
175.734373	6815.829137	15.619546	-0.047674	3.920368
175.563690	6809.900969	15.624551	-0.047628	3.918682
175.507854	6803.977617	15.629555	-0.047610	3.916995
175.680713	6798.222311	15.634560	-0.047649	3.915356
175.584134	6792.021359	15.639565	-0.047621	3.913590
175.520736	6785.944781	15.644570	-0.047601	3.911858
175.481992	6779.945334	15.649575	-0.047587	3.910147
175.588755	6773.532672	15.654579	-0.047608	3.908317
175.596544	6767.218214	15.659584	-0.047606	3.906515
175.521572	6760.884910	15.664589	-0.047583	3.904706
175.559473	6754.349027	15.669594	-0.047588	3.902839
175.597454	6747.833734	15.674599	-0.047592	3.900977
175.532057	6741.138361	15.679603	-0.047572	3.899062
175.338085	6734.394193	15.684608	-0.047519	3.897132
175.333950	6727.792608	15.689613	-0.047514	3.895243
175.425446	6720.909566	15.694618	-0.047531	3.893271
175.388135	6714.078234	15.699623	-0.047517	3.891314
175.365760	6707.088101	15.704627	-0.047507	3.889310
175.473770	6699.977156	15.709632	-0.047528	3.887270
175.389207	6692.950990	15.714637	-0.047502	3.885254
175.292343	6685.705720	15.719642	-0.047473	3.883173
175.130086	6678.503723	15.724647	-0.047429	3.881104
175.013652	6671.225119	15.729651	-0.047395	3.879012
175.104521	6663.918203	15.734656	-0.047412	3.876910
175.095032	6656.546222	15.739661	-0.047404	3.874789
175.008165	6649.055050	15.744666	-0.047378	3.872632
174.877666	6641.697224	15.749671	-0.047341	3.870512
174.868344	6634.081950	15.754675	-0.047333	3.868317
174.864022	6626.608422	15.759680	-0.047327	3.866161
174.723791	6618.909411	15.764685	-0.047287	3.863939
174.790676	6611.246189	15.769690	-0.047298	3.861727
174.835177	6603.459987	15.774695	-0.047303	3.859477
174.706494	6595.482839	15.779699	-0.047266	3.857171
174.834153	6587.709647	15.784704	-0.047292	3.854923
174.675583	6579.539451	15.789709	-0.047247	3.852558
174.616396	6571.707789	15.794714	-0.047227	3.850290
174.723170	6563.432651	15.799719	-0.047247	3.847892
174.551194	6555.513360	15.804723	-0.047200	3.845596
174.632039	6547.229127	15.809728	-0.047213	3.843193
174.567907	6538.899541	15.814733	-0.047192	3.840774
174.370653	6530.498924	15.819738	-0.047138	3.838333
174.301162	6522.206875	15.824743	-0.047115	3.835923
174.317707	6513.679012	15.829747	-0.047113	3.833442
174.254292	6505.288175	15.834752	-0.047091	3.831000
174.144881	6496.662018	15.839757	-0.047058	3.828488
174.136550	6488.216304	15.844762	-0.047050	3.826026
174.173684	6479.500571	15.849767	-0.047053	3.823485
174.003627	6470.843934	15.854771	-0.047006	3.820958
174.009640	6462.057799	15.859776	-0.047001	3.818392
174.104752	6453.253185	15.864781	-0.047018	3.815820
173.929505	6444.292884	15.869786	-0.046969	3.813199
174.022413	6435.470403	15.874791	-0.046985	3.810618
173.933509	6426.320085	15.879795	-0.046957	3.807938
173.818171	6417.472652	15.884800	-0.046922	3.805345
173.692526	6408.234431	15.889805	-0.046885	3.802636
173.720710	6399.176579	15.894810	-0.046885	3.799978
173.773260	6389.909013	15.899815	-0.046892	3.797257
173.603108	6380.638029	15.904819	-0.046843	3.794532
173.640469	6371.396705	15.909824	-0.046846	3.791815
173.628257	6361.907036	15.914829	-0.046836	3.789022
173.617996	6352.591795	15.919834	-0.046827	3.786279
173.648866	6343.000033	15.924839	-0.046828	3.783452
173.729922	6333.410523	15.929843	-0.046841	3.780624
173.726711	6323.667536	15.934848	-0.046833	3.777749
173.582467	6313.903322	15.939853	-0.046791	3.774864
173.627722	6304.156620	15.944858	-0.046795	3.771983
173.392022	6294.238952	15.949863	-0.046730	3.769048
173.381834	6284.430153	15.954867	-0.046721	3.766144
173.306751	6274.465612	15.959872	-0.046696	3.763191
173.148885	6264.510228	15.964877	-0.046650	3.760238
173.188916	6254.548081	15.969882	-0.046653	3.757282
173.145003	6244.451155	15.974887	-0.046635	3.754283
172.939254	6234.401725	15.979891	-0.046577	3.751295
172.827494	6224.327401	15.984896	-0.046543	3.748298
172.645901	6214.333674	15.989901	-0.046491	3.745321
172.658607	6204.237832	15.994906	-0.046487	3.742313
172.613597	6194.009839	15.999911	-0.046469	3.739263
172.691004	6183.826742	16.004915	-0.046481	3.736225
172.794644	6173.479024	16.009920	-0.046499	3.733134
172.907776	6162.963221	16.014925	-0.046519	3.729991
172.747997	6152.538512	16.019930	-0.046472	3.726872
172.646938	6141.920388	16.024935	-0.046440	3.723692
172.653494	6131.329118	16.029939	-0.046434	3.720517
172.759424	6120.666916	16.034944	-0.046452	3.717320
172.627843	6109.812750	16.039949	-0.046413	3.714061
172.647073	6099.119902	16.044954	-0.046410	3.710848
172.556333	6088.275662	16.049959	-0.046380	3.707586
172.350396	6077.375015	16.054963	-0.046322	3.704303
172.247029	6066.616659	16.059968	-0.046289	3.701061
172.112487	6055.682198	16.064973	-0.046248	3.697763
172.168022	6044.786536	16.069978	-0.046254	3.694475
172.088371	6033.891143	16.074983	-0.046227	3.691183
172.013602	6022.792813	16.079987	-0.046201	3.687827
171.991259	6011.736452	16.084992	-0.046187	3.684481
171.888102	6000.602399	16.089997	-0.046154	3.681108
171.810966	5989.459498	16.095002	-0.046127	3.677729
171.846348	5978.222433	16.100007	-0.046128	3.674319
171.816856	5966.980911	16.105011	-0.046113	3.670904
171.783114	5955.731511	16.110016	-0.046097	3.667484
171.700532	5944.318502	16.115021	-0.046068	3.664010
171.624722	5932.959244	16.120026	-0.046042	3.660549
171.493327	5921.566146	16.125031	-0.046001	3.657074
171.414142	5910.076302	16.130035	-0.045974	3.653567
171.487826	5898.623207	16.135040	-0.045984	3.650069
171.199627	5887.132415	16.140045	-0.045905	3.646553
171.414848	5875.588519	16.145050	-0.045950	3.643021
171.216917	5863.889617	16.150055	-0.045893	3.639435
171.186619	5852.202903	16.155059	-0.045877	3.635851
171.203508	5840.609794	16.160064	-0.045873	3.632292
171.145618	5828.750886	16.165069	-0.045850	3.628648
171.140725	5816.978529	16.170074	-0.045841	3.625026
171.076587	5805.153779	16.175079	-0.045817	3.621385
171.102491	5793.212831	16.180083	-0.045815	3.617705
170.936106	5781.279565	16.185088	-0.045766	3.614021
170.723307	5769.323605	16.190093	-0.045705	3.610327
170.785693	5757.408112	16.195098	-0.045712	3.606643
170.610972	5745.340569	16.200103	-0.045661	3.602907
170.628273	5733.240498	16.205107	-0.045656	3.599158
170.667031	5721.135264	16.210112	-0.045657	3.595404
170.600277	5708.966576	16.215117	-0.045632	3.591626
170.610381	5696.773173	16.220122	-0.045626	3.587836
170.438017	5684.533336	16.225127	-0.045575	3.584027
170.339805	5672.197045	16.230131	-0.045542	3.580183
170.339039	5659.985975	16.235136	-0.045533	3.576376
170.161264	5647.649845	16.240141	-0.045481	3.572524
170.123193	5635.304501	16.245146	-0.045463	3.568666
170.067992	5622.959166	16.250151	-0.045441	3.564804
169.970045	5610.476276	16.255155	-0.045408	3.560894
170.079436	5598.083609	16.260160	-0.045426	3.557010
169.870003	5585.524675	16.265165	-0.045366	3.553066
169.998647	5572.998687	16.270170	-0.045388	3.549132
169.753156	5560.412575	16.275175	-0.045319	3.545171
169.677536	5547.796947	16.280179	-0.045292	3.541197
169.835036	5535.220704	16.285184	-0.045322	3.537235
169.615488	5522.473608	16.290189	-0.045259	3.533209
169.489760	5509.794025	16.295194	-0.045219	3.529201
169.454184	5497.056522	16.300199	-0.045201	3.525172
169.571144	5484.174138	16.305203	-0.045221	3.521094
169.305146	5471.368506	16.310208	-0.045147	3.517030
169.248858	5458.468541	16.315213	-0.045124	3.512935
169.207528	5445.656731	16.320218	-0.045105	3.508863
169.141338	5432.784326	16.325223	-0.045079	3.504766
169.119763	5419.790089	16.330227	-0.045065	3.500627
169.134494	5406.841104	16.335232	-0.045059	3.496498
169.080712	5393.779251	16.340237	-0.045037	3.492326
169.177067	5380.704472	16.345242	-0.045051	3.488148
169.035966	5367.522522	16.350247	-0.045007	3.483927
168.920705	5354.283550	16.355251	-0.044970	3.479683
168.944126	5341.112382	16.360256	-0.044966	3.475457
168.731990	5327.826388	16.365261	-0.044905	3.471186
168.771138	5314.684896	16.370266	-0.044905	3.466960
168.688711	5301.394139	16.375271	-0.044875	3.462679
168.628634	5288.058932	16.380275	-0.044851	3.458378
168.628875	5274.736759	16.385280	-0.044842	3.454077
168.484320	5261.299583	16.390285	-0.044797	3.449732
168.400833	5247.878671	16.395290	-0.044767	3.445387
168.328554	5234.448270	16.400295	-0.044740	3.441034
168.245700	5220.925803	16.405299	-0.044710	3.436645
168.180545	5207.538002	16.410304	-0.044684	3.432294
168.023332	5194.032434	16.415309	-0.044636	3.427898
167.979890	5180.564888	16.420314	-0.044616	3.423511
167.920366	5167.032186	16.425319	-0.044592	3.419097
167.908511	5153.440244	16.430323	-0.044580	3.414658
167.763592	5139.908623	16.435328	-0.044534	3.410231
167.701849	5126.273492	16.440333	-0.044510	3.405765
167.800278	5112.586666	16.445338	-0.044524	3.401280
167.817703	5098.846717	16.450343	-0.044519	3.396769
167.531615	5085.085916	16.455347	-0.044439	3.392241
167.597982	5071.446567	16.460352	-0.044445	3.387753
167.521320	5057.620401	16.465357	-0.044417	3.383194
167.471217	5043.799317	16.470362	-0.044395	3.378632
167.415593	5029.967977	16.475367	-0.044371	3.374059
167.333083	5016.058788	16.480371	-0.044341	3.369455
167.343573	5002.148818	16.485376	-0.044334	3.364845
167.196599	4988.148619	16.490381	-0.044288	3.360196
167.121279	4974.197026	16.495386	-0.044260	3.355559
167.018854	4960.263425	16.500391	-0.044225	3.350920
166.868778	4946.286233	16.505395	-0.044178	3.346260
166.886262	4932.312162	16.510400	-0.044173	3.341597
166.631605	4918.280859	16.515405	-0.044100	3.336903
166.692454	4904.313833	16.520410	-0.044105	3.332230
166.688046	4890.288026	16.525415	-0.044094	3.327529
166.478985	4876.148379	16.530419	-0.044033	3.322780
166.541524	4862.087317	16.535424	-0.044038	3.318056
166.449979	4847.913081	16.540429	-0.044006	3.313283
166.501076	4833.783679	16.545434	-0.044008	3.308522
166.411957	4819.571671	16.550439	-0.043977	3.303723
166.361714	4805.309877	16.555443	-0.043954	3.298901
166.183852	4791.110476	16.560448	-0.043901	3.294091
166.103243	4776.827860	16.565453	-0.043871	3.289247
165.983779	4762.580594	16.570458	-0.043831	3.284407
165.999635	4748.286816	16.575463	-0.043825	3.279547
165.824395	4733.954140	16.580467	-0.043772	3.274663
165.957166	4719.674873	16.585472	-0.043794	3.269796
165.764725	4705.263756	16.590477	-0.043737	3.264870
165.792689	4690.883986	16.595482	-0.043734	3.259951
165.616356	4676.529295	16.600487	-0.043681	3.255030
165.587398	4662.115585	16.605491	-0.043663	3.250083
165.547037	4647.689157	16.610496	-0.043643	3.245125
165.442412	4633.164659	16.615501	-0.043607	3.240124
165.432433	4618.705619	16.620506	-0.043595	3.235140
165.313764	4604.225154	16.625511	-0.043555	3.230138
165.159396	4589.731620	16.630515	-0.043507	3.225123
165.057520	4575.261024	16.635520	-0.043472	3.220109
164.844416	4560.797759	16.640525	-0.043410	3.215088
164.839471	4546.282725	16.645530	-0.043398	3.210045
164.702814	4531.767741	16.650535	-0.043355	3.204992
164.588587	4517.215236	16.655539	-0.043316	3.199918
164.487679	4502.737778	16.660544	-0.043281	3.194862
164.490336	4488.245216	16.665549	-0.043272	3.189795
164.439036	4473.645676	16.670554	-0.043249	3.184682
164.434220	4459.062061	16.675559	-0.043237	3.179566
164.397329	4444.406427	16.680563	-0.043218	3.174417
164.371637	4429.816407	16.685568	-0.043201	3.169283
164.330392	4415.047564	16.690573	-0.043181	3.164076
164.115573	4400.380462	16.695578	-0.043118	3.158893
164.095078	4385.719724	16.700583	-0.043102	3.153708
164.018584	4371.016586	16.705587	-0.043073	3.148499
163.921603	4356.320843	16.710592	-0.043039	3.143283
163.867929	4341.572797	16.715597	-0.043015	3.138040
163.784687	4326.838419	16.720602	-0.042985	3.132793
163.784479	4312.077375	16.725607	-0.042974	3.127530
163.529578	4297.255618	16.730611	-0.042901	3.122229
163.496900	4282.524258	16.735616	-0.042883	3.116958
163.407695	4267.746258	16.740621	-0.042850	3.111659
163.254673	4253.008633	16.745626	-0.042803	3.106364
163.270884	4238.244773	16.750631	-0.042796	3.101055
163.217789	4223.390105	16.755635	-0.042773	3.095702
163.171530	4208.628966	16.760640	-0.042751	3.090374
162.910954	4193.798969	16.765645	-0.042677	3.085006
162.863868	4178.975487	16.770650	-0.042655	3.079637
162.833059	4164.174095	16.775655	-0.042636	3.074267
162.766228	4149.381609	16.780659	-0.042610	3.068890
162.787466	4134.505539	16.785664	-0.042604	3.063475
162.808117	4119.577110	16.790669	-0.042599	3.058031
162.713057	4104.635562	16.795674	-0.042565	3.052570
162.613376	4089.724623	16.800679	-0.042530	3.047110
162.594034	4074.680229	16.805683	-0.042514	3.041593
162.603308	4059.695712	16.810688	-0.042506	3.036090
162.459732	4044.668269	16.815693	-0.042460	3.030555
162.291204	4029.687337	16.820698	-0.042409	3.025028
162.186043	4014.762661	16.825703	-0.042372	3.019512
162.106314	3999.749512	16.830707	-0.042342	3.013955
161.837067	3984.893934	16.835712	-0.042266	3.008440
161.715403	3969.928704	16.840717	-0.042225	3.002878
161.763029	3954.992546	16.845722	-0.042226	2.997322
161.610663	3940.073731	16.850727	-0.042179	2.991756
161.657372	3925.099543	16.855731	-0.042179	2.986166
161.573932	3910.116669	16.860736	-0.042148	2.980557
161.345496	3895.170885	16.865741	-0.042082	2.974947
161.501038	3880.178891	16.870746	-0.042109	2.969321
161.368010	3865.101118	16.875751	-0.042066	2.963643
161.342855	3850.026672	16.880755	-0.042049	2.957959
161.489515	3834.950873	16.885760	-0.042074	2.952269
161.300914	3819.804201	16.890765	-0.042017	2.946530
161.325358	3804.696826	16.895770	-0.042013	2.940802
161.183771	3789.613552	16.900775	-0.041967	2.935066
160.879841	3774.538824	16.905779	-0.041882	2.929317
160.876800	3759.484018	16.910784	-0.041871	2.923574
160.736428	3744.415390	16.915789	-0.041826	2.917810
160.629187	3729.350952	16.920794	-0.041789	2.912037
160.475524	3714.362886	16.925799	-0.041741	2.906280
160.362665	3699.290716	16.930803	-0.041703	2.900481
160.365803	3684.304781	16.935808	-0.041693	2.894707
160.183146	3669.215218	16.940813	-0.041637	2.888876
160.093040	3654.145511	16.945818	-0.041605	2.883043
160.197294	3639.076635	16.950823	-0.041619	2.877206
159.980028	3624.013828	16.955827	-0.041556	2.871348
159.991931	3608.983369	16.960832	-0.041548	2.865499
159.810796	3593.912639	16.965837	-0.041493	2.859615
159.804050	3578.848164	16.970842	-0.041481	2.853727
159.622895	3563.846163	16.975847	-0.041426	2.847846
159.518130	3548.760901	16.980851	-0.041389	2.841922
159.620887	3533.740026	16.985856	-0.041404	2.836019
159.549496	3518.657549	16.990861	-0.041376	2.830073
159.460340	3503.580097	16.995866	-0.041343	2.824115
159.383722	3488.506560	17.000871	-0.041314	2.818147
159.315545	3473.358844	17.005875	-0.041286	2.812137
159.336698	3458.253817	17.010880	-0.041281	2.806135
159.099929	3443.131619	17.015885	-0.041212	2.800103
159.092755	3428.049657	17.020890	-0.041200	2.794083
158.958785	3412.979821	17.025895	-0.041156	2.788050
158.851013	3397.853824	17.030899	-0.041119	2.781982
158.683574	3382.869273	17.035904	-0.041068	2.775955
158.597635	3367.832702	17.040909	-0.041036	2.769897
158.462740	3352.772140	17.045914	-0.040992	2.763815
158.469686	3337.753867	17.050919	-0.040983	2.757741
158.241252	3322.721437	17.055923	-0.040917	2.751639
158.149299	3307.789480	17.060928	-0.040884	2.745570
158.123546	3292.786662	17.065933	-0.040867	2.739461
158.171769	3277.744860	17.070938	-0.040868	2.733326
157.994250	3262.728491	17.075943	-0.040814	2.727178
157.878382	3247.698777	17.080947	-0.040775	2.721013
157.937136	3232.708842	17.085952	-0.040778	2.714858
157.941025	3217.643362	17.090957	-0.040769	2.708655
157.911539	3202.544045	17.095962	-0.040751	2.702422
157.869573	3187.528376	17.100967	-0.040730	2.696210
157.718869	3172.439112	17.105971	-0.040682	2.689947
157.710336	3157.370984	17.110976	-0.040670	2.683685
157.593786	3142.291002	17.115981	-0.040630	2.677399
157.424319	3127.317126	17.120986	-0.040578	2.671139
157.399608	3112.299820	17.125991	-0.040562	2.664853
157.394812	3097.244476	17.130995	-0.040550	2.658538
157.321142	3082.210764	17.136000	-0.040521	2.652213
157.064350	3067.160158	17.141005	-0.040448	2.645857
157.109763	3052.127036	17.146010	-0.040448	2.639508
156.988971	3037.156860	17.151015	-0.040408	2.633162
156.713399	3022.182802	17.156019	-0.040330	2.626792
156.688278	3007.272234	17.161024	-0.040313	2.620444
156.550411	2992.341457	17.166029	-0.040269	2.614068
156.438774	2977.443268	17.171034	-0.040231	2.607691
156.337609	2962.579380	17.176039	-0.040196	2.601314
156.172074	2947.723264	17.181043	-0.040145	2.594921
156.182155	2932.846017	17.186048	-0.040137	2.588512
156.043317	2918.005625	17.191053	-0.040092	2.582095
155.887757	2903.207014	17.196058	-0.040044	2.575680
155.966107	2888.333969	17.201063	-0.040052	2.569228
155.840981	2873.429820	17.206067	-0.040011	2.562736
155.753851	2858.624641	17.211072	-0.039979	2.556272
155.622454	2843.803928	17.216077	-0.039937	2.549783
155.596334	2828.972416	17.221082	-0.039920	2.543278
155.432037	2814.243648	17.226087	-0.039869	2.536795
155.374796	2799.441686	17.231091	-0.039845	2.530268
155.642698	2784.582169	17.236096	-0.039899	2.523715
155.582452	2769.725087	17.241101	-0.039874	2.517130
155.422095	2754.890513	17.246106	-0.039824	2.510532
155.302511	2740.068281	17.251111	-0.039785	2.503924
155.285523	2725.255102	17.256115	-0.039770	2.497308
155.209424	2710.436254	17.261120	-0.039741	2.490668
155.027179	2695.607018	17.266125	-0.039686	2.484001
154.777394	2680.928293	17.271130	-0.039614	2.477380
154.670186	2666.275907	17.276135	-0.039578	2.470761
154.459683	2651.566031	17.281139	-0.039516	2.464092
154.322493	2637.028590	17.286144	-0.039472	2.457487
154.253712	2622.415935	17.291149	-0.039445	2.450834
154.135299	2607.802534	17.296154	-0.039406	2.444159
154.150188	2593.284568	17.301159	-0.039399	2.437518
154.186892	2578.682849	17.306163	-0.039397	2.430821
154.216699	2564.046576	17.311168	-0.039394	2.424089
154.178322	2549.452477	17.316173	-0.039375	2.417354
154.061211	2534.810002	17.321178	-0.039336	2.410573
154.002490	2520.205334	17.326183	-0.039311	2.403794
153.948225	2505.578361	17.331187	-0.039287	2.396986
153.912394	2491.018418	17.336192	-0.039268	2.390191
153.795079	2476.450063	17.341197	-0.039229	2.383367
153.565468	2461.936889	17.346202	-0.039163	2.376543
153.319301	2447.494539	17.351207	-0.039092	2.369732
153.205816	2433.051199	17.356211	-0.039054	2.362909
153.128464	2418.678053	17.361216	-0.039025	2.356101
152.965653	2404.290330	17.366221	-0.038975	2.349261
152.980395	2389.936532	17.371226	-0.038969	2.342429
153.068771	2375.540754	17.376231	-0.038980	2.335560
152.937160	2361.110478	17.381235	-0.038938	2.328641
152.866693	2346.762423	17.386240	-0.038910	2.321745
152.894779	2332.378689	17.391245	-0.038907	2.314818
152.766155	2318.033638	17.396250	-0.038865	2.307878
152.646350	2303.728133	17.401255	-0.038826	2.300937
152.553519	2289.422636	17.406259	-0.038793	2.293977
152.437750	2275.161055	17.411264	-0.038754	2.287016
152.333595	2260.904829	17.416269	-0.038719	2.280036
152.277718	2246.716825	17.421274	-0.038695	2.273072
152.075862	2232.526272	17.426279	-0.038636	2.266076
151.855954	2218.395385	17.431283	-0.038572	2.259086
151.779407	2204.278476	17.436288	-0.038543	2.252090
151.769256	2190.119477	17.441293	-0.038531	2.245057
151.617724	2176.059287	17.446298	-0.038484	2.238041
151.554514	2162.000665	17.451303	-0.038458	2.231009
151.217442	2148.006585	17.456307	-0.038366	2.223970
151.262424	2134.061642	17.461312	-0.038367	2.216958
151.125410	2120.086390	17.466317	-0.038324	2.209897
151.068461	2106.154344	17.471322	-0.038300	2.202840
151.235272	2092.195524	17.476327	-0.038331	2.195762
151.097754	2078.235631	17.481331	-0.038287	2.188640
151.368901	2064.236330	17.486336	-0.038343	2.181503
151.202673	2050.248947	17.491341	-0.038293	2.174318
151.147341	2036.241259	17.496346	-0.038269	2.167106
151.204987	2022.301202	17.501351	-0.038274	2.159913
151.106599	2008.338712	17.506355	-0.038240	2.152674
150.883642	1994.474365	17.511360	-0.038175	2.145452
150.574630	1980.670053	17.516365	-0.038090	2.138230
150.409440	1966.885851	17.521370	-0.038040	2.131005
150.317106	1953.179933	17.526375	-0.038007	2.123802
149.871494	1939.560519	17.531379	-0.037889	2.116594
149.712312	1926.021223	17.536384	-0.037840	2.109425
149.716515	1912.454877	17.541389	-0.037832	2.102229
149.629880	1898.890343	17.546394	-0.037801	2.095002
149.526855	1885.353095	17.551399	-0.037766	2.087764
149.352180	1871.861974	17.556403	-0.037714	2.080520
149.463857	1858.401901	17.561408	-0.037732	2.073289
149.471403	1844.880725	17.566413	-0.037724	2.065992
149.357537	1831.443015	17.571418	-0.037686	2.058705
149.624586	1817.920663	17.576423	-0.037742	2.051375
149.604299	1804.386133	17.581427	-0.037728	2.043990
149.644114	1790.890671	17.586432	-0.037728	2.036605
149.557404	1777.427730	17.591437	-0.037697	2.029200
149.485758	1763.933809	17.596442	-0.037670	2.021752
149.191719	1750.581057	17.601447	-0.037589	2.014338
148.938709	1737.193558	17.606451	-0.037517	2.006879
148.781057	1723.962852	17.611456	-0.037469	1.999488
148.619590	1710.722742	17.616461	-0.037420	1.992064
148.469533	1697.562064	17.621466	-0.037374	1.984658
148.341143	1684.447441	17.626471	-0.037334	1.977251
148.200143	1671.330509	17.631475	-0.037290	1.969815
148.021663	1658.273424	17.636480	-0.037237	1.962381
147.958099	1645.290720	17.641485	-0.037212	1.954971
147.818998	1632.286292	17.646490	-0.037169	1.947513
147.914448	1619.337470	17.651495	-0.037183	1.940080
147.947959	1606.267209	17.656499	-0.037182	1.932542
147.811523	1593.321426	17.661504	-0.037140	1.925032
147.682954	1580.399622	17.666509	-0.037099	1.917507
147.747563	1567.456037	17.671514	-0.037105	1.909957
147.762771	1554.566398	17.676519	-0.037100	1.902404
147.551471	1541.722134	17.681523	-0.037039	1.894827
147.487688	1528.886755	17.686528	-0.037015	1.887239
147.414472	1516.102855	17.691533	-0.036988	1.879649
147.305586	1503.330254	17.696538	-0.036952	1.872033
147.124120	1490.669495	17.701543	-0.036899	1.864445
147.055602	1477.962960	17.706547	-0.036873	1.856809
146.909976	1465.308384	17.711552	-0.036828	1.849166
146.804307	1452.720666	17.716557	-0.036793	1.841536
146.607330	1440.176190	17.721562	-0.036736	1.833891
146.539843	1427.709594	17.726567	-0.036711	1.826274
146.280764	1415.247951	17.731571	-0.036639	1.818610
146.225674	1402.864091	17.736576	-0.036617	1.810981
146.266585	1390.443371	17.741581	-0.036618	1.803306
146.255540	1378.072940	17.746586	-0.036606	1.795624
146.206224	1365.729366	17.751591	-0.036586	1.787923
146.089953	1353.403171	17.756595	-0.036548	1.780192
146.017819	1341.107048	17.761600	-0.036522	1.772451
146.018270	1328.813759	17.766605	-0.036513	1.764685
145.984128	1316.573307	17.771610	-0.036496	1.756915
145.925061	1304.359603	17.776615	-0.036473	1.749125
145.700212	1292.218041	17.781619	-0.036410	1.741329
145.777890	1280.068956	17.786624	-0.036420	1.733525
145.505122	1267.997354	17.791629	-0.036345	1.725699
145.462734	1255.946190	17.796634	-0.036326	1.717874
145.309983	1243.982572	17.801639	-0.036280	1.710059
145.098853	1232.050512	17.806643	-0.036220	1.702223
144.913845	1220.167017	17.811648	-0.036166	1.694386
144.862712	1208.318995	17.816653	-0.036145	1.686549
144.676464	1196.533003	17.821658	-0.036091	1.678703
144.611604	1184.788481	17.826663	-0.036067	1.670861
144.563320	1173.066647	17.831667	-0.036047	1.662998
144.540583	1161.382173	17.836672	-0.036033	1.655127
144.351255	1149.749211	17.841677	-0.035979	1.647234
144.335336	1138.126722	17.846682	-0.035967	1.639330
144.290013	1126.581624	17.851687	-0.035947	1.631437
144.249107	1115.007238	17.856691	-0.035929	1.623485
144.258555	1103.460238	17.861696	-0.035923	1.615520
144.154810	1091.964602	17.866701	-0.035890	1.607537
144.090498	1080.502609	17.871706	-0.035866	1.599543
143.996853	1069.111161	17.876711	-0.035835	1.591555
143.759533	1057.765911	17.881715	-0.035769	1.583542
143.603352	1046.489517	17.886720	-0.035723	1.575547
143.535048	1035.233760	17.891725	-0.035698	1.567536
143.542170	1023.999874	17.896730	-0.035692	1.559508
143.438501	1012.849928	17.901735	-0.035658	1.551486
143.377806	1001.703486	17.906739	-0.035636	1.543430
143.373454	990.567372	17.911744	-0.035627	1.535346
143.285921	979.498363	17.916749	-0.035597	1.527258
143.169621	968.452687	17.921754	-0.035561	1.519141
143.092599	957.483745	17.926759	-0.035534	1.511042
142.857084	946.590194	17.931763	-0.035469	1.502935
142.861751	935.707164	17.936768	-0.035463	1.494822
142.735076	924.868911	17.941773	-0.035424	1.486682
142.501879	914.125856	17.946778	-0.035359	1.478555
142.531955	903.382816	17.951783	-0.035359	1.470417
142.343078	892.706228	17.956787	-0.035305	1.462256
142.263843	882.056485	17.961792	-0.035278	1.454085
142.095496	871.467628	17.966797	-0.035230	1.445902
142.141633	860.921237	17.971802	-0.035233	1.437734
141.996111	850.423613	17.976807	-0.035190	1.429532
141.691216	840.018788	17.981811	-0.035109	1.421335
141.880840	829.597643	17.986816	-0.035147	1.413143
141.742405	819.227941	17.991821	-0.035106	1.404900
141.570673	808.928200	17.996826	-0.035057	1.396660
141.632445	798.663568	18.001831	-0.035065	1.388431
141.505684	788.419436	18.006835	-0.035026	1.380144
141.459764	778.212694	18.011840	-0.035008	1.371848
141.277732	768.105297	18.016845	-0.034956	1.363564
141.362815	757.977409	18.021850	-0.034970	1.355250
141.279648	747.929910	18.026855	-0.034942	1.346928
141.003038	737.967818	18.031859	-0.034868	1.338596
140.876903	728.044694	18.036864	-0.034830	1.330268
140.790276	718.177831	18.041869	-0.034802	1.321940
140.633760	708.370021	18.046874	-0.034756	1.313599
140.700509	698.602327	18.051879	-0.034766	1.305273
140.431995	688.912029	18.056883	-0.034693	1.296909
140.511173	679.192303	18.061888	-0.034706	1.288518
140.261829	669.601004	18.066893	-0.034638	1.280134
140.190953	660.010053	18.071898	-0.034614	1.271723
140.117668	650.513510	18.076903	-0.034589	1.263338
139.986371	641.034726	18.081907	-0.034550	1.254904
139.920347	631.609049	18.086912	-0.034528	1.246471
139.930064	622.230827	18.091917	-0.034523	1.238036
139.798802	612.908835	18.096922	-0.034485	1.229571
139.814653	603.621749	18.101927	-0.034482	1.221103
139.669678	594.360812	18.106931	-0.034440	1.212573
139.569204	585.203605	18.111936	-0.034409	1.204087
139.350128	576.118031	18.116941	-0.034349	1.195588
139.299931	567.048781	18.121946	-0.034330	1.187071
139.133066	558.099991	18.126951	-0.034283	1.178588
139.118747	549.123793	18.131955	-0.034273	1.170042
138.954835	540.265447	18.136960	-0.034227	1.161522
138.944623	531.418348	18.141965	-0.034218	1.152976
138.856732	522.645051	18.146970	-0.034190	1.144424
138.924013	513.864202	18.151975	-0.034200	1.135828
138.792849	505.148935	18.156979	-0.034162	1.127196
138.849614	496.493357	18.161984	-0.034170	1.118592
138.715294	487.898797	18.166989	-0.034131	1.109946
138.681936	479.346750	18.171994	-0.034117	1.101295
138.496992	470.873352	18.176999	-0.034065	1.092628
138.224906	462.500801	18.182003	-0.033993	1.083978
138.131994	454.171550	18.187008	-0.033964	1.075338
138.030821	445.899111	18.192013	-0.033934	1.066686
137.972115	437.643600	18.197018	-0.033913	1.057989
137.849038	429.471483	18.202023	-0.033878	1.049297
137.617492	421.405261	18.207027	-0.033815	1.040623
137.588229	413.351489	18.212032	-0.033802	1.031931
137.621498	405.342262	18.217037	-0.033805	1.023226
137.507778	397.389437	18.222042	-0.033771	1.014479
137.516980	389.507183	18.227047	-0.033768	1.005759
137.340697	381.689064	18.232051	-0.033719	0.996996
137.339052	373.905167	18.237056	-0.033713	0.988231
137.270643	366.165786	18.242061	-0.033691	0.979424
137.098130	358.510932	18.247066	-0.033644	0.970612
137.138073	350.905758	18.252071	-0.033648	0.961823
136.957102	343.361880	18.257075	-0.033598	0.952976
136.830629	335.903156	18.262080	-0.033562	0.944160
136.637565	328.515662	18.267085	-0.033510	0.935330
136.642739	321.147856	18.272090	-0.033506	0.926485
136.573664	313.862054	18.277095	-0.033484	0.917637
136.377852	306.651092	18.282099	-0.033431	0.908766
136.359896	299.472709	18.287104	-0.033421	0.899890
136.273109	292.366586	18.292109	-0.033395	0.890999
136.315152	285.290509	18.297114	-0.033400	0.882087
136.217387	278.307682	18.302119	-0.033371	0.873170
135.896362	271.430548	18.307123	-0.033288	0.864244
135.816598	264.581024	18.312128	-0.033264	0.855320
135.704582	257.820149	18.317133	-0.033231	0.846410
135.666063	251.088950	18.322138	-0.033217	0.837464
135.543233	244.453144	18.327143	-0.033182	0.828528
135.543420	237.830918	18.332147	-0.033178	0.819545
135.495433	231.276807	18.337152	-0.033161	0.810544
135.195959	224.861584	18.342157	-0.033084	0.801569
135.187914	218.444536	18.347162	-0.033077	0.792568
135.049732	212.131709	18.352167	-0.033039	0.783576
134.938859	205.858283	18.357171	-0.033007	0.774545
134.869008	199.666173	18.362176	-0.032986	0.765537
134.823657	193.531622	18.367181	-0.032970	0.756514
134.589512	187.487217	18.372186	-0.032909	0.747462
134.691636	181.452104	18.377191	-0.032929	0.738411
134.568294	175.505776	18.382195	-0.032895	0.729318
134.565730	169.618928	18.387200	-0.032890	0.720237
134.326749	163.841202	18.392205	-0.032828	0.711142
134.210790	158.112883	18.397210	-0.032795	0.702044
134.338800	152.404679	18.402215	-0.032822	0.692935
134.217024	146.799528	18.407219	-0.032789	0.683795
134.202431	141.242899	18.412224	-0.032781	0.674645
134.126022	135.759641	18.417229	-0.032759	0.665473
134.036172	130.322748	18.422234	-0.032733	0.656247
133.971069	124.982237	18.427239	-0.032713	0.647065
133.796451	119.715674	18.432243	-0.032667	0.637842
133.813625	114.495797	18.437248	-0.032667	0.628633
133.656677	109.370014	18.442253	-0.032625	0.619397
133.588232	104.293752	18.447258	-0.032605	0.610142
133.404788	99.330774	18.452263	-0.032556	0.600915
133.222060	94.430603	18.457267	-0.032508	0.591662
133.003443	89.616866	18.462272	-0.032451	0.582415
133.018717	84.828275	18.467277	-0.032452	0.573155
132.958304	80.125340	18.472282	-0.032434	0.563885
132.920570	75.488160	18.477287	-0.032421	0.554600
132.734557	70.953132	18.482291	-0.032372	0.545309
132.657698	66.468401	18.487296	-0.032350	0.536005
132.606634	62.056199	18.492301	-0.032335	0.526701
132.412617	57.737053	18.497306	-0.032284	0.517371
132.498650	53.453719	18.502311	-0.032302	0.508068
132.495781	49.221179	18.507315	-0.032298	0.498667
132.379784	45.099768	18.512320	-0.032267	0.489288
132.212812	41.066069	18.517325	-0.032223	0.479908
132.081764	37.098545	18.522330	-0.032189	0.470514
131.926964	33.218699	18.527335	-0.032148	0.461131
131.751218	29.411501	18.532339	-0.032102	0.451722
131.651602	25.679766	18.537344	-0.032075	0.442340
131.232776	22.090219	18.542349	-0.031970	0.432962
130.669602	18.614010	18.547354	-0.031830	0.423601
130.351742	15.186036	18.552359	-0.031750	0.414288
129.667689	11.926208	18.557363	-0.031581	0.405027
129.665414	8.620889	18.562368	-0.031578	0.395796
129.344917	5.455286	18.567373	-0.031497	0.386570
128.924223	2.382495	18.572378	-0.031392	0.377334
128.693864	-0.630052	18.577383	-0.031334	0.368163
128.389369	-3.551609	18.582387	-0.031257	0.358995
128.086119	-6.392863	18.587392	-0.031181	0.349845
119.433473	-7.476861	18.592397	-0.029066	0.340846
88.866370	-3.291076	18.597402	-0.021601	0.334872
86.425356	-4.047755	18.602407	-0.021004	0.330718
80.911699	-3.847784	18.607411	-0.019657	0.327722
73.079782	-3.061059	18.612416	-0.017744	0.325154
71.771943	-3.362489	18.617421	-0.017424	0.323227
69.475894	-3.355579	18.622426	-0.016863	0.321687
65.870544	-3.018159	18.627431	-0.015982	0.320397
64.753603	-3.093981	18.632435	-0.015709	0.319365
64.296068	-3.221688	18.637440	-0.015597	0.318601
62.728290	-3.133817	18.642445	-0.015214	0.317828
62.134745	-3.211467	18.647450	-0.015069	0.317143
61.828308	-3.310061	18.652455	-0.014994	0.316582
60.993897	-3.306651	18.657459	-0.014790	0.316014
60.640153	-3.386755	18.662464	-0.014704	0.315484
59.971515	-3.371669	18.667469	-0.014540	0.315071
59.385445	-3.371062	18.672474	-0.014397	0.314665
58.848774	-3.359766	18.677479	-0.014266	0.314330
58.076780	-3.296595	18.682483	-0.014077	0.314015
57.875828	-3.296270	18.687488	-0.014028	0.313875
56.955433	-3.143895	18.692493	-0.013803	0.313775
56.561071	-3.124803	18.697498	-0.013707	0.313566
55.796924	-3.009996	18.702503	-0.013520	0.313441
55.533728	-2.960844	18.707507	-0.013456	0.313432
55.368099	-2.927861	18.712512	-0.013416	0.313434
55.068216	-2.868149	18.717517	-0.013342	0.313437
55.268557	-2.909450	18.722522	-0.013391	0.313430
55.290619	-2.911391	18.727527	-0.013397	0.313438
55.016799	-2.859805	18.732531	-0.013330	0.313430
55.397471	-2.950524	18.737536	-0.013423	0.313373
55.068305	-2.956570	18.742541	-0.013342	0.313120
55.188905	-2.984338	18.747546	-0.013372	0.313105
55.292017	-3.065658	18.752551	-0.013397	0.312887
54.937035	-3.021779	18.757555	-0.013310	0.312794
54.990919	-3.110663	18.762560	-0.013323	0.312514
54.829169	-3.099968	18.767565	-0.013284	0.312438
54.698637	-3.152335	18.772570	-0.013252	0.312158
54.989330	-3.268796	18.777575	-0.013322	0.311945
54.189901	-3.159749	18.782579	-0.013127	0.311773
54.051618	-3.196983	18.787584	-0.013093	0.311542
53.991548	-3.240367	18.792589	-0.013079	0.311343
53.262024	-3.128418	18.797594	-0.012900	0.311231
53.360423	-3.206024	18.802599	-0.012924	0.311021
52.940076	-3.155475	18.807603	-0.012822	0.310906
52.892528	-3.189918	18.812608	-0.012810	0.310748
52.064170	-3.069127	18.817613	-0.012608	0.310597
51.943283	-3.049693	18.822618	-0.012578	0.310582
51.609275	-2.980838	18.827623	-0.012497	0.310593
51.075799	-2.878117	18.832627	-0.012366	0.310586
51.158878	-2.893993	18.837632	-0.012387	0.310588
50.753353	-2.812713	18.842637	-0.012287	0.310594
50.509208	-2.768410	18.847642	-0.012228	0.310581
50.456448	-2.754331	18.852647	-0.012215	0.310594
50.400449	-2.745620	18.857651	-0.012201	0.310586
50.694476	-2.838541	18.862656	-0.012273	0.310459
50.328943	-2.816298	18.867661	-0.012184	0.310280
50.782730	-2.908739	18.872666	-0.012294	0.310268
51.047890	-2.997662	18.877671	-0.012359	0.310134
50.338863	-2.903794	18.882675	-0.012186	0.309971
50.989630	-3.094795	18.887680	-0.012345	0.309742
51.108752	-3.173635	18.892685	-0.012374	0.309541
50.725764	-3.184261	18.897690	-0.012280	0.309230
50.410809	-3.177807	18.902695	-0.012203	0.309029
50.377351	-3.231526	18.907699	-0.012195	0.308811
50.048449	-3.234215	18.912704	-0.012115	0.308567
49.401660	-3.141557	18.917709	-0.011957	0.308442
49.196522	-3.180809	18.922714	-0.011906	0.308153
49.274740	-3.223681	18.927719	-0.011925	0.308053
48.283643	-3.088603	18.932723	-0.011683	0.307837
48.488063	-3.136959	18.937728	-0.011733	0.307806
47.765288	-3.067518	18.942733	-0.011557	0.307543
47.273674	-2.972893	18.947738	-0.011437	0.307536
46.832630	-2.883457	18.952743	-0.011329	0.307547
46.514887	-2.824672	18.957747	-0.011251	0.307533
46.298352	-2.782178	18.962752	-0.011198	0.307533
45.940955	-2.657510	18.967757	-0.011111	0.307732
46.318419	-2.705623	18.972762	-0.011203	0.307826
46.416711	-2.743856	18.977767	-0.011227	0.307757
45.950739	-2.713515	18.982771	-0.011113	0.307535
46.224873	-2.767274	18.987776	-0.011180	0.307535
46.384270	-2.796299	18.992781	-0.011219	0.307543
46.703737	-2.906194	18.997786	-0.011297	0.307371
46.524277	-2.914526	19.002791	-0.011253	0.307212
46.577092	-2.991016	19.007795	-0.011266	0.306970
46.866185	-3.099539	19.012800	-0.011337	0.306781
46.728879	-3.148286	19.017805	-0.011303	0.306504
46.830033	-3.262659	19.022810	-0.011328	0.306159
46.426251	-3.259081	19.027815	-0.011229	0.305881
45.838340	-3.211405	19.032819	-0.011085	0.305633
45.549386	-3.238911	19.037824	-0.011015	0.305324
45.016904	-3.160343	19.042829	-0.010884	0.305229
44.202023	-3.060210	19.047834	-0.010685	0.305009
44.194515	-3.054789	19.052839	-0.010684	0.305024
43.563514	-2.934964	19.057843	-0.010529	0.305009
42.964062	-2.895288	19.062848	-0.010383	0.304722
42.527216	-2.729589	19.067853	-0.010276	0.305016
42.242939	-2.676443	19.072858	-0.010207	0.305006
42.339573	-2.692504	19.077863	-0.010230	0.305017
42.280420	-2.682158	19.082867	-0.010216	0.305012
42.541875	-2.732813	19.087872	-0.010280	0.305015
42.389355	-2.700280	19.092877	-0.010243	0.305024
42.483200	-2.732695	19.097882	-0.010265	0.304973
42.640459	-2.839153	19.102887	-0.010304	0.304695
42.773564	-2.867419	19.107891	-0.010336	0.304687
42.575749	-2.910149	19.112896	-0.010288	0.304386
42.687019	-2.949616	19.117901	-0.010315	0.304321
42.430568	-2.969843	19.122906	-0.010252	0.304061
42.502228	-3.027663	19.127911	-0.010270	0.303900
41.705974	-2.893008	19.132915	-0.010075	0.303820
41.659501	-2.972827	19.137920	-0.010064	0.303492
41.639313	-2.986396	19.142925	-0.010059	0.303427
40.817652	-2.895472	19.147930	-0.009858	0.303167
41.079120	-2.943451	19.152935	-0.009922	0.303179
40.894701	-2.991327	19.157939	-0.009877	0.302868
40.902174	-3.002107	19.162944	-0.009879	0.302833
40.493516	-2.996241	19.167949	-0.009779	0.302558
40.445686	-2.996464	19.172954	-0.009767	0.302522
39.924388	-2.972996	19.177959	-0.009640	0.302230
39.411954	-2.873991	19.182963	-0.009514	0.302224
39.296392	-2.852409	19.187968	-0.009486	0.302220
38.991886	-2.857923	19.192973	-0.009412	0.301978
38.424686	-2.767067	19.197978	-0.009273	0.301902
38.313921	-2.741190	19.202983	-0.009246	0.301917
37.877871	-2.657361	19.207987	-0.009140	0.301910
37.985724	-2.679120	19.212992	-0.009166	0.301908
37.652027	-2.610764	19.217997	-0.009084	0.301919
37.786262	-2.641194	19.223002	-0.009117	0.301903
38.170580	-2.713804	19.228007	-0.009211	0.301914
38.238858	-2.772306	19.233011	-0.009228	0.301746
38.217219	-2.809929	19.238016	-0.009222	0.301591
38.324650	-2.885685	19.243021	-0.009248	0.301387
38.058695	-2.874218	19.248026	-0.009183	0.301236
37.847240	-2.904719	19.253031	-0.009132	0.300967
37.900679	-2.968267	19.258035	-0.009145	0.300770
37.523745	-2.936085	19.263040	-0.009053	0.300614
37.143156	-2.934798	19.268045	-0.008960	0.300340
37.131627	-2.973874	19.273050	-0.008957	0.300185
36.580389	-2.904510	19.278055	-0.008822	0.300040
36.356212	-2.904157	19.283059	-0.008767	0.299877
35.701410	-2.821326	19.288064	-0.008607	0.299706
35.379739	-2.756164	19.293069	-0.008529	0.299714
35.245509	-2.733744	19.298074	-0.008496	0.299699
35.561979	-2.812254	19.303079	-0.008573	0.299637
34.879971	-2.742671	19.308083	-0.008406	0.299397
34.980676	-2.763393	19.313088	-0.008431	0.299393
34.782489	-2.721225	19.318093	-0.008383	0.299405
34.560206	-2.731813	19.323098	-0.008328	0.299202
34.405225	-2.731985	19.328103	-0.008290	0.299087
34.464447	-2.744403	19.333107	-0.008305	0.299084
34.839426	-2.849644	19.338112	-0.008396	0.298966
34.633401	-2.836548	19.343117	-0.008346	0.298863
34.656531	-2.923080	19.348122	-0.008352	0.298555
34.418563	-2.911577	19.353127	-0.008293	0.298423
33.395023	-2.768190	19.358131	-0.008043	0.298207
33.275187	-2.746285	19.363136	-0.008014	0.298200
33.068009	-2.731023	19.368141	-0.007963	0.298105
32.501531	-2.679005	19.373146	-0.007825	0.297882
32.657813	-2.706785	19.378151	-0.007863	0.297893
32.164837	-2.611688	19.383155	-0.007743	0.297887
32.192841	-2.619723	19.388160	-0.007750	0.297877
32.434187	-2.720561	19.393165	-0.007808	0.297676
32.190269	-2.699719	19.398170	-0.007749	0.297574
32.429660	-2.771032	19.403175	-0.007807	0.297482
32.318701	-2.809465	19.408179	-0.007780	0.297255
32.336565	-2.869044	19.413184	-0.007784	0.297043
31.595650	-2.749057	19.418189	-0.007603	0.296947
31.829450	-2.865655	19.423194	-0.007660	0.296680
31.945061	-2.917947	19.428199	-0.007689	0.296568
31.414857	-2.878904	19.433203	-0.007559	0.296322
31.516404	-2.954861	19.438208	-0.007584	0.296110
31.121729	-2.906866	19.443213	-0.007487	0.295998
30.460505	-2.862524	19.448218	-0.007326	0.295674
30.089998	-2.789255	19.453223	-0.007235	0.295676
29.768449	-2.726795	19.458227	-0.007157	0.295673
29.619057	-2.767033	19.463232	-0.007120	0.295409
28.850527	-2.627962	19.468237	-0.006932	0.295364
28.498829	-2.562368	19.473242	-0.006847	0.295351
28.761273	-2.611242	19.478247	-0.006911	0.295361
28.230010	-2.507444	19.483251	-0.006781	0.295359
28.118391	-2.486665	19.488256	-0.006754	0.295355
28.267416	-2.513182	19.493261	-0.006790	0.295365
28.423743	-2.547264	19.498266	-0.006828	0.295352
28.439319	-2.547580	19.503271	-0.006832	0.295363
28.647406	-2.635929	19.508275	-0.006883	0.295182
28.938085	-2.725883	19.513280	-0.006953	0.295057
29.062596	-2.831823	19.518285	-0.006984	0.294747
28.964799	-2.880488	19.523290	-0.006960	0.294489
28.950763	-2.944190	19.528295	-0.006956	0.294235
28.664600	-2.953076	19.533299	-0.006886	0.293987
28.399547	-2.970447	19.538304	-0.006822	0.293722
27.694283	-2.874672	19.543309	-0.006649	0.293559
27.447631	-2.910856	19.548314	-0.006589	0.293236
27.313023	-2.907686	19.553319	-0.006556	0.293147
26.295287	-2.768257	19.558323	-0.006307	0.292916
26.284666	-2.768595	19.563328	-0.006305	0.292906
25.903808	-2.690895	19.568333	-0.006212	0.292917
25.296603	-2.652570	19.573338	-0.006063	0.292608
25.368406	-2.664082	19.578343	-0.006081	0.292617
24.807087	-2.554407	19.583347	-0.005944	0.292615
24.752714	-2.545242	19.588352	-0.005931	0.292609
24.730721	-2.537403	19.593357	-0.005925	0.292623
24.703098	-2.536141	19.598362	-0.005918	0.292607
24.570264	-2.508023	19.603367	-0.005886	0.292614
24.353702	-2.465213	19.608371	-0.005833	0.292616
24.769102	-2.599092	19.613376	-0.005934	0.292415
24.730393	-2.624051	19.618381	-0.005925	0.292290
24.740110	-2.677982	19.623386	-0.005927	0.292090
24.672572	-2.695100	19.628391	-0.005911	0.291973
24.602842	-2.744164	19.633395	-0.005894	0.291732
24.516104	-2.766396	19.638400	-0.005872	0.291581
24.408485	-2.801548	19.643405	-0.005846	0.291364
24.302464	-2.859239	19.648410	-0.005820	0.291062
24.011827	-2.843265	19.653415	-0.005749	0.290904
23.180413	-2.729949	19.658419	-0.005546	0.290711
23.455757	-2.840203	19.663424	-0.005613	0.290494
22.923789	-2.760409	19.668429	-0.005483	0.290399
22.469981	-2.726696	19.673434	-0.005372	0.290185
22.282492	-2.712638	19.678439	-0.005326	0.290097
22.125030	-2.681718	19.683443	-0.005288	0.290097
22.001186	-2.711239	19.688448	-0.005258	0.289888
21.563998	-2.654169	19.693453	-0.005151	0.289777
21.531924	-2.652517	19.698458	-0.005143	0.289759
21.566063	-2.684203	19.703463	-0.005151	0.289662
20.791706	-2.584585	19.708467	-0.004962	0.289459
20.750505	-2.578139	19.713472	-0.004952	0.289452
20.701600	-2.565335	19.718477	-0.004940	0.289465
20.460454	-2.521866	19.723482	-0.004881	0.289450
20.436387	-2.586116	19.728487	-0.004875	0.289182
20.250015	-2.558373	19.733491	-0.004830	0.289148
20.404274	-2.590097	19.738496	-0.004867	0.289142
20.305609	-2.615926	19.743501	-0.004843	0.288967
20.164135	-2.597052	19.748506	-0.004808	0.288932
20.213065	-2.670409	19.753511	-0.004820	0.288684
19.855912	-2.621384	19.758515	-0.004733	0.288602
20.144714	-2.752021	19.763520	-0.004804	0.288315
20.265764	-2.816732	19.768525	-0.004833	0.288155
19.529137	-2.723423	19.773530	-0.004653	0.287955
19.622823	-2.816293	19.778535	-0.004676	0.287665
19.490975	-2.827840	19.783539	-0.004644	0.287519
18.716820	-2.724939	19.788544	-0.004455	0.287327
18.462071	-2.732334	19.793549	-0.004392	0.287103
18.181171	-2.699035	19.798554	-0.004324	0.287017
18.515496	-2.794959	19.803559	-0.004405	0.286899
17.655473	-2.673993	19.808563	-0.004195	0.286711
17.552394	-2.655340	19.813568	-0.004170	0.286705
17.213475	-2.621933	19.818573	-0.004087	0.286575
16.496255	-2.525449	19.823578	-0.003912	0.286402
16.410164	-2.506557	19.828583	-0.003891	0.286409
15.840516	-2.395199	19.833587	-0.003752	0.286407
15.808140	-2.390926	19.838592	-0.003744	0.286399
15.894912	-2.404952	19.843597	-0.003765	0.286411
15.956390	-2.420614	19.848602	-0.003780	0.286396
16.449325	-2.513393	19.853607	-0.003900	0.286412
16.477171	-2.565892	19.858611	-0.003907	0.286228
16.304286	-2.572781	19.863616	-0.003865	0.286068
16.867802	-2.742111	19.868621	-0.004002	0.285837
16.759384	-2.790269	19.873626	-0.003976	0.285565
16.431784	-2.795218	19.878631	-0.003896	0.285292
16.265538	-2.823839	19.883635	-0.003855	0.285051
16.297292	-2.904641	19.888640	-0.003863	0.284758
15.657097	-2.840708	19.893645	-0.003706	0.284514
14.995157	-2.778155	19.898650	-0.003545	0.284248
14.503985	-2.694155	19.903655	-0.003425	0.284199
14.248325	-2.667164	19.908659	-0.003362	0.284107
13.644707	-2.586946	19.913664	-0.003215	0.283955
13.440874	-2.543993	19.918669	-0.003165	0.283967
12.994741	-2.459169	19.923674	-0.003056	0.283956
12.963117	-2.451937	19.928679	-0.003048	0.283960
13.042276	-2.466250	19.933683	-0.003067	0.283964
13.209602	-2.522032	19.938688	-0.003108	0.283874
12.849227	-2.511761	19.943693	-0.003020	0.283634
12.779004	-2.501582	19.948698	-0.003003	0.283620
12.934532	-2.543434	19.953703	-0.003041	0.283575
12.496913	-2.523979	19.958707	-0.002934	0.283312
12.764019	-2.579247	19.963712	-0.002999	0.283301
12.673536	-2.630951	19.968717	-0.002977	0.283025
12.437067	-2.598633	19.973722	-0.002919	0.282969
12.522157	-2.686103	19.978727	-0.002940	0.282689
12.354899	-2.692743	19.983731	-0.002899	0.282532
11.873529	-2.642654	19.988736	-0.002781	0.282355
12.039993	-2.736815	19.993741	-0.002822	0.282111
11.622664	-2.685175	19.998746	-0.002720	0.281990
11.314816	-2.688540	20.003751	-0.002645	0.281736
11.330993	-2.713953	20.008755	-0.002649	0.281647
10.765899	-2.658760	20.013760	-0.002511	0.281425
10.638069	-2.645440	20.018765	-0.002479	0.281378
9.889500	-2.568756	20.023770	-0.002296	0.281097
10.175709	-2.624321	20.028775	-0.002366	0.281100
9.945661	-2.586520	20.033779	-0.002310	0.281070
9.599840	-2.592191	20.038784	-0.002226	0.280776
9.369698	-2.543795	20.043789	-0.002169	0.280789
9.040535	-2.482031	20.048794	-0.002089	0.280777
9.107279	-2.539946	20.053799	-0.002105	0.280598
8.391300	-2.431652	20.058803	-0.001930	0.280468
8.478882	-2.451417	20.063808	-0.001952	0.280458
8.785744	-2.508485	20.068813	-0.002027	0.280471
8.727151	-2.544609	20.073818	-0.002012	0.280280
8.280739	-2.484869	20.078823	-0.001903	0.280168
8.144674	-2.458008	20.083827	-0.001870	0.280169
8.440627	-2.591245	20.088832	-0.001942	0.279868
8.463278	-2.609746	20.093837	-0.001948	0.279811
8.229218	-2.635249	20.098842	-0.001890	0.279524
8.537070	-2.745866	20.103847	-0.001965	0.279323
7.952970	-2.668207	20.108851	-0.001823	0.279174
7.628946	-2.650424	20.113856	-0.001744	0.278989
7.535056	-2.684156	20.118861	-0.001721	0.278779
6.772389	-2.564353	20.123866	-0.001534	0.278659
6.830175	-2.624319	20.128871	-0.001548	0.278463
6.174182	-2.524708	20.133875	-0.001388	0.278345
6.215290	-2.536041	20.138880	-0.001398	0.278331
6.175722	-2.568167	20.143885	-0.001388	0.278170
5.496754	-2.473240	20.148890	-0.001223	0.278015
5.617863	-2.495353	20.153895	-0.001252	0.278022
5.637283	-2.526229	20.158899	-0.001257	0.277913
5.415634	-2.531038	20.163904	-0.001203	0.277717
5.483492	-2.552945	20.168909	-0.001219	0.277683
4.680577	-2.468480	20.173914	-0.001023	0.277386
4.828615	-2.496225	20.178919	-0.001059	0.277392
4.820039	-2.497729	20.183923	-0.001057	0.277379
4.360705	-2.483617	20.188928	-0.000945	0.277070
4.352959	-2.477760	20.193933	-0.000943	0.277088
4.258065	-2.477828	20.198938	-0.000920	0.277012
4.195332	-2.526276	20.203943	-0.000904	0.276766
4.055538	-2.505928	20.208947	-0.000870	0.276737
3.777395	-2.519659	20.213952	-0.000802	0.276459
3.871485	-2.539181	20.218957	-0.000825	0.276455
3.519078	-2.550066	20.223962	-0.000739	0.276129
3.689012	-2.595342	20.228967	-0.000780	0.276081
3.566788	-2.635557	20.233971	-0.000750	0.275820
3.451099	-2.667881	20.238976	-0.000722	0.275596
2.813929	-2.565004	20.243981	-0.000566	0.275505
2.699939	-2.605620	20.248986	-0.000539	0.275248
2.327324	-2.544776	20.253991	-0.000448	0.275197
1.960669	-2.500692	20.258995	-0.000358	0.275083
