Sun Feb 26 14:50:07 2017

Number of Points = 3617
Depth (nm)	Load (µN)	Time (s)	Depth (V)	Load (V)
-0.050544	0.060688	0.000000	0.000074	0.278655

0.081887	0.036388	0.005005	0.000042	0.278661
0.131805	0.024019	0.010010	0.000030	0.278650
0.152377	0.022660	0.015014	0.000025	0.278660
0.294743	-0.006498	0.020019	-0.000009	0.278655
0.359274	-0.081024	0.025024	-0.000025	0.278405
0.480476	-0.118407	0.030029	-0.000054	0.278349
0.349207	-0.095953	0.035034	-0.000022	0.278335
0.486029	-0.188127	0.040038	-0.000055	0.278071
0.483509	-0.200187	0.045043	-0.000054	0.278019
0.357135	-0.237916	0.050048	-0.000023	0.277766
0.344910	-0.245839	0.055053	-0.000020	0.277723
0.241607	-0.302305	0.060058	0.000006	0.277412
0.147836	-0.292060	0.065062	0.000029	0.277378
0.090425	-0.354805	0.070067	0.000043	0.277078
0.056715	-0.368994	0.075072	0.000052	0.276993
-0.019520	-0.409806	0.080077	0.000070	0.276766
-0.032541	-0.451975	0.085082	0.000074	0.276584
-0.083199	-0.473760	0.090086	0.000087	0.276454
-0.095941	-0.550078	0.095091	0.000090	0.276133
-0.058395	-0.605038	0.100096	0.000081	0.275939
0.042911	-0.677729	0.105101	0.000057	0.275723
0.002850	-0.738229	0.110106	0.000067	0.275444
0.017343	-0.804392	0.115110	0.000063	0.275185
-0.074769	-0.861883	0.120115	0.000086	0.274876
0.021121	-0.954928	0.125120	0.000063	0.274572
0.043278	-1.034455	0.130125	0.000058	0.274264
0.068293	-1.107458	0.135130	0.000052	0.273984
-0.029211	-1.174984	0.140134	0.000076	0.273628
-0.130497	-1.238352	0.145139	0.000101	0.273286
-0.177647	-1.317485	0.150144	0.000113	0.272922
-0.155676	-1.404573	0.155149	0.000108	0.272580
-0.196882	-1.490934	0.160154	0.000118	0.272190
-0.350311	-1.551646	0.165158	0.000156	0.271814
-0.444594	-1.626197	0.170163	0.000179	0.271429
-0.286647	-1.753661	0.175168	0.000141	0.271029
-0.413523	-1.819990	0.180173	0.000172	0.270650
-0.548762	-1.892859	0.185178	0.000206	0.270237
-0.595717	-1.984310	0.190182	0.000217	0.269818
-0.599979	-2.077033	0.195187	0.000219	0.269427
-0.826758	-2.113384	0.200192	0.000274	0.269089
-1.065860	-2.168867	0.205197	0.000333	0.268661
-1.798251	-2.106529	0.210202	0.000512	0.268319
-1.858044	-2.164910	0.215206	0.000527	0.268024
-2.138987	-2.176941	0.220211	0.000596	0.267742
-2.462744	-2.182031	0.225216	0.000675	0.267453
-2.672279	-2.204567	0.230221	0.000727	0.267185
-2.949553	-2.200530	0.235226	0.000795	0.266972
-3.288103	-2.166439	0.240230	0.000878	0.266835
-3.927953	-2.106075	0.245235	0.001034	0.266559
-4.425202	-2.015645	0.250240	0.001156	0.266527
-4.609264	-1.977475	0.255245	0.001201	0.266535
-4.595476	-1.982225	0.260250	0.001198	0.266525
-4.500697	-2.016334	0.265254	0.001175	0.266459
-5.022667	-1.975850	0.270259	0.001303	0.266197
-4.794838	-2.021948	0.275264	0.001247	0.266191
-4.850098	-2.008148	0.280269	0.001261	0.266202
-4.596130	-2.064420	0.285274	0.001199	0.266175
-4.646687	-2.121747	0.290278	0.001212	0.265890
-4.831875	-2.085989	0.295283	0.001257	0.265886
-4.671675	-2.168609	0.300288	0.001219	0.265670
-5.161029	-2.095293	0.305293	0.001338	0.265572
-5.712027	-1.989271	0.310298	0.001473	0.265562
-6.149496	-1.901570	0.315302	0.001580	0.265568
-6.424690	-1.847966	0.320307	0.001648	0.265566
-6.418852	-1.849600	0.325312	0.001646	0.265563
-6.569686	-1.817730	0.330317	0.001684	0.265571
-6.476238	-1.838949	0.335322	0.001661	0.265559
-6.077513	-1.914243	0.340326	0.001564	0.265571
-5.964949	-1.964457	0.345331	0.001537	0.265451
-5.868903	-2.028723	0.350336	0.001513	0.265258
-5.558865	-2.100953	0.355341	0.001438	0.265210
-5.670474	-2.144224	0.360346	0.001465	0.264933
-5.229836	-2.272506	0.365350	0.001358	0.264755
-5.566952	-2.253462	0.370355	0.001441	0.264554
-5.608512	-2.301173	0.375360	0.001451	0.264316
-5.624533	-2.353770	0.380365	0.001455	0.264079
-5.949731	-2.344586	0.385370	0.001535	0.263845
-6.456020	-2.270078	0.390374	0.001659	0.263738
-6.939242	-2.245375	0.395379	0.001777	0.263438
-7.648554	-2.111053	0.400384	0.001951	0.263415
-8.339533	-1.971741	0.405389	0.002120	0.263430
-8.882076	-1.862847	0.410394	0.002252	0.263438
-9.074197	-1.755749	0.415398	0.002299	0.263733
-9.673548	-1.627203	0.420403	0.002446	0.263778
-9.211421	-1.649878	0.425408	0.002333	0.264067
-9.387515	-1.612683	0.430413	0.002377	0.264077
-8.935465	-1.670637	0.435418	0.002266	0.264208
-7.858808	-1.886021	0.440422	0.002004	0.264191
-7.835746	-1.918121	0.445427	0.001998	0.264073
-7.349151	-2.045134	0.450432	0.001880	0.263939
-7.187957	-2.124175	0.455437	0.001841	0.263736
-6.843560	-2.264264	0.460442	0.001757	0.263427
-6.496852	-2.403159	0.465446	0.001672	0.263125
-6.947442	-2.391573	0.470451	0.001783	0.262795
-7.249914	-2.410173	0.475456	0.001857	0.262461
-7.906943	-2.344337	0.480461	0.002018	0.262189
-8.696600	-2.198453	0.485466	0.002211	0.262148
-9.068468	-2.194883	0.490470	0.002302	0.261850
-9.818296	-2.049883	0.495475	0.002485	0.261839
-10.553575	-1.899442	0.500480	0.002665	0.261863
-10.463343	-1.847169	0.505485	0.002643	0.262162
-10.915132	-1.761206	0.510490	0.002754	0.262149
-11.352517	-1.657680	0.515494	0.002861	0.262224
-11.183131	-1.633938	0.520499	0.002819	0.262467
-10.715317	-1.727141	0.525504	0.002705	0.262461
-10.051478	-1.854638	0.530509	0.002544	0.262473
-9.991136	-1.869224	0.535514	0.002529	0.262460
-9.703554	-1.928063	0.540518	0.002459	0.262450
-9.482451	-2.038227	0.545523	0.002405	0.262163
-9.099295	-2.144276	0.550528	0.002312	0.262031
-9.298506	-2.148319	0.555533	0.002361	0.261845
-9.025617	-2.273550	0.560538	0.002295	0.261537
-8.952910	-2.351938	0.565542	0.002277	0.261261
-9.759671	-2.260465	0.570547	0.002474	0.260972
-10.174854	-2.200059	0.575552	0.002576	0.260880
-10.614205	-2.183596	0.580557	0.002684	0.260578
-11.215463	-2.067195	0.585562	0.002831	0.260569
-11.779262	-1.954706	0.590566	0.002969	0.260576
-12.249909	-1.860879	0.595571	0.003084	0.260581
-12.393266	-1.835172	0.600576	0.003119	0.260569
-12.328928	-1.787502	0.605581	0.003103	0.260828
-12.236791	-1.791039	0.610586	0.003081	0.260890
-12.119961	-1.812155	0.615590	0.003053	0.260897
-12.269847	-1.782186	0.620595	0.003090	0.260899
-11.989134	-1.838900	0.625600	0.003021	0.260891
-11.719385	-1.944080	0.630605	0.002956	0.260666
-11.884796	-1.933044	0.635610	0.002996	0.260572
-11.228457	-2.076759	0.640614	0.002836	0.260508
-11.233811	-2.129533	0.645619	0.002838	0.260275
-11.071126	-2.215889	0.650624	0.002799	0.260040
-11.184329	-2.238129	0.655629	0.002826	0.259847
-11.586537	-2.208073	0.660634	0.002925	0.259634
-11.326849	-2.325122	0.665638	0.002862	0.259348
-11.582967	-2.304993	0.670643	0.002925	0.259216
-12.278812	-2.196406	0.675648	0.003095	0.259093
-12.798528	-2.161310	0.680653	0.003222	0.258802
-13.898942	-1.955333	0.685658	0.003491	0.258756
-14.468416	-1.807620	0.690662	0.003630	0.258910
-14.706037	-1.716707	0.695667	0.003688	0.259101
-15.258092	-1.592705	0.700672	0.003823	0.259168
-15.210110	-1.563179	0.705677	0.003812	0.259335
-15.220618	-1.529490	0.710682	0.003815	0.259472
-14.126430	-1.704211	0.715686	0.003548	0.259645
-14.036430	-1.720495	0.720691	0.003526	0.259651
-13.704300	-1.828278	0.725696	0.003445	0.259466
-13.508312	-1.895289	0.730701	0.003398	0.259342
-12.691315	-2.075567	0.735706	0.003198	0.259256
-12.181931	-2.235866	0.740710	0.003074	0.258994
-12.516925	-2.243496	0.745715	0.003156	0.258675
-12.461181	-2.334794	0.750720	0.003143	0.258325
-12.493438	-2.397835	0.755725	0.003151	0.258022
-13.420112	-2.281076	0.760730	0.003378	0.257737
-14.253139	-2.171696	0.765734	0.003581	0.257499
-14.537912	-2.114657	0.770739	0.003651	0.257503
-15.063016	-2.057041	0.775744	0.003780	0.257303
-16.044264	-1.845966	0.780749	0.004019	0.257381
-16.113974	-1.806653	0.785754	0.004037	0.257492
-16.124005	-1.804100	0.790758	0.004039	0.257494
-16.497285	-1.729475	0.795763	0.004131	0.257499
-16.568933	-1.684524	0.800768	0.004148	0.257632
-15.792193	-1.791202	0.805773	0.003959	0.257832
-15.998072	-1.753300	0.810778	0.004009	0.257820
-15.686954	-1.854563	0.815782	0.003934	0.257645
-15.919143	-1.841451	0.820787	0.003991	0.257502
-15.410948	-1.944288	0.825792	0.003867	0.257488
-15.056351	-2.033422	0.830797	0.003781	0.257403
-15.439346	-2.007892	0.835802	0.003874	0.257185
-15.153582	-2.099692	0.840806	0.003805	0.257028
-15.180024	-2.130111	0.845811	0.003812	0.256872
-15.271389	-2.182593	0.850816	0.003834	0.256563
-15.625014	-2.146437	0.855821	0.003921	0.256416
-16.690477	-1.977982	0.860826	0.004181	0.256236
-16.602540	-1.993843	0.865830	0.004160	0.256241
-17.010719	-1.911745	0.870835	0.004260	0.256248
-17.384579	-1.841033	0.875840	0.004351	0.256235
-17.075845	-1.915516	0.880845	0.004276	0.256174
-17.381052	-1.911046	0.885850	0.004351	0.255930
-17.121137	-1.961646	0.890854	0.004288	0.255931
-17.087745	-1.966516	0.895859	0.004280	0.255938
-16.850926	-2.034954	0.900864	0.004222	0.255841
-17.290529	-1.999679	0.905869	0.004330	0.255615
-17.630994	-1.935034	0.910874	0.004413	0.255605
-17.336214	-1.992179	0.915878	0.004342	0.255607
-17.396331	-2.041241	0.920883	0.004356	0.255339
-17.719464	-1.986140	0.925888	0.004436	0.255301
-17.839362	-1.959263	0.930893	0.004465	0.255315
-17.822775	-2.023015	0.935898	0.004461	0.255048
-17.804233	-2.042118	0.940902	0.004457	0.254979
-18.380133	-1.927239	0.945907	0.004598	0.254985
-18.753819	-1.856291	0.950912	0.004689	0.254973
-18.492993	-1.920810	0.955917	0.004626	0.254914
-18.693992	-1.935835	0.960922	0.004675	0.254673
-18.813954	-1.912024	0.965926	0.004705	0.254673
-19.111416	-1.851738	0.970931	0.004778	0.254680
-19.062495	-1.863770	0.975936	0.004766	0.254669
-18.637925	-1.944328	0.980941	0.004663	0.254681
-19.334516	-1.879186	0.985946	0.004833	0.254363
-19.178004	-1.910798	0.990950	0.004795	0.254359
-19.209690	-1.902264	0.995955	0.004803	0.254368
-18.889128	-1.979769	1.000960	0.004725	0.254303

-18.467988	-2.126834	1.010957	0.004623	0.254018
-19.114421	-2.051800	1.020954	0.004781	0.253786
-19.193438	-2.082703	1.030950	0.004801	0.253578
-19.851216	-1.932784	1.040947	0.004962	0.253668
-19.873754	-1.901573	1.050944	0.004968	0.253785
-20.243710	-1.802504	1.060941	0.005059	0.253900
-20.033062	-1.792808	1.070938	0.005008	0.254124
-19.864327	-1.785454	1.080934	0.004967	0.254301
-19.297632	-1.882104	1.090931	0.004829	0.254365
-18.417404	-2.076461	1.100928	0.004614	0.254269
-18.719593	-2.050167	1.110925	0.004689	0.254121
-18.798924	-2.065931	1.120922	0.004709	0.253981
-19.070109	-1.993040	1.130918	0.004775	0.254066
-19.174873	-2.006332	1.140915	0.004801	0.253914
-19.237219	-1.946295	1.150912	0.004817	0.254124
-19.386793	-1.917797	1.160909	0.004854	0.254118
-19.110062	-1.970460	1.170906	0.004787	0.254124
-19.529668	-1.837737	1.180902	0.004890	0.254344
-19.755446	-1.757354	1.190899	0.004945	0.254502
-19.615385	-1.720089	1.200896	0.004911	0.254786
-18.859359	-1.825339	1.210893	0.004727	0.254975
-18.076556	-1.982968	1.220890	0.004537	0.254957
-17.561754	-2.147960	1.230886	0.004411	0.254674
-17.521586	-2.220720	1.240883	0.004402	0.254387
-18.045684	-2.154696	1.250880	0.004531	0.254222
-18.951311	-1.979857	1.260877	0.004752	0.254206
-20.011788	-1.705984	1.270874	0.005012	0.254493
-19.915046	-1.629729	1.280870	0.004988	0.254911
-19.241818	-1.671628	1.290867	0.004824	0.255308
-18.167338	-1.882594	1.300864	0.004562	0.255307
-17.728505	-1.969048	1.310861	0.004456	0.255305
-17.363947	-2.060739	1.320858	0.004367	0.255215
-17.419161	-2.103216	1.330854	0.004381	0.254979
-17.649580	-2.057898	1.340851	0.004438	0.254977
-17.978709	-2.010938	1.350848	0.004519	0.254897
-18.200819	-1.951100	1.360845	0.004573	0.254967
-18.504370	-1.888490	1.370842	0.004648	0.254978
-18.309294	-1.877152	1.380838	0.004601	0.255195
-18.185905	-1.874829	1.390835	0.004571	0.255311
-18.314841	-1.837712	1.400832	0.004603	0.255361
-18.329068	-1.778963	1.410829	0.004607	0.255605
-17.786091	-1.884601	1.420826	0.004475	0.255608
-17.650001	-1.910281	1.430822	0.004442	0.255611
-17.078977	-2.022655	1.440819	0.004303	0.255609
-16.819623	-2.074387	1.450816	0.004240	0.255604
-16.924533	-2.120731	1.460813	0.004266	0.255308
-17.433643	-2.020942	1.470810	0.004391	0.255305
-17.671181	-1.974159	1.480806	0.004450	0.255304
-17.748070	-1.907117	1.490803	0.004469	0.255531
-17.854642	-1.868304	1.500800	0.004495	0.255607
-18.080820	-1.764639	1.510797	0.004551	0.255866
-17.797234	-1.763580	1.520794	0.004482	0.256113
-17.427241	-1.806376	1.530790	0.004392	0.256243
-16.868838	-1.915880	1.540787	0.004256	0.256242
-16.621087	-1.964401	1.550784	0.004196	0.256242
-16.243595	-2.087307	1.560781	0.004105	0.256026
-16.375125	-2.083277	1.570778	0.004137	0.255929
-16.539981	-2.098978	1.580774	0.004178	0.255716
-16.933263	-2.022184	1.590771	0.004275	0.255712
-16.931976	-1.973869	1.600768	0.004275	0.255924
-17.562914	-1.849747	1.610765	0.004429	0.255923
-17.887349	-1.709799	1.620762	0.004509	0.256255
-17.364003	-1.740633	1.630758	0.004381	0.256569
-16.878955	-1.791182	1.640755	0.004263	0.256763
-16.432894	-1.853815	1.650752	0.004155	0.256871
-16.115399	-1.933932	1.660749	0.004078	0.256792
-16.104525	-1.985963	1.670746	0.004076	0.256572
-15.813126	-2.042688	1.680742	0.004005	0.256573
-16.014423	-2.016330	1.690739	0.004055	0.256513
-16.066122	-2.044642	1.700736	0.004068	0.256343
-16.308395	-2.002323	1.710733	0.004127	0.256318
-16.341362	-1.943951	1.720730	0.004136	0.256544
-16.299978	-1.945725	1.730726	0.004126	0.256570
-16.557267	-1.894474	1.740723	0.004190	0.256572
-16.590230	-1.834023	1.750720	0.004198	0.256806
-16.555725	-1.826418	1.760717	0.004190	0.256867
-16.357382	-1.800687	1.770714	0.004142	0.257148
-16.106074	-1.840460	1.780710	0.004081	0.257189
-15.557078	-1.948443	1.790707	0.003948	0.257187
-15.512870	-1.957336	1.800704	0.003937	0.257184
-15.085879	-2.065226	1.810701	0.003833	0.257078
-15.365598	-2.057004	1.820698	0.003902	0.256872
-15.383566	-2.054062	1.830694	0.003907	0.256868
-15.611574	-2.007579	1.840691	0.003963	0.256874
-15.827557	-1.965694	1.850688	0.004016	0.256869
-16.045021	-1.877728	1.860685	0.004070	0.257065
-16.267126	-1.799723	1.870682	0.004125	0.257214
-15.999722	-1.786992	1.880678	0.004060	0.257497
-15.769428	-1.793708	1.890675	0.004004	0.257663
-15.095922	-1.889213	1.900672	0.003840	0.257823
-14.621222	-2.038109	1.910669	0.003725	0.257579
-14.337644	-2.118916	1.920666	0.003656	0.257468
-14.744622	-2.102176	1.930662	0.003756	0.257190
-15.221600	-2.008052	1.940659	0.003873	0.257190
-15.638522	-1.882774	1.950656	0.003975	0.257377
-15.950732	-1.770587	1.960653	0.004052	0.257597
-15.650319	-1.776642	1.970650	0.003979	0.257827
-14.941124	-1.849344	1.980646	0.003806	0.258115
-14.551294	-1.930139	1.990643	0.003711	0.258096
-13.993534	-2.103155	2.000640	0.003575	0.257818
-14.007172	-2.133506	2.010637	0.003579	0.257673
-14.424028	-2.092636	2.020634	0.003682	0.257492
-14.996650	-1.978848	2.030630	0.003822	0.257496
-15.076408	-1.895562	2.040627	0.003842	0.257789
-15.600319	-1.755129	2.050624	0.003970	0.257950
-15.423309	-1.725384	2.060621	0.003927	0.258229
-14.874901	-1.782948	2.070618	0.003794	0.258446
-14.430857	-1.869628	2.080614	0.003686	0.258447
-13.644916	-2.023542	2.090611	0.003494	0.258448
-13.313851	-2.129754	2.100608	0.003414	0.258268
-13.264203	-2.191091	2.110605	0.003402	0.258042
-13.976108	-2.100831	2.120602	0.003577	0.257824
-14.404766	-2.016208	2.130598	0.003682	0.257824
-14.996160	-1.838498	2.140595	0.003827	0.258089
-15.104181	-1.751210	2.150592	0.003854	0.258375
-14.802857	-1.737055	2.160589	0.003780	0.258692
-14.126502	-1.854557	2.170586	0.003616	0.258758
-13.566740	-1.962807	2.180582	0.003479	0.258764
-13.311215	-2.012542	2.190579	0.003417	0.258764
-13.411472	-2.005615	2.200576	0.003442	0.258707
-13.582503	-2.031731	2.210573	0.003485	0.258446
-13.992480	-1.928698	2.220570	0.003585	0.258542
-13.449915	-1.983698	2.230566	0.003453	0.258765
-13.629173	-1.948651	2.240563	0.003497	0.258762
-13.076205	-2.073650	2.250560	0.003363	0.258690
-13.361402	-2.073592	2.260557	0.003433	0.258445
-13.695582	-1.992822	2.270554	0.003515	0.258509
-13.871100	-1.899421	2.280550	0.003558	0.258763
-14.252378	-1.784435	2.290547	0.003652	0.258935
-14.115617	-1.753693	2.300544	0.003619	0.259183
-13.895646	-1.763690	2.310541	0.003566	0.259325
-13.207092	-1.870382	2.320538	0.003398	0.259448
-12.470738	-2.041808	2.330534	0.003219	0.259331
-12.094185	-2.135315	2.340531	0.003127	0.259245
-12.090249	-2.175284	2.350528	0.003127	0.259073
-12.928193	-2.082766	2.360525	0.003332	0.258759
-12.971359	-2.032483	2.370522	0.003343	0.258938
-13.264702	-1.937071	2.380518	0.003415	0.259100
-13.574370	-1.867653	2.390515	0.003491	0.259136
-13.608906	-1.816295	2.400512	0.003500	0.259327
-13.222503	-1.830750	2.410509	0.003406	0.259592
-12.937621	-1.874142	2.420506	0.003337	0.259645
-12.752317	-1.910611	2.430502	0.003292	0.259643
-12.501277	-1.959657	2.440499	0.003231	0.259642
-12.606819	-1.938836	2.450496	0.003257	0.259641
-12.646679	-1.869767	2.460493	0.003268	0.259904
-12.458106	-1.896087	2.470490	0.003222	0.259949
-12.032682	-1.979088	2.480486	0.003119	0.259950
-12.070687	-2.035964	2.490483	0.003128	0.259670
-11.757195	-2.103868	2.500480	0.003052	0.259641
-11.755569	-2.103461	2.510477	0.003052	0.259643
-12.059059	-2.062048	2.520474	0.003127	0.259563
-12.436926	-1.968351	2.530470	0.003220	0.259645
-12.655191	-1.924789	2.540467	0.003273	0.259646
-12.929102	-1.806314	2.550464	0.003341	0.259924
-13.039722	-1.719143	2.560461	0.003368	0.260205
-12.749375	-1.706131	2.570458	0.003298	0.260505
-12.143666	-1.807674	2.580454	0.003150	0.260579
-10.994605	-2.033042	2.590451	0.002870	0.260580
-10.650194	-2.153074	2.600448	0.002787	0.260352
-10.920222	-2.166365	2.610445	0.002853	0.260064
-11.243923	-2.129145	2.620442	0.002933	0.259949
-11.728068	-2.033368	2.630438	0.003051	0.259950
-12.410493	-1.875188	2.640435	0.003218	0.260052
-11.999197	-1.903260	2.650432	0.003118	0.260278
-11.963383	-1.871425	2.660429	0.003110	0.260444
-11.626223	-1.906214	2.670426	0.003028	0.260578
-11.675068	-1.896638	2.680422	0.003040	0.260577
-11.580996	-1.915021	2.690419	0.003018	0.260575
-11.529695	-1.851712	2.700416	0.003006	0.260890
-10.978811	-1.959260	2.710413	0.002872	0.260891
-10.740451	-2.047519	2.720410	0.002814	0.260712
-10.928486	-2.041503	2.730406	0.002861	0.260577
-11.005812	-2.026496	2.740403	0.002880	0.260574
-10.790110	-2.068691	2.750400	0.002828	0.260573
-11.314957	-1.965836	2.760397	0.002956	0.260571
-11.338407	-1.898992	2.770394	0.002962	0.260837
-11.515280	-1.850585	2.780390	0.003006	0.260894
-11.398292	-1.810514	2.790387	0.002978	0.261164
-10.746262	-1.929173	2.800384	0.002819	0.261203
-10.149961	-2.045624	2.810381	0.002674	0.261205
-10.112625	-2.108465	2.820378	0.002665	0.260964
-10.395031	-2.068334	2.830374	0.002735	0.260896
-10.664876	-2.015643	2.840371	0.002801	0.260893
-11.269640	-1.863129	2.850368	0.002949	0.261036
-11.736182	-1.701256	2.860365	0.003064	0.261337
-11.156030	-1.738718	2.870362	0.002922	0.261664
-10.003596	-1.927956	2.880358	0.002641	0.261822
-9.289832	-2.132796	2.890355	0.002468	0.261543
-9.244790	-2.207842	2.900352	0.002457	0.261257
-9.331306	-2.243772	2.910349	0.002479	0.261028
-10.475161	-2.048921	2.920346	0.002759	0.260898
-10.565531	-1.979406	2.930342	0.002781	0.261119
-11.207122	-1.810329	2.940339	0.002938	0.261302
-11.032368	-1.769400	2.950336	0.002896	0.261623
-11.159730	-1.663378	2.960333	0.002927	0.261969
-10.069325	-1.832597	2.970330	0.002662	0.262161
-9.178089	-2.007598	2.980326	0.002444	0.262160
-8.783907	-2.153761	2.990323	0.002349	0.261864
-8.893873	-2.185062	3.000320	0.002376	0.261635
-9.334707	-2.120498	3.010317	0.002484	0.261539
-9.988292	-1.991295	3.020314	0.002644	0.261541
-10.932633	-1.769531	3.030310	0.002875	0.261694
-10.357539	-1.798213	3.040307	0.002735	0.262054
-9.802554	-1.882775	3.050304	0.002600	0.262158
-8.968778	-2.046519	3.060301	0.002397	0.262157
-8.534536	-2.155333	3.070298	0.002292	0.262054
-8.684093	-2.175050	3.080294	0.002329	0.261842
-9.344631	-2.045379	3.090291	0.002490	0.261840
-10.517989	-1.798793	3.100288	0.002777	0.261907
-10.492530	-1.718740	3.110285	0.002771	0.262270
-10.405004	-1.646010	3.120282	0.002750	0.262653
-9.553267	-1.771671	3.130278	0.002543	0.262830
-8.598411	-1.933068	3.140275	0.002310	0.262940
-7.064868	-2.304183	3.150272	0.001936	0.262641
-7.121724	-2.416412	3.160269	0.001951	0.262111
-8.005108	-2.328076	3.170266	0.002167	0.261744
-8.586494	-2.260476	3.180262	0.002309	0.261542
-9.819368	-1.990844	3.190259	0.002611	0.261658
-10.750935	-1.706767	3.200256	0.002839	0.262089
-11.121118	-1.483074	3.210253	0.002930	0.262733
-10.113088	-1.550909	3.220250	0.002684	0.263288
-9.347059	-1.620019	3.230246	0.002497	0.263633
-7.993785	-1.861259	3.240243	0.002167	0.263737
-6.538104	-2.238426	3.250240	0.001812	0.263347
-5.993158	-2.485325	3.260237	0.001680	0.262749
-6.624877	-2.499211	3.270234	0.001834	0.262157
-8.332399	-2.236547	3.280230	0.002252	0.261843
-9.549165	-1.943589	3.290227	0.002550	0.262072
-10.663104	-1.602888	3.300224	0.002822	0.262591
-10.006250	-1.579689	3.310221	0.002662	0.263240
-8.481955	-1.837141	3.320218	0.002290	0.263418
-7.381125	-2.052864	3.330214	0.002022	0.263419
-6.558200	-2.266819	3.340211	0.001821	0.263195
-7.413187	-2.180786	3.350208	0.002031	0.262843
-8.510779	-1.962205	3.360205	0.002299	0.262854
-9.215607	-1.751476	3.370202	0.002472	0.263161
-9.172511	-1.674109	3.380198	0.002461	0.263525
-8.871739	-1.637561	3.390195	0.002388	0.263931
-7.226968	-1.927842	3.400192	0.001987	0.264069
-6.084162	-2.223893	3.410189	0.001709	0.263764
-5.199752	-2.533461	3.420186	0.001493	0.263184
-5.677065	-2.576540	3.430182	0.001610	0.262598
-7.267551	-2.358224	3.440179	0.001999	0.262193
-9.197576	-1.920025	3.450176	0.002471	0.262443
-10.604706	-1.486204	3.460173	0.002815	0.263113
-10.771535	-1.234028	3.470170	0.002856	0.264046
-9.279733	-1.350774	3.480166	0.002492	0.264794
-7.247298	-1.715358	3.490163	0.001996	0.264940
-5.257764	-2.131532	3.500160	0.001511	0.264832
-4.095490	-2.518807	3.510157	0.001228	0.264156
-4.470482	-2.627329	3.520154	0.001320	0.263379
-5.765223	-2.495929	3.530150	0.001637	0.262852
-7.138572	-2.272884	3.540147	0.001972	0.262650
-8.730375	-1.899959	3.550144	0.002362	0.262905
-9.291976	-1.652621	3.560141	0.002499	0.263488
-9.329210	-1.494825	3.570138	0.002508	0.264127
-8.055621	-1.629800	3.580134	0.002198	0.264615
-6.675008	-1.828446	3.590131	0.001861	0.264921
-5.334530	-2.166408	3.600128	0.001534	0.264604
-5.016069	-2.318672	3.610125	0.001457	0.264221
-5.413575	-2.325722	3.620122	0.001555	0.263858
-6.520211	-2.137080	3.630118	0.001825	0.263733
-7.868887	-1.848117	3.640115	0.002155	0.263834
-7.979882	-1.735086	3.650112	0.002183	0.264220
-7.246097	-1.799312	3.660109	0.002004	0.264558
-6.342612	-1.959214	3.670106	0.001784	0.264631
-5.124055	-2.225512	3.680102	0.001487	0.264516
-5.231111	-2.273785	3.690099	0.001513	0.264220
-5.606280	-2.236616	3.700096	0.001605	0.264063
-6.432692	-2.073501	3.710093	0.001808	0.264064
-7.654261	-1.811642	3.720090	0.002106	0.264155
-8.202871	-1.586643	3.730086	0.002241	0.264651
-7.482499	-1.607420	3.740083	0.002065	0.265162
-5.947159	-1.846573	3.750080	0.001691	0.265425
-4.964676	-2.077657	3.760077	0.001451	0.265262
-3.850132	-2.395380	3.770074	0.001180	0.264843
-4.786744	-2.310522	3.780070	0.001409	0.264420
-5.331716	-2.227689	3.790067	0.001543	0.264316
-6.809195	-1.936838	3.800064	0.001904	0.264316
-7.535145	-1.701296	3.810061	0.002081	0.264709
-7.346237	-1.621592	3.820058	0.002036	0.265202
-6.377602	-1.726276	3.830054	0.001800	0.265563
-4.963038	-2.003919	3.840051	0.001455	0.265563
-3.909434	-2.250279	3.850048	0.001198	0.265395
-3.538893	-2.446545	3.860045	0.001108	0.264871
-4.426165	-2.363456	3.870042	0.001325	0.264482
-5.912388	-2.097961	3.880038	0.001689	0.264368
-6.915242	-1.814307	3.890035	0.001934	0.264733
-7.671863	-1.534001	3.900032	0.002119	0.265289
-7.142259	-1.485059	3.910029	0.001990	0.265935
-5.736155	-1.681964	3.920026	0.001647	0.266268
-3.950861	-2.038853	3.930022	0.001212	0.266241
-3.103271	-2.300188	3.940019	0.001005	0.265840
-2.974589	-2.444949	3.950016	0.000974	0.265333
-3.300384	-2.505961	3.960013	0.001054	0.264802
-4.640656	-2.281945	3.970010	0.001382	0.264633
-5.763105	-2.060497	3.980006	0.001657	0.264635
-6.478814	-1.825365	3.990003	0.001832	0.265034
-6.731217	-1.662998	4.000000	0.001894	0.265510
-6.617166	-1.553634	4.009997	0.001866	0.266065
-5.539346	-1.659275	4.019994	0.001604	0.266511
-4.581632	-1.842855	4.029990	0.001370	0.266529
-3.093674	-2.150700	4.039987	0.001007	0.266462
-2.788410	-2.312832	4.049984	0.000933	0.266030
-2.997212	-2.369823	4.059981	0.000985	0.265614
-3.831608	-2.286649	4.069978	0.001189	0.265271
-4.861585	-2.085788	4.079974	0.001441	0.265263
-4.931034	-2.002597	4.089971	0.001458	0.265556
-5.127669	-1.925227	4.099968	0.001507	0.265718
-5.078882	-1.882772	4.109965	0.001495	0.265936
-5.099678	-1.811979	4.119962	0.001501	0.266216
-4.511321	-1.852577	4.129958	0.001358	0.266530
-4.106888	-1.931725	4.139955	0.001259	0.266530
-3.793354	-1.993567	4.149952	0.001183	0.266528
-3.284659	-2.101752	4.159949	0.001060	0.266491
-3.438228	-2.140753	4.169946	0.001098	0.266198
-3.449432	-2.138477	4.179942	0.001101	0.266197
-3.619379	-2.104437	4.189939	0.001143	0.266198
-3.796629	-2.070277	4.199936	0.001186	0.266194
-3.934263	-2.042401	4.209933	0.001221	0.266196
-4.278087	-1.972129	4.219930	0.001305	0.266205
-4.465314	-1.856990	4.229926	0.001351	0.266534
-4.256807	-1.844480	4.239923	0.001301	0.266758
-3.739176	-1.928910	4.249920	0.001175	0.266829
-3.409085	-1.992956	4.259917	0.001095	0.266831
-2.890656	-2.093738	4.269914	0.000968	0.266834
-2.671107	-2.152115	4.279910	0.000915	0.266768
-2.667037	-2.208887	4.289907	0.000915	0.266531
-3.256117	-2.092927	4.299904	0.001059	0.266530
-3.685567	-2.008299	4.309901	0.001164	0.266529
-4.000573	-1.888024	4.319898	0.001242	0.266774
-3.963150	-1.849365	4.329894	0.001233	0.266966
-3.796632	-1.827163	4.339891	0.001193	0.267195
-3.056655	-1.910454	4.349888	0.001013	0.267454
-2.425655	-2.065521	4.359885	0.000859	0.267322
-2.156342	-2.159647	4.369882	0.000794	0.267147
-2.116083	-2.219188	4.379878	0.000784	0.266929
-2.295182	-2.206779	4.389875	0.000829	0.266831
-3.035287	-2.061370	4.399872	0.001010	0.266830
-3.645132	-1.908917	4.409869	0.001159	0.266965
-3.671451	-1.840171	4.419866	0.001166	0.267231
-3.174558	-1.883157	4.429862	0.001045	0.267459
-2.757696	-1.919919	4.439859	0.000944	0.267647
-2.152063	-2.053306	4.449856	0.000796	0.267585
-2.178837	-2.078536	4.459853	0.000803	0.267455
-2.383286	-2.037479	4.469850	0.000854	0.267458
-2.254592	-2.062337	4.479846	0.000823	0.267458
-2.066113	-2.099526	4.489843	0.000777	0.267456
-2.069595	-2.099151	4.499840	0.000779	0.267453
-2.067089	-2.099595	4.509837	0.000778	0.267451
-2.121624	-2.087615	4.519834	0.000792	0.267455
-2.444580	-2.023042	4.529830	0.000871	0.267458
-2.808664	-1.912673	4.539827	0.000961	0.267619
-2.689194	-1.896026	4.549824	0.000932	0.267786
-2.129790	-1.936969	4.559821	0.000796	0.268074
-2.291820	-1.902076	4.569818	0.000836	0.268085
-2.351254	-1.875967	4.579814	0.000851	0.268144
-1.737752	-1.933174	4.589811	0.000702	0.268407
-1.601976	-1.960970	4.599808	0.000669	0.268401
-1.504746	-2.055384	4.609805	0.000646	0.268084
-1.418371	-2.071185	4.619802	0.000625	0.268088
-1.388601	-2.077024	4.629798	0.000618	0.268086
-1.426145	-2.068912	4.639795	0.000628	0.268087
-1.742792	-2.007692	4.649792	0.000706	0.268082
-2.434361	-1.815654	4.659789	0.000875	0.268315
-2.287113	-1.774970	4.669786	0.000839	0.268605
-2.192632	-1.740367	4.679782	0.000817	0.268825
-1.739232	-1.772283	4.689779	0.000706	0.269062
-1.418261	-1.835821	4.699776	0.000628	0.269059
-1.445992	-1.812883	4.709773	0.000636	0.269130
-1.237552	-1.816275	4.719770	0.000585	0.269285
-1.152382	-1.832214	4.729766	0.000565	0.269287
-1.023601	-1.857706	4.739763	0.000534	0.269285
-1.083254	-1.846411	4.749760	0.000549	0.269281
-0.936335	-1.873992	4.759757	0.000514	0.269285
-1.146437	-1.831597	4.769754	0.000565	0.269288
-1.313144	-1.753519	4.779750	0.000606	0.269475
-1.122547	-1.761025	4.789747	0.000560	0.269599
-1.050627	-1.775997	4.799744	0.000543	0.269594
-0.990438	-1.750603	4.809741	0.000529	0.269747
-1.049026	-1.700590	4.819738	0.000544	0.269906
-0.871333	-1.735102	4.829734	0.000501	0.269906
-0.826901	-1.710610	4.839731	0.000490	0.270042
-0.788955	-1.672590	4.849728	0.000482	0.270230
-0.906313	-1.648140	4.859725	0.000511	0.270234
-0.960510	-1.586166	4.869722	0.000524	0.270445
-0.908386	-1.573937	4.879718	0.000512	0.270537
-0.956824	-1.500034	4.889715	0.000524	0.270803
-0.916790	-1.481652	4.899712	0.000515	0.270910
-0.980519	-1.407866	4.909709	0.000531	0.271162
-0.805837	-1.378130	4.919706	0.000489	0.271425
-0.781252	-1.350944	4.929702	0.000483	0.271556
-0.665632	-1.314218	4.939699	0.000455	0.271800
-0.664902	-1.278851	4.949696	0.000456	0.271945
-0.721336	-1.224148	4.959693	0.000470	0.272124
-0.661795	-1.163080	4.969690	0.000456	0.272422
-0.643171	-1.114455	4.979686	0.000452	0.272636
-0.569591	-1.081981	4.989683	0.000434	0.272828
-0.685710	-1.001611	4.999680	0.000463	0.273063
-0.441043	-0.973682	5.009677	0.000404	0.273373
-0.510649	-0.906588	5.019674	0.000421	0.273591
-0.325196	-0.892961	5.029670	0.000376	0.273795
-0.288483	-0.843416	5.039667	0.000368	0.274026
-0.276792	-0.800506	5.049664	0.000365	0.274210
-0.279007	-0.756263	5.059661	0.000366	0.274387
-0.278425	-0.697786	5.069658	0.000366	0.274625
-0.316456	-0.627037	5.079654	0.000376	0.274882
-0.370704	-0.538220	5.089651	0.000390	0.275200
-0.350118	-0.468977	5.099648	0.000385	0.275497
-0.373567	-0.383876	5.109645	0.000391	0.275823
-0.347928	-0.302637	5.119642	0.000385	0.276173
-0.246615	-0.235539	5.129638	0.000361	0.276524
-0.111451	-0.191835	5.139635	0.000329	0.276808
-0.090740	-0.121723	5.149632	0.000324	0.277107
-0.141934	-0.027516	5.159629	0.000337	0.277446
0.000000	0.014332	5.169626	0.000303	0.277727

-0.025497	0.055763	5.174630	0.000309	0.277873
0.024193	0.083167	5.179635	0.000297	0.278022
0.096403	0.148761	5.184640	0.000280	0.278343
0.027261	0.209234	5.189645	0.000297	0.278532
0.043136	0.274959	5.194650	0.000293	0.278808
0.137658	0.319952	5.199654	0.000270	0.279063
0.090502	0.390098	5.204659	0.000282	0.279307
0.067871	0.478578	5.209664	0.000288	0.279644
0.138057	0.550149	5.214669	0.000271	0.279986
0.201718	0.629320	5.219674	0.000255	0.280352
0.077744	0.746562	5.224678	0.000286	0.280723
0.179616	0.842544	5.229683	0.000261	0.281186
0.341542	0.913659	5.234688	0.000222	0.281596
0.359078	1.017137	5.239693	0.000217	0.282021
0.370065	1.137561	5.244698	0.000215	0.282507
0.344766	1.257702	5.249702	0.000221	0.282964
0.283429	1.399681	5.254707	0.000236	0.283478
0.311624	1.536202	5.259712	0.000230	0.284039
0.274293	1.668845	5.264717	0.000239	0.284533
0.456535	1.782357	5.269722	0.000194	0.285121
0.267169	1.968444	5.274726	0.000241	0.285706
0.334313	2.119360	5.279731	0.000225	0.286349
0.311886	2.289775	5.284736	0.000230	0.286998
0.252911	2.475219	5.289741	0.000245	0.287677
0.395657	2.629167	5.294746	0.000210	0.288385
0.313303	2.824592	5.299750	0.000230	0.289081
0.384091	2.989911	5.304755	0.000213	0.289775
0.465830	3.169210	5.309760	0.000193	0.290530
0.431989	3.379504	5.314765	0.000201	0.291315
0.438061	3.587173	5.319770	0.000200	0.292118
0.501343	3.788196	5.324774	0.000185	0.292937
0.551686	4.001203	5.329779	0.000172	0.293789
0.600016	4.201695	5.334784	0.000161	0.294589
0.522212	4.444514	5.339789	0.000180	0.295454
0.507454	4.692015	5.344794	0.000183	0.296381
0.660426	4.906769	5.349798	0.000146	0.297306
0.694588	5.149610	5.354803	0.000138	0.298246
0.849248	5.365640	5.359808	0.000100	0.299171
0.990817	5.580241	5.364813	0.000066	0.300078
1.027270	5.836669	5.369818	0.000057	0.301062
1.109968	6.081692	5.374822	0.000037	0.302034
1.158050	6.341947	5.379827	0.000025	0.303033
1.217529	6.599900	5.384832	0.000010	0.304030
1.085985	6.899494	5.389837	0.000043	0.305038
1.107339	7.189589	5.394842	0.000037	0.306118
1.028803	7.502406	5.399846	0.000057	0.307206
1.181797	7.781670	5.404851	0.000019	0.308333
1.088204	8.095531	5.409856	0.000042	0.309407
1.000572	8.428730	5.414861	0.000064	0.310550
1.118687	8.740498	5.419866	0.000035	0.311758
1.135189	9.073974	5.424870	0.000031	0.312967
1.208653	9.391403	5.429875	0.000013	0.314154
1.267287	9.724522	5.434880	-0.000002	0.315382
1.442721	10.039351	5.439885	-0.000044	0.316622
1.580763	10.371370	5.444890	-0.000078	0.317892
1.602565	10.711814	5.449894	-0.000084	0.319106
1.567284	11.077162	5.454899	-0.000075	0.320363
1.692363	11.433398	5.459904	-0.000106	0.321694
1.793031	11.789126	5.464909	-0.000130	0.323001
1.892776	12.144722	5.469914	-0.000155	0.324301
1.820060	12.540094	5.474918	-0.000137	0.325617
1.833031	12.942861	5.479923	-0.000140	0.327010
1.806951	13.352958	5.484928	-0.000134	0.328397
1.808161	13.748662	5.489933	-0.000134	0.329746
1.854888	14.167982	5.494938	-0.000146	0.331201
1.948027	14.583764	5.499942	-0.000168	0.332668
1.871547	15.027502	5.504947	-0.000150	0.334111
1.990487	15.450575	5.509952	-0.000179	0.335606
1.964241	15.907805	5.514957	-0.000173	0.337114
2.175113	16.327790	5.519962	-0.000224	0.338646
2.095802	16.795944	5.524966	-0.000205	0.340142
2.270141	17.240562	5.529971	-0.000248	0.341718
2.394437	17.698354	5.534976	-0.000278	0.343297
2.427344	18.160129	5.539981	-0.000286	0.344824
2.516639	18.640740	5.544986	-0.000308	0.346441
2.445974	19.154284	5.549990	-0.000291	0.348055
2.493012	19.634268	5.554995	-0.000303	0.349629
2.499786	20.157504	5.560000	-0.000304	0.351308
2.657026	20.653584	5.565005	-0.000343	0.352986
2.777214	21.140501	5.570010	-0.000372	0.354605
2.609672	21.714809	5.575014	-0.000332	0.356314
2.768388	22.232986	5.580019	-0.000370	0.358040
2.814623	22.766552	5.585024	-0.000382	0.359736
2.822166	23.325226	5.590029	-0.000384	0.361479
3.043597	23.858269	5.595034	-0.000438	0.363263
3.128769	24.401711	5.600038	-0.000459	0.364989
3.218108	24.966925	5.605043	-0.000481	0.366776
3.411357	25.510502	5.610048	-0.000528	0.368550
3.308247	26.106946	5.615053	-0.000503	0.370301
3.364899	26.707774	5.620058	-0.000518	0.372150
3.488096	27.282729	5.625062	-0.000548	0.373952
3.357136	27.925220	5.630067	-0.000516	0.375798
3.439367	28.551592	5.635072	-0.000536	0.377711
3.315004	29.199896	5.640077	-0.000506	0.379560
3.364517	29.856301	5.645082	-0.000518	0.381524
3.316033	30.534067	5.650086	-0.000507	0.383484
3.322482	31.210023	5.655091	-0.000509	0.385461
3.370242	31.901376	5.660096	-0.000521	0.387495
3.451738	32.561072	5.665101	-0.000541	0.389446
3.567655	33.254759	5.670106	-0.000569	0.391505
3.530837	33.974276	5.675110	-0.000561	0.393541
3.623904	34.676849	5.680115	-0.000584	0.395591
3.738520	35.399078	5.685120	-0.000612	0.397697
3.717094	36.128756	5.690125	-0.000607	0.399739
3.774898	36.889159	5.695130	-0.000621	0.401899
3.913392	37.617886	5.700134	-0.000656	0.404003
3.788413	38.422276	5.705139	-0.000625	0.406164
4.110663	39.142443	5.710144	-0.000704	0.408322
4.024514	39.936630	5.715149	-0.000684	0.410452
4.102465	40.736176	5.720154	-0.000703	0.412673
4.034491	41.553131	5.725158	-0.000687	0.414853
4.132078	42.371264	5.730163	-0.000711	0.417111
4.258192	43.173563	5.735168	-0.000742	0.419330
4.299630	44.019045	5.740173	-0.000753	0.421607
4.428968	44.845575	5.745178	-0.000785	0.423868
4.552152	45.686653	5.750182	-0.000815	0.426152
4.638565	46.536445	5.755187	-0.000836	0.428428
4.664765	47.411842	5.760192	-0.000843	0.430728
4.633406	48.308177	5.765197	-0.000836	0.433041
4.770032	49.184408	5.770202	-0.000870	0.435374
4.711356	50.118934	5.775206	-0.000856	0.437746
4.762724	51.026230	5.780211	-0.000869	0.440091
4.694407	51.995977	5.785216	-0.000853	0.442523
4.597562	52.971552	5.790221	-0.000829	0.444942
4.722324	53.936456	5.795226	-0.000860	0.447430
4.736822	54.908231	5.800230	-0.000864	0.449867
4.723672	55.921659	5.805235	-0.000862	0.452382
4.864118	56.908317	5.810240	-0.000896	0.454890
4.724835	57.968857	5.815245	-0.000863	0.457432
4.765707	59.007985	5.820250	-0.000873	0.459993
4.906556	60.046702	5.825254	-0.000908	0.462587
5.000053	61.094491	5.830259	-0.000932	0.465165
5.280359	62.121596	5.835264	-0.001001	0.467767
5.496619	63.142517	5.840269	-0.001054	0.470310
5.645020	64.201869	5.845274	-0.001091	0.472899
5.760081	65.267275	5.850278	-0.001119	0.475473
5.814756	66.353861	5.855283	-0.001133	0.478056
6.024928	67.430946	5.860288	-0.001185	0.480672
6.263239	68.496978	5.865293	-0.001244	0.483262
6.397265	69.593364	5.870298	-0.001277	0.485861
6.298533	70.736723	5.875302	-0.001254	0.488450
6.572291	71.830650	5.880307	-0.001321	0.491078
6.532879	72.991327	5.885312	-0.001312	0.493706
6.557976	74.163796	5.890317	-0.001319	0.496374
6.402723	75.376742	5.895322	-0.001281	0.499041
6.509460	76.582000	5.900326	-0.001308	0.501790
6.380563	77.826262	5.905331	-0.001277	0.504509
6.541238	79.055849	5.910336	-0.001317	0.507305
6.562922	80.292999	5.915341	-0.001323	0.510043
6.594060	81.563210	5.920346	-0.001331	0.512843
6.669850	82.839134	5.925350	-0.001351	0.515659
6.845302	84.088697	5.930355	-0.001394	0.518445
7.049417	85.367888	5.935360	-0.001445	0.521291
7.114203	86.653775	5.940365	-0.001461	0.524079
7.150573	87.987061	5.945370	-0.001471	0.526940
7.338819	89.275455	5.950374	-0.001517	0.529754
7.294893	90.635527	5.955379	-0.001507	0.532609
7.504670	91.972007	5.960384	-0.001559	0.535502
7.639406	93.305469	5.965389	-0.001593	0.538343
7.802750	94.673211	5.970394	-0.001634	0.541252
7.857868	96.046586	5.975398	-0.001648	0.544114
7.876142	97.459182	5.980403	-0.001653	0.547026
7.932802	98.870570	5.985408	-0.001668	0.549936
8.015369	100.287282	5.990413	-0.001689	0.552851
8.144336	101.728131	5.995418	-0.001721	0.555818
8.390745	103.127846	6.000422	-0.001782	0.558732
8.489849	104.583248	6.005427	-0.001807	0.561686
8.662214	106.037372	6.010432	-0.001850	0.564649
8.525058	107.553052	6.015437	-0.001817	0.567601
8.690823	109.041154	6.020442	-0.001858	0.570598
8.764836	110.550556	6.025446	-0.001877	0.573586
8.732131	112.109092	6.030451	-0.001870	0.576614
8.885844	113.639916	6.035456	-0.001909	0.579643
8.916395	115.214442	6.040461	-0.001917	0.582694
9.027521	116.803836	6.045466	-0.001945	0.585788
9.197818	118.355884	6.050470	-0.001988	0.588816
9.113770	119.996029	6.055475	-0.001968	0.591902
9.253156	121.617777	6.060480	-0.002003	0.595019
9.240562	123.263071	6.065485	-0.002001	0.598109
9.466636	124.902971	6.070490	-0.002057	0.601258
9.476658	126.586067	6.075494	-0.002060	0.604395
9.807652	128.202447	6.080499	-0.002142	0.607506
10.041773	129.862883	6.085504	-0.002200	0.610647
10.161414	131.525308	6.090509	-0.002230	0.613736
10.228804	133.241967	6.095514	-0.002248	0.616890
10.345664	134.952841	6.100518	-0.002277	0.620035
10.297181	136.708827	6.105523	-0.002267	0.623187
10.570843	138.434794	6.110528	-0.002334	0.626381
10.594994	140.188866	6.115533	-0.002341	0.629524
10.565762	141.991582	6.120538	-0.002335	0.632719
10.711210	143.788540	6.125542	-0.002372	0.635946
10.718856	145.609237	6.130547	-0.002375	0.639153
10.767000	147.463333	6.135552	-0.002388	0.642416
10.736823	149.351646	6.140557	-0.002381	0.645695
10.886661	151.200524	6.145562	-0.002419	0.648949
11.131357	153.067844	6.150566	-0.002480	0.652251
11.122871	154.986066	6.155571	-0.002479	0.655539
11.341388	156.874905	6.160576	-0.002533	0.658835
11.391570	158.817096	6.165581	-0.002547	0.662151
11.701160	160.730361	6.170586	-0.002624	0.665485
11.810126	162.660069	6.175590	-0.002651	0.668765
11.954654	164.601658	6.180595	-0.002688	0.672061
12.030920	166.587986	6.185600	-0.002708	0.675393
12.114506	168.558785	6.190605	-0.002729	0.678685
12.320998	170.549404	6.195610	-0.002781	0.682033
12.383897	172.580313	6.200614	-0.002797	0.685385
12.354640	174.611071	6.205619	-0.002791	0.688692
12.529826	176.667365	6.210624	-0.002836	0.692088
12.637253	178.735404	6.215629	-0.002863	0.695466
12.741651	180.810022	6.220634	-0.002890	0.698836
12.838951	182.922661	6.225638	-0.002915	0.702250
13.053687	185.010250	6.230643	-0.002968	0.705642
13.145590	187.128428	6.235648	-0.002992	0.709030
13.173457	189.279479	6.240653	-0.003000	0.712433
13.536440	191.393278	6.245658	-0.003090	0.715863
13.707143	193.534081	6.250662	-0.003133	0.719261
13.877425	195.681407	6.255667	-0.003176	0.722653
14.104280	197.843930	6.260672	-0.003233	0.726069
14.017560	200.064177	6.265677	-0.003213	0.729466
14.219414	202.257449	6.270682	-0.003264	0.732890
14.316289	204.496821	6.275686	-0.003289	0.736338
14.272053	206.775116	6.280691	-0.003279	0.739789
14.354507	209.059805	6.285696	-0.003301	0.743269
14.443098	211.357925	6.290701	-0.003324	0.746755
14.640041	213.661361	6.295706	-0.003373	0.750263
14.984649	215.919188	6.300710	-0.003459	0.753729
15.040702	218.233670	6.305715	-0.003474	0.757182
15.243373	220.566909	6.310720	-0.003525	0.760688
15.474263	222.880252	6.315725	-0.003583	0.764156
15.602357	225.213350	6.320730	-0.003615	0.767609
15.642361	227.603911	6.325734	-0.003627	0.771106
15.714626	229.999309	6.330739	-0.003646	0.774603
15.983359	232.373167	6.335744	-0.003713	0.778107
15.966533	234.815037	6.340749	-0.003710	0.781615
16.197867	237.235364	6.345754	-0.003768	0.785144
16.404195	239.657790	6.350758	-0.003820	0.788653
16.609552	242.077794	6.355763	-0.003872	0.792143
16.832220	244.529319	6.360768	-0.003928	0.795666
16.931298	247.001269	6.365773	-0.003954	0.799170
17.096079	249.475767	6.370778	-0.003995	0.802679
17.286884	251.960160	6.375782	-0.004043	0.806194
17.295422	254.486221	6.380787	-0.004047	0.809704
17.491128	257.015843	6.385792	-0.004096	0.813252
17.520067	259.573272	6.390797	-0.004105	0.816779
17.668790	262.152168	6.395802	-0.004143	0.820352
17.816415	264.748577	6.400806	-0.004181	0.823932
18.017003	267.308907	6.405811	-0.004231	0.827462
18.215440	269.912637	6.410816	-0.004281	0.831035
18.300122	272.527854	6.415821	-0.004304	0.834579
18.387116	275.163410	6.420826	-0.004327	0.838136
18.397654	277.854233	6.425830	-0.004331	0.841732
18.693201	280.491452	6.430835	-0.004405	0.845313
18.983612	283.138104	6.435840	-0.004477	0.848890
18.920334	285.852729	6.440845	-0.004464	0.852454
18.968973	288.595560	6.445850	-0.004477	0.856067
19.185046	291.325503	6.450854	-0.004532	0.859690
19.247940	294.095062	6.455859	-0.004549	0.863311
19.323017	296.868969	6.460864	-0.004569	0.866926
19.466017	299.658261	6.465869	-0.004605	0.870562
19.633554	302.466681	6.470874	-0.004648	0.874214
19.784512	305.277664	6.475878	-0.004687	0.877849
19.819153	308.130484	6.480883	-0.004697	0.881495
20.186729	310.953148	6.485888	-0.004789	0.885167
20.338855	313.798384	6.490893	-0.004828	0.888801
20.469959	316.663889	6.495898	-0.004861	0.892441
20.654369	319.551639	6.500902	-0.004908	0.896106
20.929864	322.417266	6.505907	-0.004977	0.899750
21.039792	325.345980	6.510912	-0.005006	0.903419
21.144225	328.250884	6.515917	-0.005033	0.907043
21.312014	331.184824	6.520922	-0.005076	0.910702
21.336180	334.164489	6.525926	-0.005084	0.914370
21.479899	337.128280	6.530931	-0.005121	0.918031
21.837736	340.080325	6.535936	-0.005210	0.921712
21.935776	343.070166	6.540941	-0.005236	0.925366
22.081957	346.074070	6.545946	-0.005274	0.929032
22.379677	349.054938	6.550950	-0.005348	0.932691
22.525863	352.064025	6.555955	-0.005386	0.936335
22.697749	355.116954	6.560960	-0.005430	0.940023
22.838024	358.162706	6.565965	-0.005466	0.943681
22.976338	361.202717	6.570970	-0.005502	0.947318
23.265835	364.256486	6.575974	-0.005575	0.950990
23.374361	367.333832	6.580979	-0.005603	0.954636
23.376362	370.473907	6.585984	-0.005605	0.958318
23.567529	373.594846	6.590989	-0.005654	0.962005
23.648151	376.739377	6.595994	-0.005676	0.965682
23.982539	379.867337	6.600998	-0.005760	0.969380
23.970642	383.055544	6.606003	-0.005759	0.973059
24.175178	386.225039	6.611008	-0.005811	0.976749
24.300241	389.446397	6.616013	-0.005843	0.980467
24.383059	392.694227	6.621018	-0.005866	0.984193
24.523580	395.948176	6.626022	-0.005902	0.987923
24.905558	399.121205	6.631027	-0.005997	0.991599
25.108468	402.365066	6.636032	-0.006049	0.995303
25.324234	405.596998	6.641037	-0.006104	0.998983
25.522647	408.851854	6.646042	-0.006154	1.002671
25.819757	412.066143	6.651046	-0.006229	1.006321
25.960148	415.330123	6.656051	-0.006265	1.009981
26.216363	418.605959	6.661056	-0.006330	1.013664
26.335545	421.886475	6.666061	-0.006361	1.017311
26.438874	425.201405	6.671066	-0.006389	1.020980
26.600981	428.527595	6.676070	-0.006430	1.024659
26.652101	431.874424	6.681075	-0.006445	1.028326
26.845461	435.236553	6.686080	-0.006494	1.032025
27.086465	438.575136	6.691085	-0.006555	1.035694
27.184613	441.972911	6.696090	-0.006581	1.039386
27.387229	445.384523	6.701094	-0.006633	1.043101
27.510860	448.763229	6.706099	-0.006666	1.046751
27.698474	452.200013	6.711104	-0.006714	1.050463
27.794823	455.649412	6.716109	-0.006739	1.054158
27.952427	459.121212	6.721114	-0.006780	1.057875
28.146564	462.600158	6.726118	-0.006830	1.061594
28.188229	466.106025	6.731123	-0.006842	1.065299
28.317134	469.633414	6.736128	-0.006876	1.069031
28.471665	473.166549	6.741133	-0.006916	1.072760
28.629321	476.697163	6.746138	-0.006957	1.076474
28.841216	480.264572	6.751142	-0.007011	1.080224
29.093378	483.801159	6.756147	-0.007075	1.083937
29.394788	487.346791	6.761152	-0.007151	1.087656
29.608427	490.887464	6.766157	-0.007205	1.091340
29.871322	494.439168	6.771162	-0.007272	1.095032
30.080712	498.025289	6.776166	-0.007325	1.098737
30.252584	501.612258	6.781171	-0.007369	1.102424
30.397135	505.186866	6.786176	-0.007407	1.106080
30.405461	508.832398	6.791181	-0.007411	1.109771
30.356585	512.526743	6.796186	-0.007402	1.113489
30.551441	516.222687	6.801190	-0.007452	1.117240
30.661016	519.924376	6.806195	-0.007481	1.120969
30.683338	523.683585	6.811200	-0.007489	1.124727
30.701789	527.467801	6.816205	-0.007496	1.128497
30.786029	531.283599	6.821210	-0.007519	1.132297
31.034130	535.084547	6.826214	-0.007582	1.136099
31.165526	538.906852	6.831219	-0.007617	1.139889
31.432466	542.737402	6.836224	-0.007684	1.143698
31.825976	546.514565	6.841229	-0.007783	1.147465
32.005839	550.307533	6.846234	-0.007829	1.151197
32.283469	554.118642	6.851238	-0.007900	1.154952
32.560503	557.910879	6.856243	-0.007970	1.158676
32.735078	561.756096	6.861248	-0.008015	1.162421
32.947443	565.551783	6.866253	-0.008069	1.166113
32.909392	569.439343	6.871258	-0.008062	1.169839
33.261546	573.302925	6.876262	-0.008151	1.173596
33.378536	577.186041	6.881267	-0.008182	1.177320
33.538661	581.094113	6.886272	-0.008224	1.181064
33.756525	584.975656	6.891277	-0.008279	1.184780
33.814218	588.913024	6.896282	-0.008296	1.188510
33.831565	592.909968	6.901286	-0.008303	1.192277
33.908674	596.890389	6.906291	-0.008324	1.196028
34.007602	600.935675	6.911296	-0.008351	1.199830
34.185391	604.970307	6.916301	-0.008397	1.203624
34.234186	609.026008	6.921306	-0.008412	1.207404
34.389798	613.126137	6.926310	-0.008452	1.211232
34.471784	617.217415	6.931315	-0.008475	1.215026
34.683761	621.351984	6.936320	-0.008530	1.218870
34.747087	625.528422	6.941325	-0.008548	1.222716
34.834949	629.695084	6.946330	-0.008572	1.226545
35.086208	633.851058	6.951334	-0.008636	1.230379
35.138963	638.050547	6.956339	-0.008652	1.234208
35.175193	642.318557	6.961344	-0.008663	1.238085
35.434835	646.557771	6.966349	-0.008730	1.241960
35.705302	650.754923	6.971354	-0.008798	1.245786
36.129348	654.951429	6.976358	-0.008905	1.249625
36.331360	659.158154	6.981363	-0.008957	1.253425
36.820258	663.340535	6.986368	-0.009079	1.257238
36.976910	667.564734	6.991373	-0.009120	1.261023
37.219149	671.720133	6.996378	-0.009182	1.264750
37.360719	675.961422	7.001382	-0.009219	1.268526
37.506672	680.203886	7.006387	-0.009258	1.272293
37.553008	684.486942	7.011392	-0.009272	1.276069
37.833497	688.747459	7.016397	-0.009343	1.279849
37.816641	693.067434	7.021402	-0.009342	1.283625
37.966345	697.415763	7.026406	-0.009381	1.287440
37.988119	701.789038	7.031411	-0.009390	1.291246
38.097200	706.171956	7.036416	-0.009419	1.295062
38.176723	710.639199	7.041421	-0.009441	1.298936
38.378073	715.034766	7.046426	-0.009494	1.302754
38.733824	719.413460	7.051430	-0.009583	1.306570
38.633915	723.877808	7.056435	-0.009562	1.310380
38.902571	728.334095	7.061440	-0.009630	1.314227
39.160236	732.793193	7.066445	-0.009696	1.318064
39.397418	737.267236	7.071450	-0.009757	1.321898
39.651465	741.720960	7.076454	-0.009822	1.325707
39.670466	746.208611	7.081459	-0.009830	1.329500
39.730213	750.779306	7.086464	-0.009847	1.333357
39.642574	755.394700	7.091469	-0.009829	1.337218
39.719186	760.037770	7.096474	-0.009851	1.341116
40.081582	764.595813	7.101478	-0.009942	1.344973
40.253188	769.211822	7.106483	-0.009987	1.348840
40.444187	773.845188	7.111488	-0.010037	1.352713
40.437251	778.546245	7.116493	-0.010038	1.356602
40.459467	783.272401	7.121498	-0.010047	1.360505
40.614280	787.991411	7.126502	-0.010088	1.364409
40.793770	792.718643	7.131507	-0.010135	1.368313
40.895167	797.516246	7.136512	-0.010163	1.372252
41.115392	802.306755	7.141517	-0.010220	1.376191
41.233236	807.109670	7.146522	-0.010252	1.380114
41.398342	811.940341	7.151526	-0.010295	1.384055
41.465070	816.777565	7.156531	-0.010315	1.387976
41.722567	821.626021	7.161536	-0.010381	1.391922
41.748547	826.524886	7.166541	-0.010390	1.395865
41.901736	831.425451	7.171546	-0.010431	1.399816
42.017378	836.355839	7.176550	-0.010463	1.403775
42.186147	841.281297	7.181555	-0.010507	1.407725
42.524633	846.213564	7.186560	-0.010593	1.411693
42.870256	851.130166	7.191565	-0.010681	1.415639
43.171607	856.015180	7.196570	-0.010758	1.419542
43.358774	860.938418	7.201574	-0.010807	1.423450
43.631285	865.823733	7.206579	-0.010876	1.427328
43.712879	870.789526	7.211584	-0.010900	1.431233
43.924696	875.746070	7.216589	-0.010955	1.435138
44.011939	880.712727	7.221594	-0.010979	1.439023
44.148606	885.729855	7.226598	-0.011016	1.442944
44.120068	890.771605	7.231603	-0.011012	1.446851
44.208341	895.886861	7.236608	-0.011037	1.450820
44.742706	900.895422	7.241613	-0.011171	1.454754
44.775303	905.971271	7.246618	-0.011183	1.458664
44.864683	911.110797	7.251622	-0.011208	1.462619
44.933492	916.227979	7.256627	-0.011228	1.466544
45.192383	921.363111	7.261632	-0.011295	1.470497
45.328546	926.507619	7.266637	-0.011331	1.474430
45.482738	931.672392	7.271642	-0.011372	1.478371
45.691209	936.859426	7.276646	-0.011427	1.482325
45.837051	942.032362	7.281651	-0.011466	1.486249
46.183354	947.225882	7.286656	-0.011554	1.490205
46.480857	952.383026	7.291661	-0.011630	1.494116
46.674615	957.564116	7.296666	-0.011681	1.498022
46.844127	962.776565	7.301670	-0.011726	1.501938
47.022002	967.964219	7.306675	-0.011773	1.505826
47.339100	973.171640	7.311680	-0.011854	1.509736
47.325459	978.417002	7.316685	-0.011854	1.513623
47.323358	983.728650	7.321690	-0.011857	1.517551
47.473898	989.056419	7.326694	-0.011897	1.521499
47.570847	994.379513	7.331699	-0.011924	1.525427
47.646036	999.771816	7.336704	-0.011946	1.529392
48.036359	1005.105786	7.341709	-0.012045	1.533344
48.342907	1010.439771	7.346714	-0.012124	1.537275
48.520408	1015.822512	7.351718	-0.012171	1.541215
48.618903	1021.189957	7.356723	-0.012198	1.545125
48.788248	1026.582350	7.361728	-0.012243	1.549052
48.947398	1031.985064	7.366733	-0.012286	1.552974
49.133026	1037.399976	7.371738	-0.012335	1.556899
49.291357	1042.869977	7.376742	-0.012377	1.560850
49.359355	1048.329520	7.381747	-0.012397	1.564773
49.367113	1053.858486	7.386752	-0.012403	1.568729
49.631863	1059.371956	7.391757	-0.012471	1.572694
49.831363	1064.899370	7.396762	-0.012523	1.576651
50.159014	1070.440095	7.401766	-0.012607	1.580623
50.240063	1075.953445	7.406771	-0.012631	1.584536
50.579843	1081.464974	7.411776	-0.012717	1.588469
50.704501	1087.031682	7.416781	-0.012752	1.592405
50.971060	1092.566635	7.421786	-0.012820	1.596327
51.263134	1098.115878	7.426790	-0.012895	1.600251
51.563085	1103.621577	7.431795	-0.012972	1.604136
51.752538	1109.155426	7.436800	-0.013022	1.608019
51.860539	1114.737275	7.441805	-0.013052	1.611916
52.009553	1120.319238	7.446810	-0.013093	1.615809
52.278419	1125.958765	7.451814	-0.013162	1.619745
52.272169	1131.568139	7.456819	-0.013164	1.623621
52.444492	1137.204334	7.461824	-0.013210	1.627525
52.417138	1142.914321	7.466829	-0.013207	1.631449
52.627762	1148.606715	7.471834	-0.013263	1.635377
52.884724	1154.337600	7.476838	-0.013329	1.639328
52.919805	1160.041273	7.481843	-0.013342	1.643226
53.058651	1165.807491	7.486848	-0.013379	1.647168
53.228423	1171.597327	7.491853	-0.013425	1.651121
53.451167	1177.369276	7.496858	-0.013483	1.655058
53.581301	1183.211995	7.501862	-0.013519	1.659023
53.570650	1189.033460	7.506867	-0.013520	1.662949
53.748503	1194.897148	7.511872	-0.013567	1.666914
53.849184	1200.816281	7.516877	-0.013596	1.670899
54.074689	1206.711727	7.521882	-0.013655	1.674872
54.080574	1212.706136	7.526886	-0.013660	1.678878
54.366870	1218.598633	7.531891	-0.013734	1.682837
54.622546	1224.551510	7.536896	-0.013801	1.686823
54.864628	1230.510013	7.541901	-0.013864	1.690802
55.111252	1236.451783	7.546906	-0.013928	1.694761
55.554453	1242.381520	7.551910	-0.014040	1.698724
55.715154	1248.272522	7.556915	-0.014084	1.702622
55.862479	1254.200210	7.561920	-0.014124	1.706533
56.080274	1260.166557	7.566925	-0.014181	1.710469
56.118261	1266.146169	7.571930	-0.014194	1.714385
56.327697	1272.160474	7.576934	-0.014249	1.718333
56.342333	1278.156968	7.581939	-0.014257	1.722240
56.514593	1284.227121	7.586944	-0.014303	1.726202
56.518765	1290.353288	7.591949	-0.014308	1.730174
56.577012	1296.499928	7.596954	-0.014326	1.734155
56.624278	1302.737561	7.601958	-0.014342	1.738185
56.688901	1308.896906	7.606963	-0.014362	1.742158
56.873526	1315.136501	7.611968	-0.014411	1.746184
56.854029	1321.453670	7.616973	-0.014411	1.750231
57.084996	1327.742195	7.621978	-0.014472	1.754275
57.336683	1334.060511	7.626982	-0.014537	1.758331
57.457629	1340.352837	7.631987	-0.014571	1.762347
57.780061	1346.636490	7.636992	-0.014654	1.766370
58.207149	1352.936495	7.641997	-0.014763	1.770403
58.469037	1359.188884	7.647002	-0.014831	1.774382
58.695796	1365.496449	7.652006	-0.014890	1.778382
58.870095	1371.727025	7.657011	-0.014937	1.782320
58.999989	1378.019781	7.662016	-0.014973	1.786283
59.255495	1384.335403	7.667021	-0.015040	1.790265
59.511427	1390.607206	7.672026	-0.015107	1.794210
59.673791	1396.944688	7.677030	-0.015151	1.798179
59.799909	1403.243686	7.682035	-0.015186	1.802111
59.949177	1409.611569	7.687040	-0.015226	1.806079
60.255211	1415.957590	7.692045	-0.015305	1.810041
60.331461	1422.322089	7.697050	-0.015328	1.813983
60.598332	1428.752994	7.702054	-0.015398	1.817975
60.648853	1435.101522	7.707059	-0.015414	1.821888
60.864507	1441.518831	7.712064	-0.015471	1.825850
60.916145	1447.994974	7.717069	-0.015488	1.829823
61.181036	1454.442601	7.722074	-0.015557	1.833791
61.563501	1460.888816	7.727078	-0.015655	1.837761
61.848131	1467.237022	7.732083	-0.015729	1.841653
61.757972	1473.740367	7.737088	-0.015711	1.845596
61.974770	1480.262200	7.742093	-0.015769	1.849570
62.034744	1486.784839	7.747098	-0.015788	1.853522
62.367501	1493.344602	7.752102	-0.015873	1.857513
62.400902	1499.859750	7.757107	-0.015886	1.861440
62.535552	1506.445733	7.762112	-0.015923	1.865412
62.786004	1513.025563	7.767117	-0.015989	1.869382
62.836592	1519.650310	7.772122	-0.016006	1.873352
63.143432	1526.274447	7.777126	-0.016085	1.877336
63.183669	1532.866403	7.782131	-0.016099	1.881269
63.328157	1539.553817	7.787136	-0.016139	1.885259
63.427235	1546.268193	7.792141	-0.016168	1.889253
63.585128	1552.977124	7.797146	-0.016211	1.893241
63.731324	1559.762109	7.802150	-0.016251	1.897264
63.723689	1566.501931	7.807155	-0.016254	1.901238
63.904760	1573.309675	7.812160	-0.016303	1.905260
64.089955	1580.152608	7.817165	-0.016353	1.909295
64.201180	1587.014097	7.822170	-0.016385	1.913326
64.582442	1593.861823	7.827174	-0.016482	1.917364
64.647257	1600.659864	7.832179	-0.016503	1.921337
64.835436	1607.547976	7.837184	-0.016553	1.925365
64.909407	1614.472871	7.842189	-0.016576	1.929395
65.137025	1621.391208	7.847194	-0.016636	1.933427
65.433007	1628.334194	7.852198	-0.016713	1.937471
65.625706	1635.221538	7.857203	-0.016765	1.941465
65.882321	1642.104466	7.862208	-0.016833	1.945453
66.190339	1648.988625	7.867213	-0.016912	1.949439
66.172105	1655.913255	7.872218	-0.016913	1.953412
66.451240	1662.886142	7.877222	-0.016986	1.957429
66.569691	1669.822197	7.882227	-0.017019	1.961404
66.649166	1676.797629	7.887232	-0.017043	1.965389
66.773095	1683.851532	7.892237	-0.017078	1.969415
66.773501	1690.930495	7.897242	-0.017083	1.973437
66.935329	1698.048071	7.902246	-0.017128	1.977486
66.947584	1705.168403	7.907251	-0.017135	1.981515
67.234645	1712.268942	7.912256	-0.017210	1.985548
67.426847	1719.452960	7.917261	-0.017262	1.989612
67.593414	1726.613055	7.922266	-0.017308	1.993652
67.905514	1733.798520	7.927270	-0.017389	1.997710
67.957437	1740.969891	7.932275	-0.017406	2.001731
68.185689	1748.146484	7.937280	-0.017467	2.005761
68.450939	1755.372067	7.942285	-0.017537	2.009812
68.671434	1762.565889	7.947290	-0.017595	2.013835
69.031555	1769.765499	7.952294	-0.017688	2.017864
69.053771	1776.984550	7.957299	-0.017699	2.021868
69.536710	1784.114745	7.962304	-0.017821	2.025852
69.679846	1791.290668	7.967309	-0.017861	2.029826
69.846085	1798.476007	7.972314	-0.017907	2.033800
70.187129	1805.675580	7.977318	-0.017995	2.037787
70.439436	1812.822027	7.982323	-0.018061	2.041731
70.397421	1820.031662	7.987328	-0.018056	2.045678
70.759544	1827.234566	7.992333	-0.018149	2.049645
70.735543	1834.514523	7.997338	-0.018148	2.053617
70.832073	1841.825429	8.002342	-0.018177	2.057607
70.800433	1849.171809	8.007347	-0.018174	2.061599
70.860745	1856.551818	8.012352	-0.018194	2.065609
71.022255	1863.980541	8.017357	-0.018238	2.069644
71.177129	1871.429168	8.022362	-0.018281	2.073682
71.390348	1878.898038	8.027366	-0.018338	2.077728
71.506459	1886.375678	8.032371	-0.018372	2.081763
71.709699	1893.850042	8.037376	-0.018427	2.085795
72.001502	1901.342800	8.042381	-0.018503	2.089836
72.170790	1908.841610	8.047386	-0.018549	2.093863
72.461542	1916.348959	8.052390	-0.018625	2.097896
72.775049	1923.796558	8.057395	-0.018707	2.101891
73.064495	1931.231113	8.062400	-0.018783	2.105869
73.307905	1938.639931	8.067405	-0.018847	2.109823
73.440505	1946.103411	8.072410	-0.018885	2.113790
73.650684	1953.582549	8.077414	-0.018941	2.117764
73.787941	1961.062716	8.082419	-0.018980	2.121725
73.966063	1968.565189	8.087424	-0.019028	2.125694
74.078462	1976.094242	8.092429	-0.019061	2.129664
74.112462	1983.680168	8.097434	-0.019074	2.133651
74.312716	1991.278972	8.102438	-0.019129	2.137650
74.349192	1998.890388	8.107443	-0.019143	2.141636
74.411482	2006.574661	8.112448	-0.019163	2.145654
74.552764	2014.264266	8.117453	-0.019203	2.149673
74.534932	2022.043482	8.122458	-0.019204	2.153720
74.691370	2029.835868	8.127462	-0.019247	2.157778
74.828352	2037.658982	8.132467	-0.019286	2.161843
75.178369	2045.459509	8.137472	-0.019377	2.165905
75.371961	2053.257361	8.142477	-0.019429	2.169946
75.504723	2061.091863	8.147482	-0.019467	2.173994
75.861780	2068.922554	8.152486	-0.019560	2.178048
75.993236	2076.742605	8.157491	-0.019597	2.182073
76.379442	2084.502863	8.162496	-0.019697	2.186078
76.653646	2092.279431	8.167501	-0.019769	2.190076
76.970128	2100.007464	8.172506	-0.019852	2.194045
77.195549	2107.759000	8.177510	-0.019912	2.198013
77.299126	2115.533216	8.182515	-0.019943	2.201976
77.526194	2123.307291	8.187520	-0.020003	2.205941
77.763684	2131.108901	8.192525	-0.020067	2.209913
77.812410	2138.924832	8.197530	-0.020084	2.213872
77.971444	2146.778620	8.202534	-0.020128	2.217851
78.110507	2154.631343	8.207539	-0.020167	2.221821
78.248080	2162.508656	8.212544	-0.020206	2.225796
78.410744	2170.415452	8.217549	-0.020251	2.229780
78.419648	2178.378226	8.222554	-0.020259	2.233775
78.669560	2186.342172	8.227558	-0.020325	2.237779
78.732766	2194.352292	8.232563	-0.020346	2.241787
78.848726	2202.391711	8.237568	-0.020380	2.245806
79.056565	2210.466375	8.242573	-0.020436	2.249841
79.131448	2218.549722	8.247578	-0.020460	2.253865
79.480088	2226.644768	8.252582	-0.020551	2.257905
79.925767	2234.643991	8.257587	-0.020665	2.261896
80.357174	2242.561281	8.262592	-0.020776	2.265840
80.525172	2250.542805	8.267597	-0.020822	2.269790
80.725524	2258.479579	8.272602	-0.020877	2.273714
81.155312	2266.364580	8.277606	-0.020987	2.277621
81.297697	2274.317867	8.282611	-0.021027	2.281535
81.535019	2282.216754	8.287616	-0.021091	2.285423
81.817971	2290.150447	8.292621	-0.021165	2.289323
81.929675	2298.070582	8.297626	-0.021198	2.293200
82.128275	2306.031358	8.302630	-0.021252	2.297095
82.257578	2313.987818	8.307635	-0.021289	2.300977
82.429217	2321.958440	8.312640	-0.021336	2.304862
82.561776	2329.953800	8.317645	-0.021374	2.308750
82.528973	2338.027919	8.322650	-0.021371	2.312659
82.741917	2346.121530	8.327654	-0.021429	2.316586
82.836929	2354.238356	8.332659	-0.021458	2.320511
82.926375	2362.408610	8.337664	-0.021485	2.324454
83.188418	2370.560973	8.342669	-0.021555	2.328393
83.208389	2378.778099	8.347674	-0.021565	2.332341
83.518492	2386.998234	8.352678	-0.021647	2.336301
83.655777	2395.243444	8.357683	-0.021686	2.340257
83.659724	2403.469628	8.362688	-0.021692	2.344188
83.972536	2411.736613	8.367693	-0.021774	2.348151
83.979917	2420.038408	8.372698	-0.021782	2.352105
84.243027	2428.353094	8.377702	-0.021852	2.356075
84.404076	2436.672482	8.382707	-0.021897	2.360033
84.632405	2444.968476	8.387712	-0.021958	2.363978
85.020404	2453.262399	8.392717	-0.022059	2.367925
85.267840	2461.530832	8.397722	-0.022125	2.371844
85.410581	2469.825892	8.402726	-0.022165	2.375764
85.506702	2478.153855	8.407731	-0.022194	2.379689
85.739310	2486.425439	8.412736	-0.022257	2.383590
85.925215	2494.782816	8.417741	-0.022308	2.387522
85.979863	2503.172742	8.422746	-0.022327	2.391455
86.225425	2511.560881	8.427750	-0.022393	2.395392
86.150403	2520.008007	8.432755	-0.022380	2.399331
86.388756	2528.458440	8.437760	-0.022444	2.403283
86.658055	2536.936605	8.442765	-0.022516	2.407244
86.850144	2545.402436	8.447770	-0.022568	2.411187
87.087723	2553.913405	8.452774	-0.022632	2.415148
87.195544	2562.408522	8.457779	-0.022664	2.419088
87.484814	2570.786570	8.462784	-0.022741	2.422977
87.751120	2579.286699	8.467789	-0.022812	2.426915
88.185765	2587.658951	8.472794	-0.022923	2.430797
88.574681	2596.046032	8.477798	-0.023024	2.434677
88.817412	2604.348164	8.482803	-0.023089	2.438504
88.985524	2612.665726	8.487808	-0.023136	2.442327
89.257520	2621.047019	8.492813	-0.023208	2.446179
89.336367	2629.405534	8.497818	-0.023233	2.450005
89.592561	2637.838329	8.502822	-0.023301	2.453868
89.902832	2646.119374	8.507827	-0.023383	2.457658
90.100144	2654.450301	8.512832	-0.023437	2.461459
90.338310	2662.824093	8.517837	-0.023501	2.465276
90.658945	2671.150903	8.522842	-0.023585	2.469070
90.667065	2679.502781	8.527846	-0.023592	2.472853
91.103897	2687.816161	8.532851	-0.023705	2.476636
91.248860	2696.126305	8.537856	-0.023746	2.480395
91.424185	2704.524230	8.542861	-0.023794	2.484191
91.463488	2712.873448	8.547866	-0.023810	2.487951
91.654676	2721.330046	8.552870	-0.023862	2.491761
91.788943	2729.793193	8.557875	-0.023901	2.495566
91.777564	2738.259606	8.562880	-0.023904	2.499359
92.076961	2746.772310	8.567885	-0.023982	2.503183
92.191081	2755.218829	8.572890	-0.024016	2.506962
92.389861	2763.766371	8.577895	-0.024071	2.510784
92.552095	2772.322567	8.582899	-0.024116	2.514603
92.668207	2780.822412	8.587904	-0.024150	2.518389
92.935371	2789.405232	8.592909	-0.024221	2.522213
93.180686	2797.923096	8.597914	-0.024287	2.526001
93.407777	2806.503316	8.602919	-0.024348	2.529811
93.713086	2815.048032	8.607923	-0.024429	2.533603
93.855230	2823.492124	8.612928	-0.024469	2.537336
94.061528	2832.058030	8.617933	-0.024525	2.541121
94.244315	2840.586998	8.622938	-0.024576	2.544883
94.482064	2849.147684	8.627943	-0.024640	2.548656
94.613845	2857.738639	8.632947	-0.024678	2.552431
94.754171	2866.274392	8.637952	-0.024718	2.556177
95.023726	2874.891320	8.642957	-0.024790	2.559960
95.139873	2883.496342	8.647962	-0.024824	2.563724
95.226642	2892.118130	8.652967	-0.024851	2.567488
95.391546	2900.849657	8.657971	-0.024897	2.571298
95.575685	2909.509819	8.662976	-0.024948	2.575073
95.837122	2918.192854	8.667981	-0.025018	2.578855
95.884124	2926.847970	8.672986	-0.025035	2.582610
96.065653	2935.536778	8.677991	-0.025086	2.586380
96.208396	2944.320052	8.682995	-0.025127	2.590183
96.363767	2953.068612	8.688000	-0.025170	2.593967
96.631294	2961.817250	8.693005	-0.025242	2.597750
96.705478	2970.565388	8.698010	-0.025266	2.601519
96.741472	2979.408277	8.703015	-0.025281	2.605321
97.080697	2988.276571	8.708019	-0.025370	2.609142
97.212242	2997.113854	8.713024	-0.025408	2.612935
97.505319	3005.867859	8.718029	-0.025485	2.616694
97.639859	3014.705021	8.723034	-0.025524	2.620476
97.819097	3023.547240	8.728039	-0.025574	2.624256
97.918182	3032.476340	8.733043	-0.025604	2.628065
98.096015	3041.345279	8.738048	-0.025654	2.631846
98.422621	3050.234139	8.743053	-0.025740	2.635636
98.668451	3059.077365	8.748058	-0.025806	2.639399
98.792224	3067.967940	8.753063	-0.025842	2.643170
98.897484	3076.912449	8.758067	-0.025874	2.646958
99.128760	3085.837823	8.763072	-0.025937	2.650738
99.356229	3094.805771	8.768077	-0.025998	2.654530
99.404047	3103.736910	8.773082	-0.026016	2.658293
99.558442	3112.705044	8.778087	-0.026060	2.662071
99.625910	3121.724291	8.783091	-0.026083	2.665862
99.763499	3130.780283	8.788096	-0.026122	2.669665
100.176926	3139.840993	8.793101	-0.026230	2.673478
100.116192	3148.868592	8.798106	-0.026221	2.677250
100.318704	3157.926063	8.803111	-0.026277	2.681040
100.518434	3167.051492	8.808115	-0.026332	2.684854
100.778803	3176.140913	8.813120	-0.026401	2.688650
100.992076	3185.277594	8.818125	-0.026460	2.692458
101.191192	3194.260277	8.823130	-0.026515	2.696195
101.226080	3203.402256	8.828135	-0.026529	2.699987
101.292342	3212.620272	8.833139	-0.026552	2.703806
101.374837	3221.841384	8.838144	-0.026578	2.707622
101.551173	3231.123400	8.843149	-0.026628	2.711461
101.741345	3240.360440	8.848154	-0.026680	2.715277
101.966822	3249.598640	8.853159	-0.026742	2.719090
102.255747	3258.892871	8.858163	-0.026819	2.722923
102.395470	3268.118228	8.863168	-0.026859	2.726716
102.678783	3277.405925	8.868173	-0.026935	2.730535
102.727158	3286.706274	8.873178	-0.026953	2.734344
103.104280	3295.945054	8.878183	-0.027051	2.738136
103.273161	3305.219482	8.883187	-0.027099	2.741929
103.507917	3314.383747	8.888192	-0.027163	2.745675
103.769944	3323.672297	8.893197	-0.027233	2.749467
103.953554	3332.921008	8.898202	-0.027284	2.753234
104.165634	3342.125035	8.903207	-0.027342	2.756979
104.434094	3351.346894	8.908211	-0.027414	2.760729
104.570263	3360.569172	8.913216	-0.027454	2.764468
104.759297	3369.871428	8.918221	-0.027506	2.768237
104.783573	3379.192736	8.923226	-0.027519	2.772001
104.857843	3388.451302	8.928231	-0.027543	2.775737
105.011640	3397.873628	8.933235	-0.027587	2.779537
105.024808	3407.290130	8.938240	-0.027597	2.783324
105.222911	3416.776846	8.943245	-0.027652	2.787142
105.275860	3426.276073	8.948250	-0.027671	2.790953
105.475633	3435.768586	8.953255	-0.027726	2.794762
105.659709	3445.317904	8.958259	-0.027778	2.798588
105.743160	3454.839313	8.963264	-0.027805	2.802394
106.047121	3464.442545	8.968269	-0.027886	2.806235
106.457802	3473.968093	8.973274	-0.027993	2.810045
106.584404	3483.439062	8.978279	-0.028030	2.813817
106.762326	3493.010739	8.983283	-0.028080	2.817625
106.950115	3502.504769	8.988288	-0.028132	2.821398
107.176961	3511.980327	8.993293	-0.028194	2.825160
107.345695	3521.535787	8.998298	-0.028242	2.828946
107.573850	3531.079577	9.003303	-0.028304	2.832725
107.777236	3540.637820	9.008307	-0.028361	2.836504
107.955517	3550.123303	9.013312	-0.028411	2.840248
108.321580	3559.681640	9.018317	-0.028507	2.844022
108.525815	3569.194914	9.023322	-0.028563	2.847768
108.663543	3578.726261	9.028327	-0.028603	2.851514
108.955070	3588.173056	9.033331	-0.028681	2.855227
109.059015	3597.691231	9.038336	-0.028713	2.858956
109.294780	3607.254496	9.043341	-0.028777	2.862703
109.433089	3616.792216	9.048346	-0.028817	2.866431
109.674042	3626.315406	9.053351	-0.028883	2.870152
109.953386	3635.870080	9.058355	-0.028957	2.873882
110.041980	3645.370415	9.063360	-0.028985	2.877580
110.321275	3654.993593	9.068365	-0.029060	2.881327
110.412470	3664.502375	9.073370	-0.029089	2.885018
110.547234	3674.146896	9.078375	-0.029129	2.888758
110.837914	3683.823881	9.083379	-0.029206	2.892512
110.983569	3693.389211	9.088384	-0.029248	2.896213
111.287879	3702.947810	9.093389	-0.029329	2.899911
111.394252	3712.520290	9.098394	-0.029362	2.903604
111.480339	3722.158793	9.103399	-0.029389	2.907316
111.646089	3731.875763	9.108403	-0.029437	2.911056
111.701706	3741.487327	9.113408	-0.029457	2.914748
111.950629	3751.195116	9.118413	-0.029524	2.918478
112.151955	3760.933559	9.123418	-0.029580	2.922214
112.382501	3770.633848	9.128423	-0.029643	2.925931
112.642078	3780.358007	9.133427	-0.029713	2.929653
112.688580	3790.035465	9.138432	-0.029731	2.933346
113.075366	3799.745647	9.143437	-0.029832	2.937057
113.318746	3809.423311	9.148442	-0.029898	2.940747
113.444715	3819.043681	9.153447	-0.029936	2.944407
113.898065	3828.774741	9.158451	-0.030053	2.948115
114.033640	3838.380748	9.163456	-0.030093	2.951760
114.257724	3847.996122	9.168461	-0.030154	2.955407
114.267649	3857.677292	9.173466	-0.030163	2.959068
114.491670	3867.369675	9.178471	-0.030225	2.962735
114.540593	3877.176007	9.183475	-0.030243	2.966435
114.652041	3886.950376	9.188480	-0.030277	2.970120
114.843677	3896.763451	9.193485	-0.030331	2.973817
114.938204	3906.592850	9.198490	-0.030361	2.977514
115.163727	3916.414452	9.203495	-0.030422	2.981206
115.548613	3926.211803	9.208499	-0.030523	2.984890
115.638090	3935.982582	9.213504	-0.030552	2.988550
116.017530	3945.774885	9.218509	-0.030651	2.992223
116.273756	3955.525206	9.223514	-0.030720	2.995872
116.473459	3965.224383	9.228519	-0.030776	2.999495
116.689733	3974.975169	9.233523	-0.030835	3.003134
116.776567	3984.745120	9.238528	-0.030863	3.006771
117.113260	3994.565536	9.243533	-0.030952	3.010431
117.366148	4004.175969	9.248538	-0.031021	3.014005
117.523942	4013.900036	9.253543	-0.031066	3.017614
117.775546	4023.684853	9.258547	-0.031134	3.021245
117.943491	4033.360757	9.263552	-0.031182	3.024828
118.073760	4043.147675	9.268557	-0.031220	3.028447
118.251234	4052.914700	9.273562	-0.031270	3.032055
118.171729	4062.759624	9.278567	-0.031258	3.035680
118.400222	4072.654776	9.283571	-0.031320	3.039329
118.599929	4082.490309	9.288576	-0.031376	3.042950
118.975651	4092.401337	9.293581	-0.031474	3.046599
119.270875	4102.266905	9.298586	-0.031553	3.050226
119.388292	4111.955265	9.303591	-0.031588	3.053778
119.568995	4121.824277	9.308595	-0.031639	3.057393
119.680010	4131.644656	9.313600	-0.031673	3.060985
119.912358	4141.508401	9.318605	-0.031737	3.064591
120.209676	4151.336960	9.323610	-0.031816	3.068182
120.349687	4161.127484	9.328615	-0.031857	3.071751
120.477776	4171.025744	9.333619	-0.031895	3.075355
120.624427	4180.829390	9.338624	-0.031938	3.078920
120.579044	4190.797619	9.343629	-0.031933	3.082536
120.778688	4200.834090	9.348634	-0.031989	3.086178
120.880041	4210.829521	9.353639	-0.032021	3.089799
120.874150	4220.873274	9.358643	-0.032026	3.093430
121.067241	4230.986700	9.363648	-0.032080	3.097088
121.318695	4241.126087	9.368653	-0.032149	3.100752
121.474002	4251.222311	9.373658	-0.032194	3.104393
121.634039	4261.325817	9.378663	-0.032240	3.108033
121.907284	4271.499923	9.383667	-0.032313	3.111697
122.089597	4281.571023	9.388672	-0.032365	3.115318
122.281899	4291.688093	9.393677	-0.032419	3.118950
122.575955	4301.821951	9.398682	-0.032497	3.122587
122.817507	4311.920095	9.403687	-0.032563	3.126206
123.118284	4322.056461	9.408691	-0.032644	3.129836
123.207326	4332.059764	9.413696	-0.032672	3.133408
123.527605	4342.149228	9.418701	-0.032758	3.137013
123.641456	4352.237956	9.423706	-0.032792	3.140609
123.739912	4362.278817	9.428711	-0.032823	3.144182
123.877536	4372.465593	9.433715	-0.032864	3.147805
123.909339	4382.619675	9.438720	-0.032879	3.151409
124.026669	4392.868466	9.443725	-0.032914	3.155044
124.140599	4403.125875	9.448730	-0.032949	3.158679
124.339409	4413.398154	9.453735	-0.033005	3.162316
124.458410	4423.762185	9.458739	-0.033041	3.165980
124.701151	4434.080255	9.463744	-0.033107	3.169626
124.930123	4444.305837	9.468749	-0.033170	3.173235
125.049924	4454.649144	9.473754	-0.033207	3.176879
125.028770	4465.037050	9.478759	-0.033209	3.180531
125.289158	4475.482874	9.483763	-0.033279	3.184205
125.337602	4485.884806	9.488768	-0.033298	3.187855
125.514130	4496.377532	9.493773	-0.033349	3.191536
125.886851	4506.838234	9.498778	-0.033447	3.195205
126.075530	4517.226883	9.503783	-0.033500	3.198841
126.419987	4527.605609	9.508787	-0.033591	3.202473
126.556128	4538.018070	9.513792	-0.033632	3.206108
126.833818	4548.477158	9.518797	-0.033707	3.209757
127.070587	4558.819943	9.523802	-0.033772	3.213362
127.187035	4569.124767	9.528807	-0.033807	3.216946
127.556141	4579.520296	9.533811	-0.033905	3.220564
127.687940	4589.829471	9.538816	-0.033944	3.224142
127.989512	4600.139381	9.543821	-0.034025	3.227720
128.283563	4610.454199	9.548826	-0.034104	3.231296
128.509056	4620.695506	9.553831	-0.034166	3.234840
128.733088	4630.989918	9.558835	-0.034228	3.238399
128.925933	4641.184547	9.563840	-0.034282	3.241919
129.059183	4651.516512	9.568845	-0.034321	3.245482
129.383913	4661.871673	9.573850	-0.034408	3.249052
129.534890	4671.977448	9.578855	-0.034452	3.252529
129.766954	4682.293858	9.583859	-0.034515	3.256076
130.112661	4692.492710	9.588864	-0.034607	3.259582
130.428569	4702.637123	9.593869	-0.034691	3.263064
130.547670	4712.863813	9.598874	-0.034727	3.266566
130.753272	4723.041546	9.603879	-0.034784	3.270050
130.856568	4733.265671	9.608883	-0.034817	3.273544
130.948047	4743.430084	9.613888	-0.034846	3.277014
130.927235	4753.809982	9.618893	-0.034848	3.280550
131.180703	4764.194997	9.623898	-0.034917	3.284091
131.444409	4774.491590	9.628903	-0.034988	3.287597
131.683407	4784.864256	9.633907	-0.035054	3.291126
131.849757	4795.169591	9.638912	-0.035102	3.294626
132.103177	4805.450563	9.643917	-0.035171	3.298115
132.348760	4815.724602	9.648922	-0.035238	3.301599
132.348050	4826.074544	9.653927	-0.035245	3.305100
132.622367	4836.495633	9.658931	-0.035319	3.308626
132.808912	4846.680342	9.663936	-0.035371	3.312067
133.026140	4857.093618	9.668941	-0.035432	3.315582
133.320220	4867.473917	9.673946	-0.035511	3.319084
133.514873	4877.658312	9.678951	-0.035565	3.322514
133.912852	4888.001029	9.683955	-0.035669	3.325997
133.926037	4898.255118	9.688960	-0.035680	3.329440
134.166262	4908.511123	9.693965	-0.035745	3.332885
134.340164	4918.773129	9.698970	-0.035795	3.336326
134.372278	4929.126338	9.703975	-0.035810	3.339792
134.471914	4939.562369	9.708979	-0.035841	3.343283
134.680093	4949.901625	9.713984	-0.035899	3.346740
134.577462	4960.375018	9.718989	-0.035881	3.350232
134.829350	4970.939833	9.723994	-0.035950	3.353758
135.005497	4981.405480	9.728999	-0.036000	3.357246
135.379336	4991.893378	9.734003	-0.036099	3.360740
135.457283	5002.373084	9.739008	-0.036125	3.364224
135.649202	5012.952865	9.744013	-0.036179	3.367738
135.883715	5023.450260	9.749018	-0.036244	3.371223
135.984792	5033.933449	9.754023	-0.036276	3.374697
136.309346	5044.497336	9.759027	-0.036362	3.378197
136.604418	5054.828187	9.764032	-0.036442	3.381617
136.708790	5065.335379	9.769037	-0.036474	3.385088
137.052685	5075.863247	9.774042	-0.036565	3.388566
137.027869	5086.226155	9.779047	-0.036567	3.391980
137.392762	5096.749164	9.784051	-0.036663	3.395450
137.480142	5107.274011	9.789056	-0.036691	3.398912
137.732911	5117.710309	9.794061	-0.036760	3.402345
137.915116	5128.228324	9.799066	-0.036812	3.405799
138.083045	5138.673991	9.804071	-0.036860	3.409226
138.550357	5149.174140	9.809075	-0.036982	3.412672
138.761207	5159.470188	9.814080	-0.037040	3.416044
139.037258	5169.864266	9.819085	-0.037115	3.419446
139.325911	5180.253942	9.824090	-0.037193	3.422842
139.380194	5190.542501	9.829095	-0.037213	3.426199
139.767815	5200.932139	9.834099	-0.037315	3.429591
139.972286	5211.231378	9.839104	-0.037372	3.432946
140.042383	5221.540264	9.844109	-0.037396	3.436300
140.265927	5231.940749	9.849114	-0.037458	3.439682
140.388854	5242.280147	9.854119	-0.037495	3.443040
140.439078	5252.760147	9.859123	-0.037514	3.446439
140.509032	5263.211087	9.864128	-0.037539	3.449825
140.661444	5273.741094	9.869133	-0.037583	3.453235
140.859070	5284.256445	9.874138	-0.037638	3.456638
140.913207	5294.729569	9.879143	-0.037659	3.460021
141.183436	5305.358513	9.884147	-0.037732	3.463454
141.313485	5315.913139	9.889152	-0.037771	3.466858
141.486673	5326.449232	9.894157	-0.037821	3.470253
141.663237	5337.087865	9.899162	-0.037871	3.473678
141.978199	5347.634103	9.904167	-0.037955	3.477072
142.126410	5358.197838	9.909171	-0.037999	3.480465
142.444709	5368.798039	9.914176	-0.038084	3.483870
142.542145	5379.404286	9.919181	-0.038115	3.487270
142.793774	5389.851703	9.924186	-0.038184	3.490617
142.930198	5400.407764	9.929191	-0.038224	3.493995
143.015750	5411.073954	9.934195	-0.038252	3.497404
143.283312	5421.562301	9.939200	-0.038325	3.500755
143.276317	5432.258873	9.944205	-0.038331	3.504166
143.214685	5443.072942	9.949210	-0.038323	3.507610
143.351994	5453.729859	9.954215	-0.038364	3.511003
143.473361	5464.634571	9.959219	-0.038401	3.514472
143.636305	5475.501349	9.964224	-0.038448	3.517925
143.770393	5486.360340	9.969229	-0.038489	3.521373
144.039147	5497.343223	9.974234	-0.038562	3.524857
144.257114	5508.210850	9.979239	-0.038623	3.528302
144.316059	5519.174154	9.984243	-0.038644	3.531771
144.624406	5529.967135	9.989248	-0.038727	3.535186
144.752713	5540.867371	9.994253	-0.038766	3.538629
145.123686	5551.810126	9.999258	-0.038864	3.542085
145.250582	5562.553550	10.004263	-0.038903	3.545472
145.600388	5573.432348	10.009267	-0.038996	3.548901
145.729746	5584.242304	10.014272	-0.039035	3.552302
145.944868	5595.003058	10.019277	-0.039095	3.555686
146.255336	5605.842548	10.024282	-0.039178	3.559092
146.292237	5616.648263	10.029287	-0.039194	3.562481
146.466952	5627.549334	10.034291	-0.039244	3.565899
146.686650	5638.315779	10.039296	-0.039306	3.569271
146.742850	5649.185927	10.044301	-0.039327	3.572671
146.879174	5660.151807	10.049306	-0.039368	3.576098
147.226175	5670.968286	10.054311	-0.039460	3.579478
147.275349	5681.924109	10.059315	-0.039479	3.582895
147.510164	5692.885466	10.064320	-0.039544	3.586312
147.635398	5703.723441	10.069325	-0.039582	3.589686
147.851896	5714.746641	10.074330	-0.039643	3.593115
148.026250	5725.713469	10.079335	-0.039693	3.596524
148.303071	5736.620227	10.084339	-0.039768	3.599911
148.442853	5747.605117	10.089344	-0.039810	3.603318
148.637205	5758.616002	10.094349	-0.039865	3.606730
148.949502	5769.519864	10.099354	-0.039949	3.610108
148.940786	5780.424476	10.104359	-0.039954	3.613479
149.357351	5791.449170	10.109363	-0.040063	3.616888
149.376925	5802.305773	10.114368	-0.040076	3.620238
149.487318	5813.324869	10.119373	-0.040110	3.623636
149.833254	5824.405515	10.124378	-0.040202	3.627052
149.796187	5835.289355	10.129383	-0.040201	3.630400
149.992439	5846.385045	10.134387	-0.040256	3.633813
150.157589	5857.475892	10.139392	-0.040304	3.637221
150.359529	5868.517226	10.144397	-0.040361	3.640610
150.656284	5879.600082	10.149402	-0.040441	3.644010
150.719564	5890.669083	10.154407	-0.040464	3.647400
150.963543	5901.720236	10.159411	-0.040532	3.650784
151.200291	5912.730915	10.164416	-0.040597	3.654151
151.401294	5923.775333	10.169421	-0.040654	3.657526
151.695534	5934.806252	10.174426	-0.040733	3.660894

151.874787	5945.605514	10.179431	-0.040784	3.664187
152.174841	5956.442420	10.184435	-0.040865	3.667490
152.420597	5967.052479	10.189440	-0.040932	3.670721
152.525568	5977.576799	10.194445	-0.040965	3.673921
152.689280	5988.206670	10.199450	-0.041013	3.677151
152.789780	5998.640617	10.204455	-0.041044	3.680318
153.056080	6009.127189	10.209459	-0.041117	3.683500
153.225483	6019.515930	10.214464	-0.041165	3.686648
153.434202	6029.644514	10.219469	-0.041223	3.689716
153.483083	6039.964892	10.224474	-0.041242	3.692837
153.670920	6050.086363	10.229479	-0.041295	3.695897
153.816149	6060.101412	10.234483	-0.041337	3.698922
154.007237	6070.162086	10.239488	-0.041391	3.701959
154.201783	6080.107776	10.244493	-0.041445	3.704958
154.337018	6089.989257	10.249498	-0.041485	3.707935
154.678850	6099.765583	10.254503	-0.041575	3.710880
154.795401	6109.391362	10.259507	-0.041610	3.713775
155.068834	6119.060070	10.264512	-0.041684	3.716682
155.141525	6128.481433	10.269517	-0.041708	3.719511
155.377217	6138.083842	10.274522	-0.041772	3.722393
155.452431	6147.443732	10.279527	-0.041797	3.725200
155.624080	6156.785982	10.284531	-0.041845	3.727999
155.674515	6166.136560	10.289536	-0.041864	3.730798
155.749814	6175.295353	10.294541	-0.041889	3.733538
155.928719	6184.661779	10.299546	-0.041939	3.736339
155.976625	6193.707212	10.304551	-0.041957	3.739040
156.286289	6202.964997	10.309555	-0.042038	3.741805
156.467046	6211.999529	10.314560	-0.042089	3.744500
156.631360	6220.890042	10.319565	-0.042135	3.747150
156.929077	6229.761648	10.324570	-0.042214	3.749794
157.024251	6238.462492	10.329575	-0.042243	3.752383
157.314023	6247.168357	10.334579	-0.042320	3.754974
157.612677	6255.758340	10.339584	-0.042399	3.757528
157.637015	6264.225068	10.344589	-0.042410	3.760042
157.930542	6272.699643	10.349594	-0.042488	3.762559
158.022873	6281.028301	10.354599	-0.042516	3.765029
158.123564	6289.351820	10.359603	-0.042546	3.767496
158.315963	6297.583549	10.364608	-0.042599	3.769935
158.484035	6305.708163	10.369613	-0.042645	3.772341
158.615771	6313.829066	10.374618	-0.042683	3.774744
158.672392	6321.779837	10.379623	-0.042702	3.777094
158.863312	6329.863768	10.384627	-0.042755	3.779483
158.806107	6337.856842	10.389632	-0.042746	3.781843
159.079290	6345.739348	10.394637	-0.042818	3.784169
159.109790	6353.695681	10.399642	-0.042831	3.786516
159.230140	6361.381338	10.404647	-0.042866	3.788781
159.382804	6369.246210	10.409651	-0.042908	3.791098
159.472943	6376.936370	10.414656	-0.042935	3.793362
159.693688	6384.649748	10.419661	-0.042995	3.795631
159.869931	6392.163357	10.424666	-0.043043	3.797841
160.007855	6399.703133	10.429671	-0.043082	3.800056
160.196318	6407.168091	10.434675	-0.043133	3.802249
160.357446	6414.544109	10.439680	-0.043177	3.804414
160.477012	6421.842879	10.444685	-0.043211	3.806555
160.678655	6428.993637	10.449690	-0.043265	3.808652
160.644983	6436.252211	10.454695	-0.043262	3.810778
160.822708	6443.296102	10.459699	-0.043310	3.812841
160.862106	6450.493642	10.464704	-0.043325	3.814948
161.064223	6457.494944	10.469709	-0.043379	3.816996
161.369146	6464.487326	10.474714	-0.043458	3.819041
161.401484	6471.393237	10.479719	-0.043471	3.821059
161.609572	6478.194204	10.484723	-0.043526	3.823045
161.624850	6485.038039	10.489728	-0.043534	3.825043
161.884449	6491.656283	10.494733	-0.043602	3.826974
161.998931	6498.298549	10.499738	-0.043635	3.828911
161.955709	6504.932743	10.504743	-0.043629	3.830844
161.872717	6511.491276	10.509747	-0.043613	3.832754
162.048260	6518.234327	10.514752	-0.043660	3.834718
162.226960	6524.717935	10.519757	-0.043708	3.836604
162.254623	6531.236076	10.524762	-0.043719	3.838500
162.234974	6537.824429	10.529767	-0.043719	3.840415
162.412204	6544.309238	10.534771	-0.043767	3.842300
162.421241	6550.788869	10.539776	-0.043773	3.844181
162.520477	6557.201097	10.544781	-0.043802	3.846043
162.710687	6563.296139	10.549786	-0.043852	3.847811
162.728040	6569.617085	10.554791	-0.043861	3.849644
162.977660	6575.889942	10.559795	-0.043926	3.851463
163.063110	6582.026793	10.564800	-0.043951	3.853241
163.064553	6588.150867	10.569805	-0.043955	3.855014
163.444737	6594.258175	10.574810	-0.044052	3.856782
163.534288	6600.130526	10.579815	-0.044078	3.858481
163.662064	6606.085191	10.584819	-0.044113	3.860203
163.814950	6611.935463	10.589824	-0.044155	3.861895
163.962428	6617.681379	10.594829	-0.044195	3.863555
164.050824	6623.490687	10.599834	-0.044220	3.865233
164.101241	6628.995520	10.604839	-0.044236	3.866822
164.254171	6634.668789	10.609843	-0.044277	3.868459
164.381055	6640.328400	10.614848	-0.044312	3.870091
164.407840	6645.748286	10.619853	-0.044322	3.871654
164.395741	6651.340670	10.624858	-0.044323	3.873266
164.555979	6656.879349	10.629863	-0.044366	3.874861
164.651870	6662.317609	10.634867	-0.044393	3.876427
164.700298	6667.682347	10.639872	-0.044408	3.877971
164.862750	6673.118262	10.644877	-0.044451	3.879535
164.997499	6678.503324	10.649882	-0.044488	3.881084
165.169072	6683.596083	10.654887	-0.044533	3.882548
165.247826	6688.871517	10.659891	-0.044556	3.884065
165.416158	6694.073739	10.664896	-0.044601	3.885559
165.408694	6698.910999	10.669901	-0.044602	3.886948
165.603648	6704.034406	10.674906	-0.044653	3.888419
165.513509	6709.074644	10.679911	-0.044634	3.889865
165.725494	6714.087617	10.684915	-0.044689	3.891303
165.736021	6718.921144	10.689920	-0.044695	3.892689
165.745683	6723.907836	10.694925	-0.044701	3.894118
165.724568	6728.987986	10.699930	-0.044699	3.895573
165.803411	6733.692583	10.704935	-0.044721	3.896921
165.883658	6738.656225	10.709939	-0.044744	3.898342
166.035580	6743.561563	10.714944	-0.044785	3.899746
166.134340	6748.293081	10.719949	-0.044812	3.901100
166.389138	6753.010741	10.724954	-0.044877	3.902449
166.519714	6757.617786	10.729959	-0.044912	3.903766
166.646828	6762.269038	10.734963	-0.044946	3.905096
166.889978	6766.666026	10.739968	-0.045009	3.906352
166.916766	6770.969600	10.744973	-0.045018	3.907581
167.113412	6775.440618	10.749978	-0.045069	3.908858
167.013909	6779.758032	10.754983	-0.045048	3.910090
167.191507	6784.002186	10.759987	-0.045094	3.911301
167.202369	6788.258738	10.764992	-0.045099	3.912515
167.192269	6792.552761	10.769997	-0.045099	3.913739
167.269540	6796.879869	10.775002	-0.045121	3.914973
167.265452	6801.059358	10.780007	-0.045123	3.916164
167.223499	6805.194089	10.785011	-0.045115	3.917342
167.358242	6809.490139	10.790016	-0.045151	3.918565
167.234935	6813.743648	10.795021	-0.045124	3.919776
167.371785	6818.063252	10.800026	-0.045160	3.921006
167.301725	6822.165774	10.805031	-0.045146	3.922173
167.735800	6826.354308	10.810035	-0.045254	3.923365
167.663322	6830.450542	10.815040	-0.045239	3.924529
167.742378	6834.527229	10.820045	-0.045261	3.925688
167.835095	6838.385410	10.825050	-0.045286	3.926785
167.914692	6842.327105	10.830055	-0.045308	3.927905
168.034087	6846.324956	10.835059	-0.045340	3.929040
168.228739	6850.203124	10.840064	-0.045390	3.930141
168.362174	6853.868949	10.845069	-0.045425	3.931182
168.481874	6857.507147	10.850074	-0.045457	3.932214
168.517849	6861.251849	10.855079	-0.045468	3.933277
168.662124	6864.904183	10.860083	-0.045506	3.934313
168.665078	6868.545147	10.865088	-0.045509	3.935345
168.536591	6871.934598	10.870093	-0.045479	3.936306
168.576142	6875.678826	10.875098	-0.045492	3.937367
168.543176	6879.313723	10.880103	-0.045486	3.938397
168.560156	6882.971720	10.885107	-0.045492	3.939433
168.523175	6886.779409	10.890112	-0.045486	3.940512
168.583366	6890.173691	10.895117	-0.045503	3.941473
168.606571	6893.846711	10.900122	-0.045511	3.942512
168.607104	6897.579129	10.905127	-0.045513	3.943568
168.630501	6901.179060	10.910131	-0.045521	3.944587
168.610292	6904.807405	10.915136	-0.045519	3.945613
168.717212	6908.232769	10.920141	-0.045547	3.946581
168.877611	6911.825948	10.925146	-0.045589	3.947597
169.177364	6915.269158	10.930151	-0.045664	3.948570
169.190628	6918.680303	10.935155	-0.045669	3.949534
169.425098	6922.046595	10.940160	-0.045729	3.950484
169.267378	6925.120510	10.945165	-0.045692	3.951352
169.555310	6928.454309	10.950170	-0.045765	3.952293
169.511471	6931.659448	10.955175	-0.045756	3.953198
169.609771	6934.800560	10.960179	-0.045782	3.954084
169.694744	6938.048585	10.965184	-0.045805	3.955001
169.582982	6941.047561	10.970189	-0.045779	3.955847
169.587812	6944.172729	10.975194	-0.045783	3.956728
169.628211	6947.341929	10.980199	-0.045795	3.957622
169.678838	6950.516327	10.985203	-0.045809	3.958516
169.696844	6953.703502	10.990208	-0.045815	3.959415
169.782943	6956.810803	10.995213	-0.045838	3.960290
169.953935	6959.780633	11.000218	-0.045882	3.961126
169.910214	6962.752371	11.005223	-0.045873	3.961963
169.955029	6965.748423	11.010227	-0.045886	3.962807
170.184587	6968.832497	11.015232	-0.045944	3.963675
170.195332	6971.666640	11.020237	-0.045948	3.964473
170.362566	6974.589770	11.025242	-0.045991	3.965295
170.402733	6977.130029	11.030247	-0.046003	3.966010
170.342357	6979.868939	11.035251	-0.045989	3.966780
170.350998	6982.774147	11.040256	-0.045993	3.967597
170.299134	6985.545278	11.045261	-0.045982	3.968376
170.482104	6988.488110	11.050266	-0.046029	3.969203
170.451656	6991.158279	11.055271	-0.046023	3.969954
170.483731	6993.907065	11.060275	-0.046033	3.970726
170.500577	6996.502945	11.065280	-0.046039	3.971456
170.482874	6999.260285	11.070285	-0.046036	3.972230
170.566252	7002.053195	11.075290	-0.046058	3.973014
170.531161	7004.754812	11.080295	-0.046051	3.973773
170.771917	7007.488567	11.085299	-0.046112	3.974540
170.727019	7010.143344	11.090304	-0.046102	3.975285
170.655582	7012.572598	11.095309	-0.046086	3.975967
170.690751	7015.232134	11.100314	-0.046097	3.976713
170.919053	7017.847718	11.105319	-0.046154	3.977447
170.914585	7020.474631	11.110323	-0.046155	3.978184
170.954366	7023.031047	11.115328	-0.046166	3.978900
170.944935	7025.476259	11.120333	-0.046165	3.979586
171.067759	7028.092035	11.125338	-0.046197	3.980319
171.068110	7030.406737	11.130343	-0.046198	3.980968
171.070996	7032.838823	11.135347	-0.046200	3.981649
171.135697	7035.325226	11.140352	-0.046218	3.982346
171.228264	7037.765446	11.145357	-0.046242	3.983029
171.433755	7040.177876	11.150362	-0.046294	3.983704
171.464468	7042.473598	11.155367	-0.046302	3.984347
171.491213	7044.754055	11.160371	-0.046310	3.984986
171.565362	7046.977214	11.165376	-0.046330	3.985608
171.622188	7048.964127	11.170381	-0.046345	3.986164
171.557691	7051.251691	11.175386	-0.046330	3.986804
171.597005	7053.438815	11.180391	-0.046341	3.987416
171.689184	7055.654559	11.185395	-0.046365	3.988036
171.717396	7057.876893	11.190400	-0.046373	3.988658
171.611718	7060.065109	11.195405	-0.046349	3.989270
171.677180	7062.344232	11.200410	-0.046366	3.989907
171.773891	7064.477672	11.205415	-0.046391	3.990503
171.877948	7066.370258	11.210419	-0.046418	3.991032
171.826337	7068.537831	11.215424	-0.046406	3.991638
171.908389	7070.569333	11.220429	-0.046428	3.992206
172.061694	7072.670956	11.225434	-0.046466	3.992793
172.107483	7074.642444	11.230439	-0.046479	3.993343
172.167813	7076.701500	11.235443	-0.046495	3.993918
172.092722	7078.655840	11.240448	-0.046478	3.994464
172.032424	7080.562484	11.245453	-0.046464	3.994997
172.178226	7082.463189	11.250458	-0.046501	3.995528
172.139319	7084.380575	11.255463	-0.046492	3.996063
172.181874	7086.324595	11.260467	-0.046504	3.996606
172.338626	7088.208290	11.265472	-0.046543	3.997131
172.112735	7090.108139	11.270477	-0.046489	3.997662
172.400066	7092.127687	11.275482	-0.046561	3.998225
172.461527	7093.879349	11.280487	-0.046577	3.998713
172.550500	7095.741140	11.285491	-0.046599	3.999232
172.653617	7097.468984	11.290496	-0.046626	3.999714
172.579332	7099.214578	11.295501	-0.046608	4.000201
172.681017	7100.844317	11.300506	-0.046634	4.000655
172.820135	7102.426424	11.305511	-0.046669	4.001096
172.850361	7104.091770	11.310515	-0.046677	4.001560
172.894468	7105.755193	11.315520	-0.046689	4.002024
172.758217	7107.195471	11.320525	-0.046657	4.002426
172.925780	7109.013800	11.325530	-0.046699	4.002932
172.865561	7110.459542	11.330535	-0.046685	4.003335
172.755124	7112.244480	11.335539	-0.046659	4.003833
172.775363	7113.855975	11.340544	-0.046665	4.004282
172.697755	7115.563162	11.345549	-0.046647	4.004758
172.750364	7117.234725	11.350554	-0.046660	4.005223
172.862916	7118.759057	11.355559	-0.046689	4.005647
172.922333	7120.210208	11.360563	-0.046704	4.006051
172.928227	7121.839298	11.365568	-0.046706	4.006505
172.966733	7123.375799	11.370573	-0.046717	4.006933
173.033535	7124.917214	11.375578	-0.046734	4.007362
173.259187	7126.518590	11.380583	-0.046790	4.007807
173.100587	7127.927029	11.385587	-0.046752	4.008199
173.294041	7129.319803	11.390592	-0.046800	4.008587
173.307311	7130.677383	11.395597	-0.046804	4.008964
173.466492	7132.184572	11.400602	-0.046844	4.009383
173.525022	7133.514804	11.405607	-0.046859	4.009753
173.587512	7134.698185	11.410611	-0.046875	4.010082
173.542476	7135.941252	11.415616	-0.046864	4.010428
173.529762	7137.039938	11.420621	-0.046862	4.010734
173.717233	7138.258488	11.425626	-0.046908	4.011072
173.638924	7139.498175	11.430631	-0.046890	4.011417
173.623264	7140.642013	11.435635	-0.046886	4.011735
173.595603	7142.013756	11.440640	-0.046880	4.012117
173.472689	7143.309466	11.445645	-0.046851	4.012477
173.586572	7144.650269	11.450650	-0.046880	4.012850
173.487526	7145.853221	11.455655	-0.046856	4.013185
173.374913	7147.156100	11.460659	-0.046829	4.013547
173.472327	7148.551026	11.465664	-0.046854	4.013935
173.364305	7149.847445	11.470669	-0.046828	4.014295
173.473517	7151.270844	11.475674	-0.046855	4.014690
173.453144	7152.594218	11.480679	-0.046851	4.015058
173.541017	7153.774958	11.485683	-0.046873	4.015386
173.697594	7154.865461	11.490688	-0.046912	4.015688
173.798891	7156.016191	11.495693	-0.046937	4.016008
173.920846	7157.176220	11.500698	-0.046968	4.016330
173.981051	7158.266029	11.505703	-0.046983	4.016632
173.940821	7159.297567	11.510707	-0.046974	4.016919
174.001130	7160.399909	11.515712	-0.046989	4.017225
173.967610	7161.478889	11.520717	-0.046981	4.017525
174.100193	7162.505683	11.525722	-0.047014	4.017809
174.144099	7163.481040	11.530727	-0.047025	4.018080
174.085041	7164.457651	11.535731	-0.047011	4.018351
174.183422	7165.512433	11.540736	-0.047036	4.018644
174.344800	7166.537585	11.545741	-0.047076	4.018928
174.370793	7167.383685	11.550746	-0.047083	4.019163
174.400675	7168.155634	11.555751	-0.047090	4.019377
174.396405	7168.896894	11.560755	-0.047089	4.019583
174.344687	7170.068574	11.565760	-0.047077	4.019908
174.209684	7170.961568	11.570765	-0.047045	4.020156
174.093152	7171.763668	11.575770	-0.047017	4.020379
174.158753	7172.645372	11.580775	-0.047033	4.020623
174.171409	7173.546827	11.585779	-0.047037	4.020873
174.134379	7174.569351	11.590784	-0.047028	4.021157
174.059335	7175.516135	11.595789	-0.047010	4.021420
174.011140	7176.636594	11.600794	-0.046999	4.021731
174.124387	7177.721721	11.605799	-0.047027	4.022032
174.120783	7178.673975	11.610803	-0.047027	4.022296
174.310214	7179.739822	11.615808	-0.047074	4.022591
174.420772	7180.464899	11.620813	-0.047101	4.022792
174.550131	7181.157569	11.625818	-0.047133	4.022983
174.673949	7182.308489	11.630823	-0.047164	4.023302
174.840399	7182.644709	11.635827	-0.047204	4.023395
175.001882	7183.406541	11.640832	-0.047244	4.023606
174.946396	7183.943079	11.645837	-0.047231	4.023754
174.943677	7184.610846	11.650842	-0.047230	4.023940
174.890007	7185.195873	11.655847	-0.047217	4.024102
174.781081	7185.660933	11.660851	-0.047191	4.024231
174.924425	7186.550011	11.665856	-0.047226	4.024477
174.723486	7186.840642	11.670861	-0.047177	4.024558
174.776122	7188.000266	11.675866	-0.047190	4.024880
174.659371	7188.472078	11.680871	-0.047162	4.025011
174.763888	7189.132222	11.685875	-0.047188	4.025193
174.698801	7189.784889	11.690880	-0.047172	4.025374
174.609878	7190.154540	11.695885	-0.047150	4.025477
174.618910	7191.121283	11.700890	-0.047153	4.025745
174.657689	7191.840539	11.705895	-0.047163	4.025944
174.783520	7192.221643	11.710899	-0.047194	4.026049
174.833877	7193.416614	11.715904	-0.047206	4.026380
174.816239	7193.638399	11.720909	-0.047202	4.026442
174.851806	7194.460302	11.725914	-0.047211	4.026669
174.942626	7195.045077	11.730919	-0.047234	4.026831
174.945897	7195.623259	11.735923	-0.047234	4.026991
174.935034	7196.297108	11.740928	-0.047232	4.027178
175.078671	7196.761955	11.745933	-0.047267	4.027306
175.010640	7197.252612	11.750938	-0.047251	4.027443
175.126018	7197.953890	11.755943	-0.047279	4.027636
175.150490	7198.188619	11.760947	-0.047285	4.027701
175.212922	7199.075353	11.765952	-0.047301	4.027947
175.101061	7199.038001	11.770957	-0.047273	4.027937
175.085018	7199.997174	11.775962	-0.047270	4.028202
175.183721	7200.156119	11.780967	-0.047294	4.028246
175.214685	7200.775413	11.785971	-0.047301	4.028418
175.256280	7201.336225	11.790976	-0.047312	4.028573
175.280191	7201.282368	11.795981	-0.047317	4.028558
175.351931	7202.346433	11.800986	-0.047335	4.028852
175.398875	7202.481140	11.805991	-0.047347	4.028889
175.286031	7202.424587	11.810995	-0.047319	4.028874
175.430670	7203.576404	11.816000	-0.047355	4.029192
175.332052	7203.530156	11.821005	-0.047330	4.029180
175.378964	7203.579172	11.826010	-0.047342	4.029193
175.380368	7204.704630	11.831015	-0.047343	4.029505
175.384431	7204.706921	11.836019	-0.047343	4.029506
175.418507	7204.776095	11.841024	-0.047352	4.029525
175.299076	7205.731078	11.846029	-0.047323	4.029789
175.321378	7205.832829	11.851034	-0.047328	4.029817
175.465543	7205.840120	11.856039	-0.047363	4.029819
175.341485	7207.027469	11.861043	-0.047333	4.030148
175.300754	7207.102558	11.866048	-0.047323	4.030169
175.230510	7207.268670	11.871053	-0.047306	4.030215
175.350745	7207.968268	11.876058	-0.047336	4.030408
175.402379	7207.951935	11.881063	-0.047348	4.030404
175.400679	7208.302718	11.886067	-0.047348	4.030501
175.522344	7209.066691	11.891072	-0.047378	4.030712
175.452989	7209.043312	11.896077	-0.047360	4.030706
175.406827	7209.042764	11.901082	-0.047349	4.030706
175.495828	7210.103105	11.906087	-0.047371	4.030999
175.509233	7210.160787	11.911091	-0.047374	4.031015
175.490441	7210.195530	11.916096	-0.047369	4.031024
175.439001	7210.569480	11.921101	-0.047357	4.031128
175.678137	7211.328184	11.926106	-0.047416	4.031337
175.671727	7211.361947	11.931111	-0.047414	4.031347
175.424592	7211.313915	11.936115	-0.047353	4.031334
175.402106	7211.830395	11.941120	-0.047348	4.031477
175.428181	7212.393725	11.946125	-0.047354	4.031633
175.417897	7212.427444	11.951130	-0.047352	4.031642
175.442450	7212.709811	11.956135	-0.047358	4.031720
175.558499	7213.565369	11.961139	-0.047386	4.031957
175.557304	7213.625152	11.966144	-0.047386	4.031973
175.435421	7213.594368	11.971149	-0.047356	4.031965
175.654457	7213.952398	11.976154	-0.047409	4.032063
175.586696	7214.687374	11.981159	-0.047393	4.032267
175.574312	7214.646590	11.986163	-0.047390	4.032256
175.632836	7214.684510	11.991168	-0.047404	4.032266
175.766527	7214.647705	11.996173	-0.047436	4.032255
175.698461	7215.343212	12.001178	-0.047420	4.032448
175.872004	7215.911815	12.006183	-0.047463	4.032605
175.826767	7215.909012	12.011187	-0.047451	4.032604
175.871290	7215.942257	12.016192	-0.047462	4.032613
175.715851	7215.868175	12.021197	-0.047424	4.032593
175.745244	7215.906885	12.026202	-0.047431	4.032604
175.826277	7215.921376	12.031207	-0.047450	4.032608
175.821189	7216.538681	12.036211	-0.047449	4.032778
175.829215	7216.971057	12.041216	-0.047451	4.032898
175.911142	7216.959601	12.046221	-0.047471	4.032894
175.819271	7216.961887	12.051226	-0.047448	4.032895
175.968289	7217.003147	12.056231	-0.047485	4.032906
175.972648	7216.951267	12.061235	-0.047485	4.032892
175.987410	7216.995451	12.066240	-0.047489	4.032904
175.835338	7216.965418	12.071245	-0.047451	4.032896
175.884350	7216.951314	12.076250	-0.047463	4.032892
175.940728	7217.054685	12.081255	-0.047477	4.032921
175.861817	7217.806617	12.086259	-0.047458	4.033129
175.999703	7218.168331	12.091264	-0.047491	4.033229
175.904964	7218.119783	12.096269	-0.047468	4.033215
175.919772	7218.134622	12.101274	-0.047471	4.033219
175.971350	7218.130709	12.106279	-0.047484	4.033218
175.934331	7218.109939	12.111283	-0.047474	4.033213
176.060150	7218.164478	12.116288	-0.047505	4.033227
175.916282	7218.120990	12.121293	-0.047470	4.033216
176.046063	7218.138325	12.126298	-0.047501	4.033220
176.001146	7218.155841	12.131303	-0.047490	4.033225
176.092157	7218.130949	12.136307	-0.047512	4.033218
176.101265	7218.169426	12.141312	-0.047514	4.033229
176.071971	7218.114883	12.146317	-0.047506	4.033214
175.905013	7218.129818	12.151322	-0.047465	4.033218
176.077877	7218.140893	12.156327	-0.047507	4.033221
176.026507	7218.118823	12.161331	-0.047495	4.033215
176.008284	7218.156975	12.166336	-0.047490	4.033225
176.098912	7218.484273	12.171341	-0.047512	4.033316
176.012942	7218.510331	12.176346	-0.047491	4.033323
176.095705	7219.284583	12.181351	-0.047511	4.033537
176.102386	7219.216918	12.186355	-0.047513	4.033518
176.231629	7219.268119	12.191360	-0.047544	4.033532
176.227473	7218.854884	12.196365	-0.047543	4.033418
176.160673	7218.142904	12.201370	-0.047526	4.033221
176.196546	7218.143320	12.206375	-0.047534	4.033221
176.286435	7218.119543	12.211379	-0.047556	4.033214
176.225801	7218.159448	12.216384	-0.047541	4.033225
176.201791	7218.120772	12.221389	-0.047535	4.033215
176.224701	7218.136836	12.226394	-0.047540	4.033219
176.279461	7218.157795	12.231399	-0.047553	4.033225
176.156610	7218.123587	12.236403	-0.047523	4.033216
176.155503	7218.152911	12.241408	-0.047522	4.033224
176.219331	7218.117537	12.246413	-0.047538	4.033214
176.187974	7218.140858	12.251418	-0.047530	4.033220
176.133218	7218.163901	12.256423	-0.047516	4.033227
176.230081	7218.117631	12.261427	-0.047540	4.033214
176.203706	7218.178262	12.266432	-0.047533	4.033231
176.251632	7218.118993	12.271437	-0.047545	4.033214
176.130962	7218.117547	12.276442	-0.047515	4.033214
176.150111	7218.135824	12.281447	-0.047519	4.033219
176.164082	7218.108887	12.286451	-0.047522	4.033212
176.389774	7218.161229	12.291456	-0.047577	4.033225
176.390087	7218.113810	12.296461	-0.047577	4.033212
176.344621	7218.121160	12.301466	-0.047566	4.033214
176.547947	7217.707036	12.306471	-0.047615	4.033099
176.363304	7216.942917	12.311475	-0.047569	4.032889
176.418155	7216.987577	12.316480	-0.047582	4.032901
176.490085	7217.001964	12.321485	-0.047600	4.032904
176.413987	7216.962673	12.326490	-0.047581	4.032894
176.445019	7216.986733	12.331495	-0.047588	4.032900
176.405853	7216.942237	12.336499	-0.047578	4.032888
176.564871	7216.729653	12.341504	-0.047617	4.032829
176.495736	7215.907139	12.346509	-0.047599	4.032602
176.458612	7215.908946	12.351514	-0.047590	4.032602
176.582709	7215.930719	12.356519	-0.047620	4.032608
176.586903	7215.894640	12.361523	-0.047621	4.032598
176.668410	7215.938482	12.366528	-0.047640	4.032610
176.737426	7214.740696	12.371533	-0.047656	4.032278
176.710341	7214.681680	12.376538	-0.047649	4.032262
176.633672	7214.729293	12.381543	-0.047630	4.032275
176.496395	7214.671234	12.386547	-0.047596	4.032260
176.543150	7214.154903	12.391552	-0.047607	4.032117
176.376412	7213.619150	12.396557	-0.047566	4.031969
176.405225	7213.575468	12.401562	-0.047573	4.031957
176.423889	7213.651284	12.406567	-0.047577	4.031978
176.291556	7213.588778	12.411571	-0.047545	4.031961
176.440789	7213.604064	12.416576	-0.047581	4.031965
176.515314	7213.625242	12.421581	-0.047599	4.031970
176.513048	7213.496559	12.426586	-0.047598	4.031935
176.496635	7212.442405	12.431591	-0.047593	4.031643
176.435405	7212.412338	12.436595	-0.047578	4.031635
176.739445	7212.449745	12.441600	-0.047652	4.031644
176.543150	7212.419221	12.446605	-0.047604	4.031637
176.634618	7212.415770	12.451610	-0.047626	4.031635
176.813579	7211.501633	12.456615	-0.047668	4.031382
176.824073	7211.358448	12.461619	-0.047671	4.031342
176.761120	7211.344161	12.466624	-0.047655	4.031338
176.879784	7210.761085	12.471629	-0.047683	4.031177
176.747299	7210.172841	12.476634	-0.047650	4.031014
176.707544	7210.200572	12.481639	-0.047640	4.031022
176.532957	7210.154523	12.486643	-0.047598	4.031010
176.667912	7209.516405	12.491648	-0.047630	4.030833
176.591125	7209.060858	12.496653	-0.047611	4.030707
176.459463	7209.028855	12.501658	-0.047578	4.030699
176.597960	7209.083478	12.506663	-0.047612	4.030713
176.576139	7209.033575	12.511667	-0.047606	4.030700
176.563895	7208.669043	12.516672	-0.047603	4.030599
176.506185	7207.962193	12.521677	-0.047588	4.030403
176.596551	7207.953078	12.526682	-0.047610	4.030401
176.448830	7207.985194	12.531687	-0.047573	4.030410
176.370505	7207.915464	12.536691	-0.047554	4.030391
176.487413	7207.958547	12.541696	-0.047582	4.030402
176.518091	7207.870905	12.546701	-0.047590	4.030378
176.462995	7207.081785	12.551706	-0.047575	4.030160
176.582441	7207.103461	12.556711	-0.047604	4.030166
176.521090	7207.059876	12.561715	-0.047589	4.030154
176.620545	7207.090344	12.566720	-0.047613	4.030162
176.661711	7207.069378	12.571725	-0.047623	4.030156
176.652581	7206.030437	12.576730	-0.047620	4.029868
176.735151	7205.887010	12.581735	-0.047640	4.029828
176.579323	7205.823167	12.586739	-0.047601	4.029811
176.688581	7205.860509	12.591744	-0.047628	4.029821
176.688721	7205.218751	12.596749	-0.047627	4.029644
176.663974	7204.683874	12.601754	-0.047620	4.029496
176.663026	7204.768437	12.606759	-0.047620	4.029519
176.648187	7204.727654	12.611763	-0.047616	4.029508
176.772607	7204.156168	12.616768	-0.047646	4.029349
176.765207	7203.567399	12.621773	-0.047643	4.029186
176.604693	7203.563291	12.626778	-0.047604	4.029186
176.573178	7203.606898	12.631783	-0.047596	4.029198
176.588522	7203.443548	12.636787	-0.047599	4.029152
176.530087	7202.435878	12.641792	-0.047584	4.028874
176.522253	7202.492158	12.646797	-0.047582	4.028889
176.450715	7202.415779	12.651802	-0.047564	4.028868
176.370477	7202.489272	12.656807	-0.047545	4.028889
176.469186	7202.426117	12.661811	-0.047568	4.028871
176.527062	7202.474128	12.666816	-0.047582	4.028884
176.630353	7201.587895	12.671821	-0.047607	4.028639
176.683614	7201.299843	12.676826	-0.047619	4.028559
176.736629	7201.351176	12.681831	-0.047632	4.028573
176.870598	7201.287298	12.686835	-0.047664	4.028555
176.934626	7200.150384	12.691840	-0.047679	4.028240
176.995817	7200.149942	12.696845	-0.047694	4.028239
176.732790	7200.053361	12.701850	-0.047629	4.028213
176.849264	7199.096390	12.706855	-0.047657	4.027948
176.876153	7199.041444	12.711859	-0.047663	4.027933
176.745291	7199.043330	12.716864	-0.047631	4.027934
176.642330	7198.408596	12.721869	-0.047605	4.027758
176.681285	7197.910769	12.726874	-0.047614	4.027620
176.627179	7197.957491	12.731879	-0.047601	4.027633
176.579696	7197.889307	12.736883	-0.047589	4.027615
176.716809	7197.677798	12.741888	-0.047622	4.027556
176.679949	7196.755316	12.746893	-0.047612	4.027300
176.550538	7196.704250	12.751898	-0.047580	4.027286
176.755098	7196.752760	12.756903	-0.047630	4.027299
176.775077	7196.657166	12.761907	-0.047634	4.027273
176.774342	7195.642734	12.766912	-0.047633	4.026992
176.954100	7195.637983	12.771917	-0.047677	4.026990
176.793506	7195.620386	12.776922	-0.047637	4.026985
176.879565	7194.645318	12.781927	-0.047658	4.026715
176.789836	7194.432424	12.786931	-0.047635	4.026656
176.735912	7194.450968	12.791936	-0.047622	4.026662
176.704489	7194.104623	12.796941	-0.047614	4.026566
176.604062	7193.394645	12.801946	-0.047588	4.026369
176.567734	7193.424655	12.806951	-0.047579	4.026378
176.591402	7193.371944	12.811955	-0.047585	4.026363
176.631809	7193.412954	12.816960	-0.047594	4.026374
176.723054	7192.604865	12.821965	-0.047616	4.026150
176.885010	7192.163815	12.826970	-0.047655	4.026028
176.807054	7192.221530	12.831975	-0.047636	4.026044
176.889088	7191.829178	12.836979	-0.047655	4.025935
176.785533	7191.130548	12.841984	-0.047629	4.025742
176.856209	7191.157238	12.846989	-0.047646	4.025749
176.882170	7190.782317	12.851994	-0.047652	4.025645
176.863557	7190.004690	12.856999	-0.047647	4.025429
176.869949	7189.940531	12.862003	-0.047648	4.025412
176.872916	7189.755785	12.867008	-0.047648	4.025360
176.893590	7189.214103	12.872013	-0.047653	4.025210
176.848764	7189.124597	12.877018	-0.047642	4.025186
176.902554	7188.970840	12.882023	-0.047654	4.025143
176.794079	7187.986170	12.887027	-0.047627	4.024870
176.729701	7187.967425	12.892032	-0.047611	4.024865
176.703646	7188.007681	12.897037	-0.047604	4.024877
176.689528	7187.291085	12.902042	-0.047600	4.024678
176.779483	7186.873037	12.907047	-0.047622	4.024562
176.713243	7186.814852	12.912051	-0.047605	4.024546
176.735519	7186.863521	12.917056	-0.047610	4.024559
176.723914	7186.037755	12.922061	-0.047607	4.024330
176.794571	7185.644306	12.927066	-0.047624	4.024221
176.774606	7185.711655	12.932071	-0.047619	4.024240
176.745801	7185.550267	12.937075	-0.047611	4.024195
176.923675	7184.625287	12.942080	-0.047654	4.023938
177.005406	7184.605898	12.947085	-0.047673	4.023933
176.944980	7184.016219	12.952090	-0.047658	4.023769
177.117136	7183.424597	12.957095	-0.047699	4.023605
177.028776	7183.379704	12.962099	-0.047678	4.023593
176.952270	7182.393523	12.967104	-0.047658	4.023320
176.912264	7182.342406	12.972109	-0.047648	4.023306
176.850277	7182.291049	12.977114	-0.047632	4.023291
176.738079	7181.206604	12.982119	-0.047604	4.022991
176.729037	7181.135560	12.987123	-0.047602	4.022971
176.911562	7181.161173	12.992128	-0.047646	4.022978
176.783572	7180.640718	12.997133	-0.047614	4.022834
176.714433	7180.074761	13.002138	-0.047597	4.022677
176.728640	7180.131197	13.007143	-0.047600	4.022693
176.713528	7180.094996	13.012147	-0.047596	4.022683
176.784948	7179.135417	13.017152	-0.047612	4.022417
176.993479	7178.902362	13.022157	-0.047663	4.022351
176.940351	7178.887144	13.027162	-0.047650	4.022347
176.981658	7177.881159	13.032167	-0.047659	4.022068
176.902337	7177.741835	13.037171	-0.047639	4.022030
176.780588	7177.727009	13.042176	-0.047609	4.022026
176.977817	7176.812828	13.047181	-0.047657	4.021772
176.790217	7176.620580	13.052186	-0.047610	4.021719
176.931798	7176.699752	13.057191	-0.047645	4.021741
176.968152	7175.611700	13.062195	-0.047653	4.021439
176.923058	7175.504283	13.067200	-0.047641	4.021409
176.898855	7175.518647	13.072205	-0.047635	4.021413
176.910807	7174.349392	13.077210	-0.047637	4.021089
176.832009	7174.401439	13.082215	-0.047618	4.021104
176.839038	7174.372242	13.087219	-0.047619	4.021095
176.752432	7173.295441	13.092224	-0.047597	4.020797
176.954623	7173.266066	13.097229	-0.047646	4.020788
176.869956	7173.214517	13.102234	-0.047625	4.020774
176.868351	7172.334498	13.107239	-0.047624	4.020530
176.713089	7172.110044	13.112243	-0.047585	4.020468
176.781605	7172.124261	13.117248	-0.047602	4.020472
176.773258	7171.868732	13.122253	-0.047600	4.020401
176.736759	7171.228093	13.127258	-0.047590	4.020223
176.865148	7171.291322	13.132263	-0.047621	4.020241
176.874992	7171.200276	13.137267	-0.047623	4.020215
176.801759	7170.063103	13.142272	-0.047604	4.019900
176.842640	7170.071398	13.147277	-0.047614	4.019902
176.905882	7170.024799	13.152282	-0.047629	4.019889
176.955634	7169.053261	13.157287	-0.047640	4.019619
176.980277	7168.891507	13.162291	-0.047646	4.019574
176.888156	7168.780281	13.167296	-0.047623	4.019544
177.019431	7167.807428	13.172301	-0.047654	4.019273
176.909548	7167.748899	13.177306	-0.047627	4.019258
176.890416	7167.377471	13.182311	-0.047622	4.019155
176.705099	7166.625249	13.187315	-0.047576	4.018946
176.719302	7166.649009	13.192320	-0.047579	4.018953
176.816548	7166.677008	13.197325	-0.047603	4.018960
176.749056	7165.866440	13.202330	-0.047586	4.018736
176.624893	7165.492848	13.207335	-0.047555	4.018632
176.718207	7165.479185	13.212339	-0.047577	4.018628
176.690068	7165.459763	13.217344	-0.047570	4.018623
176.681527	7164.906307	13.222349	-0.047568	4.018469
176.642320	7164.352554	13.227354	-0.047557	4.018316
176.733008	7164.390596	13.232359	-0.047579	4.018326
176.731758	7164.352336	13.237363	-0.047579	4.018315
176.745558	7163.578731	13.242368	-0.047581	4.018101
176.906239	7163.232886	13.247373	-0.047620	4.018004
176.827152	7163.171334	13.252378	-0.047600	4.017987
176.963019	7162.790379	13.257383	-0.047633	4.017881
176.983361	7162.142862	13.262387	-0.047637	4.017701
176.972203	7162.147236	13.267392	-0.047634	4.017702
176.972773	7161.267912	13.272397	-0.047634	4.017458
176.854477	7160.902384	13.277402	-0.047604	4.017357
176.880627	7160.957737	13.282407	-0.047611	4.017372
176.837153	7160.112892	13.287411	-0.047599	4.017138
176.879874	7159.782773	13.292416	-0.047609	4.017046
176.900712	7159.872920	13.297421	-0.047614	4.017071
176.881246	7159.038502	13.302426	-0.047608	4.016840
176.842647	7158.708701	13.307431	-0.047599	4.016748
176.809763	7158.673506	13.312435	-0.047590	4.016738
176.723436	7158.134133	13.317440	-0.047569	4.016589
176.748882	7157.661117	13.322445	-0.047574	4.016457
176.677665	7157.577199	13.327450	-0.047556	4.016434
176.851168	7157.622792	13.332455	-0.047599	4.016446
176.761496	7156.681011	13.337459	-0.047576	4.016185
176.744567	7156.438037	13.342464	-0.047571	4.016118
176.799717	7156.462190	13.347469	-0.047585	4.016124
176.807594	7156.099202	13.352474	-0.047586	4.016023
176.753415	7155.303995	13.357479	-0.047572	4.015803
176.802411	7155.295488	13.362483	-0.047584	4.015800
176.732242	7155.256556	13.367488	-0.047566	4.015790
176.715265	7154.610126	13.372493	-0.047561	4.015610
176.718733	7154.190947	13.377498	-0.047562	4.015494
176.734131	7154.222560	13.382503	-0.047565	4.015502
176.721101	7154.184208	13.387507	-0.047562	4.015492
176.838092	7153.448144	13.392512	-0.047590	4.015287
176.918960	7153.402870	13.397517	-0.047609	4.015274
176.919319	7153.360160	13.402522	-0.047609	4.015262
176.938086	7152.271420	13.407527	-0.047613	4.014960
176.884530	7152.156257	13.412531	-0.047599	4.014928
176.979375	7152.096516	13.417536	-0.047622	4.014911
176.919005	7151.081240	13.422541	-0.047606	4.014629
176.985558	7151.035825	13.427546	-0.047622	4.014616
176.993363	7150.656116	13.432551	-0.047624	4.014511
176.859209	7149.879519	13.437555	-0.047590	4.014295
176.924730	7149.893643	13.442560	-0.047606	4.014299
176.785784	7149.612499	13.447565	-0.047572	4.014221
176.647506	7148.770767	13.452570	-0.047537	4.013988
176.672179	7148.777742	13.457575	-0.047543	4.013990
176.662464	7148.807969	13.462579	-0.047540	4.013998
176.660365	7148.718065	13.467584	-0.047539	4.013973
176.774061	7147.658703	13.472589	-0.047566	4.013679
176.669219	7147.596998	13.477594	-0.047540	4.013662
176.652245	7147.651865	13.482599	-0.047536	4.013677
176.797574	7147.326399	13.487603	-0.047571	4.013586
176.729334	7146.464157	13.492608	-0.047554	4.013347
176.903058	7146.529882	13.497613	-0.047596	4.013364
176.709507	7146.448218	13.502618	-0.047548	4.013342
176.926459	7145.631511	13.507623	-0.047600	4.013115
176.912522	7145.403359	13.512627	-0.047597	4.013051
176.944474	7145.378953	13.517632	-0.047604	4.013044
176.892478	7144.354137	13.522637	-0.047591	4.012760
176.890305	7144.255274	13.527642	-0.047590	4.012732
176.942620	7144.272623	13.532647	-0.047602	4.012737
177.012930	7143.137901	13.537651	-0.047618	4.012421
176.957109	7143.101412	13.542656	-0.047604	4.012411
177.032439	7142.728183	13.547661	-0.047622	4.012307
176.824711	7141.972664	13.552666	-0.047571	4.012098
176.914524	7142.016197	13.557671	-0.047593	4.012110
176.810324	7141.691782	13.562675	-0.047567	4.012020
176.752401	7140.824374	13.567680	-0.047552	4.011779
176.849266	7140.873583	13.572685	-0.047575	4.011792
176.790787	7140.803394	13.577690	-0.047561	4.011773
176.817584	7139.878475	13.582695	-0.047566	4.011516
176.771954	7139.770244	13.587699	-0.047555	4.011486
176.724211	7139.764160	13.592704	-0.047543	4.011484
176.842659	7139.317330	13.597709	-0.047571	4.011360
176.683427	7138.541150	13.602714	-0.047532	4.011144
176.678667	7138.577020	13.607719	-0.047530	4.011154
176.624717	7138.563021	13.612723	-0.047517	4.011150
176.555309	7138.392829	13.617728	-0.047499	4.011103
176.786400	7137.512683	13.622733	-0.047555	4.010858
176.706941	7137.475992	13.627738	-0.047535	4.010848
176.871894	7137.495523	13.632743	-0.047575	4.010853
176.947346	7136.653220	13.637747	-0.047593	4.010618
176.945325	7136.323182	13.642752	-0.047592	4.010527
177.056491	7136.321990	13.647757	-0.047619	4.010526
177.010414	7135.479714	13.652762	-0.047607	4.010292
177.130248	7135.519008	13.657767	-0.047636	4.010302
177.046746	7134.762843	13.662771	-0.047615	4.010092
177.054218	7134.284792	13.667776	-0.047616	4.009959
177.058733	7134.172596	13.672781	-0.047617	4.009928
176.967242	7133.183007	13.677786	-0.047594	4.009653
176.875921	7133.209068	13.682791	-0.047571	4.009661
176.884105	7132.829830	13.687795	-0.047573	4.009555
176.840816	7131.990038	13.692800	-0.047561	4.009321
176.730636	7132.033876	13.697805	-0.047534	4.009334
176.673119	7132.010883	13.702810	-0.047520	4.009328
176.723872	7131.286479	13.707815	-0.047531	4.009126
176.532225	7130.968251	13.712819	-0.047484	4.009038
176.558770	7130.956149	13.717824	-0.047490	4.009035
176.592390	7131.003581	13.722829	-0.047498	4.009048
176.541869	7130.957095	13.727834	-0.047486	4.009035
176.670822	7130.006839	13.732839	-0.047516	4.008770
176.726733	7129.754913	13.737843	-0.047530	4.008700
176.790183	7129.746522	13.742848	-0.047545	4.008697
176.955187	7129.576399	13.747853	-0.047585	4.008650
176.973960	7128.664457	13.752858	-0.047589	4.008396
177.035257	7128.648191	13.757863	-0.047603	4.008391
177.016909	7127.992855	13.762867	-0.047598	4.008209
176.845583	7127.524585	13.767872	-0.047556	4.008079
176.958355	7127.541329	13.772877	-0.047583	4.008083
177.007899	7126.717294	13.777882	-0.047594	4.007854
176.954935	7126.466653	13.782887	-0.047581	4.007784
177.055117	7126.308292	13.787891	-0.047605	4.007740
176.909702	7125.283998	13.792896	-0.047569	4.007455
176.950198	7125.307917	13.797901	-0.047578	4.007462
176.751930	7124.952779	13.802906	-0.047529	4.007363
176.833413	7124.116851	13.807911	-0.047548	4.007130
176.940584	7124.164931	13.812915	-0.047574	4.007144
176.914809	7123.867486	13.817920	-0.047568	4.007061
176.858986	7123.060636	13.822925	-0.047553	4.006836
176.819013	7123.012039	13.827930	-0.047543	4.006823
176.893426	7122.892720	13.832935	-0.047561	4.006790
176.826552	7121.924352	13.837939	-0.047544	4.006520
176.761140	7121.876650	13.842944	-0.047528	4.006507
176.742153	7121.923564	13.847949	-0.047523	4.006520
176.657612	7121.236544	13.852954	-0.047501	4.006329
176.634772	7120.746338	13.857959	-0.047495	4.006193
176.589425	7120.808706	13.862963	-0.047484	4.006210
176.585051	7120.739141	13.867968	-0.047483	4.006191
176.641818	7120.797953	13.872973	-0.047496	4.006207
176.580797	7119.890333	13.877978	-0.047480	4.005954
176.742047	7119.665311	13.882983	-0.047519	4.005891
176.952587	7119.641424	13.887987	-0.047571	4.005884
176.878376	7119.330185	13.892992	-0.047552	4.005798
176.899228	7118.589312	13.897997	-0.047556	4.005591
177.052327	7118.531270	13.903002	-0.047594	4.005575
177.005332	7118.033087	13.908007	-0.047581	4.005436
176.956525	7117.746776	13.913011	-0.047569	4.005357
177.101506	7117.699870	13.918016	-0.047604	4.005343
177.137529	7116.539980	13.923021	-0.047612	4.005020
176.772560	7116.505310	13.928026	-0.047523	4.005011
176.842370	7116.176383	13.933031	-0.047539	4.004919
176.750930	7115.383110	13.938035	-0.047516	4.004699
176.706744	7115.341236	13.943040	-0.047505	4.004687
176.609095	7115.373979	13.948045	-0.047481	4.004697
176.449820	7115.349010	13.953050	-0.047442	4.004690
176.590275	7114.384146	13.958055	-0.047475	4.004421
176.605796	7114.263236	13.963059	-0.047479	4.004387
176.479621	7114.218396	13.968064	-0.047448	4.004375
176.711812	7114.267526	13.973069	-0.047504	4.004388
176.623098	7114.179310	13.978074	-0.047482	4.004364
176.759602	7113.138276	13.983079	-0.047514	4.004073
176.830573	7113.145622	13.988083	-0.047532	4.004075
176.726051	7113.104342	13.993088	-0.047506	4.004064
176.835089	7112.590933	13.998093	-0.047532	4.003921
176.932070	7111.994511	14.003098	-0.047555	4.003754
176.925674	7111.947383	14.008103	-0.047553	4.003741
177.053343	7111.198865	14.013107	-0.047583	4.003532
176.918096	7110.846951	14.018112	-0.047550	4.003435
176.971928	7110.850778	14.023117	-0.047563	4.003436
176.860685	7109.691268	14.028122	-0.047535	4.003113
176.940712	7109.715490	14.033127	-0.047554	4.003119
176.805647	7109.762472	14.038131	-0.047521	4.003133
176.767502	7108.739255	14.043136	-0.047510	4.002848
176.715214	7108.696217	14.048141	-0.047497	4.002836
176.711193	7108.635678	14.053146	-0.047496	4.002819
176.641906	7108.657469	14.058151	-0.047479	4.002825
176.607911	7107.456260	14.063155	-0.047470	4.002491
176.632258	7107.417257	14.068160	-0.047475	4.002480
176.762241	7107.454227	14.073165	-0.047507	4.002490
176.750977	7107.412673	14.078170	-0.047504	4.002478
176.724375	7106.395329	14.083175	-0.047496	4.002195
176.851061	7106.391940	14.088179	-0.047527	4.002193
176.884248	7106.333973	14.093184	-0.047535	4.002177
176.743308	7105.515081	14.098189	-0.047500	4.001949
176.569825	7105.170841	14.103194	-0.047457	4.001854
176.586592	7105.170978	14.108199	-0.047461	4.001854
176.657678	7105.193984	14.113203	-0.047478	4.001860
176.602839	7105.032220	14.118208	-0.047464	4.001815
176.607491	7104.142992	14.123213	-0.047464	4.001567
176.769450	7104.120861	14.128218	-0.047504	4.001560
176.725226	7104.092473	14.133223	-0.047493	4.001553
176.763543	7103.986401	14.138227	-0.047502	4.001523
176.668043	7102.899280	14.143232	-0.047477	4.001220
176.724229	7102.972544	14.148237	-0.047491	4.001240
176.835020	7102.928693	14.153242	-0.047518	4.001228
176.838387	7102.358721	14.158247	-0.047518	4.001069
176.700869	7101.853632	14.163251	-0.047484	4.000929
176.736446	7101.811377	14.168256	-0.047492	4.000917
176.880397	7101.789085	14.173261	-0.047527	4.000910
176.645014	7100.711019	14.178266	-0.047469	4.000610
176.645484	7100.733408	14.183271	-0.047468	4.000616
176.653710	7100.739069	14.188275	-0.047470	4.000618
176.715673	7100.692562	14.193280	-0.047485	4.000605
176.700197	7099.948979	14.198285	-0.047481	4.000398
176.726260	7099.807002	14.203290	-0.047487	4.000358
176.810019	7099.817782	14.208295	-0.047507	4.000361
176.812445	7099.503188	14.213299	-0.047507	4.000273
176.800635	7098.576096	14.218304	-0.047503	4.000014
176.871027	7098.611388	14.223309	-0.047520	4.000024
176.755600	7098.577938	14.228314	-0.047492	4.000015
176.865804	7097.497455	14.233319	-0.047518	3.999713
176.884209	7097.511035	14.238323	-0.047522	3.999717
176.749794	7097.450565	14.243328	-0.047489	3.999701
176.683004	7096.701123	14.248333	-0.047472	3.999492
176.606783	7096.325495	14.253338	-0.047453	3.999387
176.629963	7096.344710	14.258343	-0.047458	3.999393
176.506141	7096.342544	14.263347	-0.047428	3.999392
176.496895	7096.321191	14.268352	-0.047425	3.999386
176.584132	7095.463418	14.273357	-0.047446	3.999147
176.624626	7095.226467	14.278362	-0.047455	3.999081
176.707123	7095.218195	14.283367	-0.047475	3.999078
176.841107	7095.266316	14.288371	-0.047507	3.999091
176.851039	7094.311701	14.293376	-0.047509	3.998825
176.936569	7094.097525	14.298381	-0.047530	3.998765
176.876455	7094.067918	14.303386	-0.047515	3.998757
176.957117	7093.129637	14.308391	-0.047533	3.998495
176.952132	7092.947177	14.313395	-0.047532	3.998444
176.884142	7092.866032	14.318400	-0.047515	3.998422
176.973128	7091.873065	14.323405	-0.047536	3.998144
176.856293	7091.857545	14.328410	-0.047507	3.998140
176.923369	7091.610797	14.333415	-0.047523	3.998071
176.942964	7090.752728	14.338419	-0.047527	3.997832
176.848009	7090.730679	14.343424	-0.047503	3.997826
176.806860	7090.667675	14.348429	-0.047493	3.997808
176.659890	7089.525240	14.353434	-0.047456	3.997490
176.614227	7089.531571	14.358439	-0.047445	3.997492
176.647902	7089.546383	14.363443	-0.047453	3.997496
176.701266	7089.484160	14.368448	-0.047465	3.997478
176.781182	7088.637903	14.373453	-0.047484	3.997242
176.751692	7088.437403	14.378458	-0.047477	3.997186
176.762140	7088.440837	14.383463	-0.047479	3.997187
176.918364	7087.993506	14.388467	-0.047517	3.997062
176.940016	7087.245294	14.393472	-0.047521	3.996853
177.018795	7087.300740	14.398477	-0.047540	3.996868
176.860713	7086.643945	14.403482	-0.047501	3.996685
176.985485	7086.261282	14.408487	-0.047531	3.996578
176.922410	7086.275305	14.413491	-0.047515	3.996582
176.870646	7085.280523	14.418496	-0.047502	3.996305
176.800596	7085.069679	14.423501	-0.047484	3.996246
176.806406	7085.033928	14.428506	-0.047485	3.996236
176.854064	7084.405750	14.433511	-0.047496	3.996061
176.940998	7084.017243	14.438515	-0.047517	3.995952
176.674775	7083.949111	14.443520	-0.047452	3.995934
176.790645	7083.702879	14.448525	-0.047480	3.995865
176.768660	7082.828177	14.453530	-0.047473	3.995621
176.765124	7082.841561	14.458535	-0.047472	3.995624
176.903884	7082.867266	14.463539	-0.047506	3.995631
176.903120	7082.048694	14.468544	-0.047505	3.995403
177.002808	7082.012581	14.473549	-0.047529	3.995392
176.985840	7081.748541	14.478554	-0.047524	3.995319
176.942092	7080.764206	14.483559	-0.047513	3.995044
176.830477	7080.834871	14.488563	-0.047485	3.995064
176.857261	7080.643879	14.493568	-0.047492	3.995011
176.946698	7079.702048	14.498573	-0.047512	3.994747
176.982843	7079.691146	14.503578	-0.047521	3.994744
176.950076	7079.195598	14.508583	-0.047512	3.994606
177.005746	7078.524130	14.513587	-0.047525	3.994418
176.755482	7078.474079	14.518592	-0.047464	3.994405
176.799482	7078.130099	14.523597	-0.047474	3.994309
176.751996	7077.456754	14.528602	-0.047462	3.994121
176.813277	7077.439342	14.533607	-0.047477	3.994116
176.771804	7077.501609	14.538611	-0.047466	3.994133
176.722618	7076.430350	14.543616	-0.047453	3.993834
176.937642	7076.299010	14.548621	-0.047506	3.993797
176.791209	7076.258736	14.553626	-0.047469	3.993786
176.775462	7075.553317	14.558631	-0.047465	3.993589
176.823816	7075.194907	14.563635	-0.047476	3.993489
176.857494	7075.125866	14.568640	-0.047484	3.993469
177.007057	7074.738076	14.573645	-0.047520	3.993361
176.924913	7074.036684	14.578650	-0.047499	3.993165
176.884235	7074.038597	14.583655	-0.047489	3.993166
176.882385	7073.490967	14.588659	-0.047488	3.993013
176.792152	7072.921444	14.593664	-0.047465	3.992854
176.949229	7072.965114	14.598669	-0.047504	3.992866
176.788799	7072.519109	14.603674	-0.047464	3.992741
176.776469	7071.771442	14.608679	-0.047460	3.992533
176.846386	7071.825608	14.613683	-0.047477	3.992548
176.806050	7071.737015	14.618688	-0.047467	3.992523
176.868392	7070.651408	14.623693	-0.047481	3.992219
176.798271	7070.644160	14.628698	-0.047464	3.992218
176.766824	7070.629387	14.633703	-0.047456	3.992214
176.920701	7069.883088	14.638707	-0.047493	3.992005
176.837316	7069.479119	14.643712	-0.047472	3.991892
176.863316	7069.517296	14.648717	-0.047478	3.991903
176.832468	7068.814332	14.653722	-0.047470	3.991706
176.742631	7068.411464	14.658727	-0.047447	3.991594
176.633160	7068.458663	14.663731	-0.047420	3.991607
176.596287	7068.408105	14.668736	-0.047411	3.991593
176.680448	7067.722829	14.673741	-0.047431	3.991401
176.689470	7067.281647	14.678746	-0.047432	3.991278
176.695794	7067.226952	14.683751	-0.047434	3.991263
176.765045	7067.269916	14.688755	-0.047450	3.991275
176.825141	7066.538711	14.693760	-0.047464	3.991070
176.914324	7066.200928	14.698765	-0.047486	3.990976
176.961063	7066.178934	14.703770	-0.047497	3.990969
177.031707	7065.245696	14.708775	-0.047513	3.990708
177.077113	7065.070677	14.713779	-0.047524	3.990659
177.053183	7064.756648	14.718784	-0.047518	3.990572
177.010193	7064.192313	14.723789	-0.047506	3.990414
176.960215	7064.165129	14.728794	-0.047494	3.990406
176.964127	7063.317513	14.733799	-0.047494	3.990170
176.947816	7063.033733	14.738803	-0.047490	3.990090
176.838824	7062.998297	14.743808	-0.047463	3.990081
176.821652	7062.095881	14.748813	-0.047458	3.989828
176.756579	7061.848615	14.753818	-0.047441	3.989759
176.601643	7061.863094	14.758823	-0.047403	3.989764
176.544475	7061.891696	14.763827	-0.047389	3.989772
176.513977	7061.253886	14.768832	-0.047381	3.989594
176.542261	7060.690229	14.773837	-0.047387	3.989436
176.398705	7060.711495	14.778842	-0.047352	3.989442
176.362787	7060.662096	14.783847	-0.047343	3.989428
176.395337	7060.755001	14.788851	-0.047351	3.989454
176.506793	7060.702221	14.793856	-0.047378	3.989439
176.615256	7060.710829	14.798861	-0.047404	3.989441
176.565641	7059.732407	14.803866	-0.047391	3.989168
176.830844	7059.653962	14.808871	-0.047455	3.989146
176.824105	7059.690748	14.813875	-0.047454	3.989156
176.853662	7059.314716	14.818880	-0.047460	3.989051
176.896284	7058.495583	14.823885	-0.047470	3.988821
176.760466	7058.492351	14.828890	-0.047437	3.988821
176.820425	7058.386728	14.833895	-0.047451	3.988791
176.847628	7057.417953	14.838899	-0.047457	3.988520
176.788115	7057.373978	14.843904	-0.047442	3.988508
176.840844	7057.400029	14.848909	-0.047454	3.988515
176.668218	7056.553771	14.853914	-0.047411	3.988279
176.524137	7056.212282	14.858919	-0.047376	3.988184
176.493689	7056.238843	14.863923	-0.047368	3.988191
176.439340	7056.190447	14.868928	-0.047355	3.988178
176.471412	7056.262108	14.873933	-0.047362	3.988198
176.502950	7056.228844	14.878938	-0.047370	3.988188
176.626211	7055.265380	14.883943	-0.047399	3.987919
176.583244	7055.237161	14.888947	-0.047388	3.987911
176.462958	7055.186063	14.893952	-0.047358	3.987897
176.426010	7055.195834	14.898957	-0.047349	3.987900
176.489126	7055.206327	14.903962	-0.047364	3.987902
176.566809	7055.047279	14.908967	-0.047383	3.987858
176.597507	7054.016265	14.913971	-0.047390	3.987569
176.702695	7053.976836	14.918976	-0.047415	3.987558
176.827362	7054.015668	14.923981	-0.047445	3.987569
176.944996	7053.622557	14.928986	-0.047474	3.987458
176.963548	7052.828122	14.933991	-0.047477	3.987236
176.858275	7052.901014	14.938995	-0.047451	3.987257
176.851913	7052.380949	14.944000	-0.047449	3.987111
176.782181	7051.764490	14.949005	-0.047431	3.986939
176.795421	7051.769041	14.954010	-0.047434	3.986940
176.789917	7051.724361	14.959015	-0.047433	3.986928
176.811782	7050.675665	14.964019	-0.047437	3.986634
176.607752	7050.620658	14.969024	-0.047387	3.986619
176.596333	7050.639538	14.974029	-0.047384	3.986624
176.530943	7050.660268	14.979034	-0.047368	3.986630
176.574342	7049.930891	14.984039	-0.047378	3.986426
176.592884	7049.539415	14.989043	-0.047382	3.986317
176.657072	7049.482962	14.994048	-0.047397	3.986301
176.681233	7049.480894	14.999053	-0.047403	3.986300
176.687727	7049.401722	15.004058	-0.047404	3.986278
176.746115	7048.364610	15.009063	-0.047417	3.985988
176.728410	7048.410218	15.014067	-0.047413	3.986000
176.776424	7048.361463	15.019072	-0.047424	3.985987
176.729063	7047.837933	15.024077	-0.047412	3.985840
176.589470	7047.339435	15.029082	-0.047378	3.985701
176.633162	7047.293999	15.034087	-0.047388	3.985688
176.681018	7047.334484	15.039091	-0.047399	3.985699
176.633187	7047.282831	15.044096	-0.047387	3.985685
176.640229	7046.533291	15.049101	-0.047388	3.985475
176.619056	7046.542061	15.054106	-0.047383	3.985478
176.501044	7046.518924	15.059111	-0.047354	3.985472
176.579107	7046.559616	15.064115	-0.047373	3.985483
176.590945	7046.469343	15.069120	-0.047375	3.985457
176.772868	7045.318420	15.074125	-0.047419	3.985135
176.869525	7045.322429	15.079130	-0.047442	3.985136
176.631264	7045.291774	15.084135	-0.047384	3.985128
176.807446	7044.874745	15.089139	-0.047426	3.985011
176.803770	7044.172095	15.094144	-0.047425	3.984814
176.709916	7044.190400	15.099149	-0.047401	3.984819
176.743866	7044.234122	15.104154	-0.047410	3.984832
176.642706	7043.274345	15.109159	-0.047384	3.984563
176.649032	7043.088150	15.114163	-0.047385	3.984511
176.520676	7043.031506	15.119168	-0.047353	3.984495
176.467978	7043.074629	15.124173	-0.047340	3.984507
176.498290	7043.064794	15.129178	-0.047348	3.984505
176.575357	7042.416316	15.134183	-0.047366	3.984323
176.509541	7041.977635	15.139187	-0.047349	3.984200
176.675881	7041.959808	15.144192	-0.047389	3.984195
176.631419	7041.965073	15.149197	-0.047378	3.984197
176.743813	7041.988135	15.154202	-0.047406	3.984203
176.807008	7040.883571	15.159207	-0.047420	3.983893
176.993572	7040.872568	15.164211	-0.047465	3.983890
176.789455	7040.813195	15.169216	-0.047415	3.983874
176.869614	7039.834816	15.174221	-0.047434	3.983600
176.666788	7039.688502	15.179226	-0.047384	3.983559

176.592644	7039.643399	15.184231	-0.047366	3.983547
176.611702	7038.963462	15.189235	-0.047370	3.983356
176.482765	7038.570175	15.194240	-0.047338	3.983246
176.499451	7038.164503	15.199245	-0.047341	3.983133
176.543492	7037.489265	15.204250	-0.047351	3.982943
176.408088	7036.695821	15.209255	-0.047317	3.982721
176.630439	7036.096517	15.214259	-0.047371	3.982553
176.507635	7035.171723	15.219264	-0.047340	3.982294
176.670176	7034.040479	15.224269	-0.047379	3.981977
176.777405	7032.973585	15.229274	-0.047404	3.981678
176.632958	7031.663325	15.234279	-0.047367	3.981311
176.708133	7030.441526	15.239283	-0.047385	3.980969
176.787365	7029.149668	15.244288	-0.047403	3.980607
176.884957	7027.702087	15.249293	-0.047426	3.980201
176.844240	7025.975308	15.254298	-0.047414	3.979717
176.809609	7024.332308	15.259303	-0.047404	3.979256
176.774768	7022.500199	15.264307	-0.047394	3.978743
176.706004	7020.648078	15.269312	-0.047376	3.978224
176.613737	7018.790496	15.274317	-0.047352	3.977703
176.706657	7016.847478	15.279322	-0.047373	3.977158
176.557373	7014.671764	15.284327	-0.047335	3.976548
176.530147	7012.650691	15.289331	-0.047326	3.975981
176.380505	7010.770485	15.294336	-0.047288	3.975453
176.449469	7008.516938	15.299341	-0.047303	3.974821
176.449021	7006.281134	15.304346	-0.047301	3.974193
176.338611	7003.829315	15.309351	-0.047272	3.973505
176.339113	7001.486415	15.314355	-0.047271	3.972847
176.397849	6998.876316	15.319360	-0.047283	3.972114
176.377258	6996.309601	15.324365	-0.047276	3.971393
176.417045	6993.810360	15.329370	-0.047283	3.970691
176.492133	6991.035092	15.334375	-0.047300	3.969911
176.576920	6988.096008	15.339379	-0.047318	3.969085
176.489263	6985.041128	15.344384	-0.047294	3.968227
176.461800	6981.931716	15.349389	-0.047285	3.967353
176.501852	6978.804462	15.354394	-0.047292	3.966473
176.397375	6975.649440	15.359399	-0.047264	3.965586
176.540852	6972.506327	15.364403	-0.047297	3.964701
176.411700	6969.040896	15.369408	-0.047263	3.963726
176.359570	6965.535668	15.374413	-0.047247	3.962740
176.432537	6961.990867	15.379418	-0.047262	3.961742
176.276214	6958.455909	15.384423	-0.047221	3.960747
176.321124	6954.933825	15.389427	-0.047230	3.959754
176.081388	6951.115606	15.394432	-0.047168	3.958679
176.164150	6947.374011	15.399437	-0.047186	3.957624
176.210816	6943.535812	15.404442	-0.047194	3.956542
176.070915	6939.742210	15.409447	-0.047157	3.955473
176.259248	6935.795970	15.414451	-0.047200	3.954359
176.278562	6931.585764	15.419456	-0.047201	3.953171
176.207082	6927.365441	15.424461	-0.047181	3.951980
176.269165	6923.167873	15.429466	-0.047193	3.950795
176.082443	6918.838094	15.434471	-0.047144	3.949573
176.036648	6914.442747	15.439475	-0.047129	3.948331
176.062374	6909.941864	15.444480	-0.047132	3.947059
176.121351	6905.520928	15.449485	-0.047143	3.945809
176.158208	6900.920277	15.454490	-0.047149	3.944508
175.841148	6896.172331	15.459495	-0.047068	3.943166
175.926672	6891.519761	15.464499	-0.047085	3.941849
175.974005	6886.790338	15.469504	-0.047093	3.940510
175.909520	6881.906825	15.474509	-0.047073	3.939128
175.932316	6876.901806	15.479514	-0.047075	3.937710
175.817234	6871.896117	15.484519	-0.047043	3.936292
176.131962	6866.898543	15.489523	-0.047116	3.934875
176.100294	6861.521239	15.494528	-0.047105	3.933350
176.001228	6856.094217	15.499533	-0.047076	3.931811
176.162056	6850.899584	15.504538	-0.047112	3.930336
176.159913	6845.220684	15.509543	-0.047107	3.928724
176.123273	6839.568264	15.514547	-0.047094	3.927119
175.930302	6833.992744	15.519552	-0.047042	3.925535
176.057601	6828.194642	15.524557	-0.047069	3.923887
176.031239	6822.392274	15.529562	-0.047058	3.922237
175.877051	6816.489182	15.534567	-0.047016	3.920557
175.714208	6810.589772	15.539571	-0.046972	3.918878
175.757989	6804.648004	15.544576	-0.046978	3.917186
175.618195	6798.711017	15.549581	-0.046940	3.915495
175.577633	6792.710897	15.554586	-0.046925	3.913785
175.510757	6786.469295	15.559591	-0.046904	3.912006
175.387052	6780.512927	15.564595	-0.046870	3.910307
175.416887	6774.264828	15.569600	-0.046872	3.908524
175.451632	6767.969278	15.574605	-0.046876	3.906727
175.639452	6761.741996	15.579610	-0.046917	3.904948
175.456431	6755.117150	15.584615	-0.046868	3.903055
175.631085	6748.624931	15.589619	-0.046906	3.901199
175.584506	6741.965912	15.594624	-0.046889	3.899294
175.501544	6735.109561	15.599629	-0.046864	3.897332
175.500361	6728.542132	15.604634	-0.046859	3.895451
175.418675	6721.569479	15.609639	-0.046834	3.893454
175.412799	6714.720039	15.614643	-0.046827	3.891491
175.361359	6707.809971	15.619648	-0.046809	3.889509
175.296990	6700.669594	15.624653	-0.046788	3.887461
175.207540	6693.826669	15.629658	-0.046761	3.885496
175.210206	6686.579400	15.634663	-0.046757	3.883415
175.255920	6679.427104	15.639667	-0.046763	3.881360
175.142383	6672.126125	15.644672	-0.046729	3.879260
175.109176	6664.732265	15.649677	-0.046716	3.877133
175.098300	6657.486614	15.654682	-0.046708	3.875048
175.083876	6649.936009	15.659687	-0.046699	3.872873
175.214542	6642.515712	15.664691	-0.046725	3.870735
175.241088	6634.737313	15.669696	-0.046726	3.868493
175.190122	6627.037387	15.674701	-0.046708	3.866272
175.281401	6619.229784	15.679706	-0.046724	3.864018
175.032201	6611.288110	15.684711	-0.046658	3.861724
175.081957	6603.430547	15.689715	-0.046664	3.859453
175.058183	6595.379431	15.694720	-0.046652	3.857125
174.904546	6587.448351	15.699725	-0.046609	3.854830
174.865028	6579.318658	15.704730	-0.046593	3.852477
174.697563	6571.288554	15.709735	-0.046546	3.850150
174.645572	6563.108613	15.714739	-0.046528	3.847779
174.524008	6555.236626	15.719744	-0.046492	3.845496
174.391739	6546.980153	15.724749	-0.046454	3.843099
174.415716	6538.786816	15.729754	-0.046453	3.840720
174.273861	6530.379679	15.734759	-0.046413	3.838277
174.415193	6522.159216	15.739763	-0.046441	3.835887
174.406955	6513.611459	15.744768	-0.046433	3.833400
174.394065	6505.132550	15.749773	-0.046423	3.830931
174.636404	6496.408317	15.754778	-0.046476	3.828390
174.567707	6487.731141	15.759783	-0.046453	3.825860
174.612540	6478.824384	15.764787	-0.046457	3.823262
174.546076	6469.989958	15.769792	-0.046435	3.820683
174.505978	6460.876019	15.774797	-0.046418	3.818021
174.537818	6452.009026	15.779802	-0.046419	3.815429
174.298821	6442.793457	15.784807	-0.046354	3.812732
174.314138	6433.827043	15.789811	-0.046351	3.810108
174.129739	6424.648454	15.794816	-0.046300	3.807418
174.038060	6415.599984	15.799821	-0.046271	3.804766
174.058791	6406.377859	15.804826	-0.046269	3.802060
173.881004	6397.046620	15.809831	-0.046219	3.799321
173.872128	6387.858298	15.814835	-0.046210	3.796621
173.724101	6378.529610	15.819840	-0.046167	3.793878
173.765145	6369.201145	15.824845	-0.046170	3.791134
173.881936	6359.701427	15.829850	-0.046191	3.788338
173.745137	6350.294607	15.834855	-0.046151	3.785566
173.794731	6340.661529	15.839859	-0.046156	3.782726
173.711978	6331.006801	15.844864	-0.046129	3.779876
173.631142	6321.324508	15.849869	-0.046102	3.777017
173.616517	6311.626487	15.854874	-0.046091	3.774151
173.559879	6301.820384	15.859879	-0.046070	3.771251
173.660863	6291.933080	15.864883	-0.046088	3.768325
173.538858	6282.030423	15.869888	-0.046051	3.765391
173.506745	6271.953114	15.874893	-0.046036	3.762404
173.526928	6261.873555	15.879898	-0.046033	3.759413
173.348208	6251.796772	15.884903	-0.045982	3.756420
173.448352	6241.620697	15.889907	-0.045999	3.753397
173.311543	6231.432546	15.894912	-0.045958	3.750367
173.268912	6221.195572	15.899917	-0.045940	3.747320
173.282086	6210.957628	15.904922	-0.045936	3.744270
173.192834	6200.590585	15.909927	-0.045907	3.741179
173.079458	6190.198088	15.914931	-0.045871	3.738077
173.130946	6179.801927	15.919936	-0.045876	3.734973
172.957449	6169.294248	15.924941	-0.045826	3.731832
172.780244	6158.839423	15.929946	-0.045775	3.728704
172.776362	6148.445468	15.934951	-0.045767	3.725592
172.815019	6137.833383	15.939955	-0.045768	3.722413
172.661685	6127.140441	15.944960	-0.045723	3.719205
172.506953	6116.578509	15.949965	-0.045678	3.716034
172.585740	6105.925432	15.954970	-0.045689	3.712834
172.397281	6095.144765	15.959975	-0.045635	3.709592
172.398140	6084.548097	15.964979	-0.045628	3.706403
172.434489	6073.671776	15.969984	-0.045629	3.703127
172.349385	6062.727952	15.974989	-0.045600	3.699828
172.220680	6051.913844	15.979994	-0.045560	3.696564
172.288646	6040.930425	15.984999	-0.045569	3.693247
172.326980	6029.899689	15.990003	-0.045570	3.689913
172.336190	6018.867191	15.995008	-0.045565	3.686576
172.322884	6007.516477	16.000013	-0.045553	3.683138
172.415294	5996.255256	16.005018	-0.045567	3.679726
172.307562	5984.866184	16.010023	-0.045533	3.676270
172.238252	5973.515762	16.015027	-0.045508	3.672822
172.199661	5962.051091	16.020032	-0.045490	3.669337
172.112923	5950.672382	16.025037	-0.045460	3.665875
172.067205	5939.186664	16.030042	-0.045441	3.662376
171.805492	5927.615049	16.035047	-0.045368	3.658847
171.741739	5916.179612	16.040051	-0.045344	3.655357
171.596189	5904.743990	16.045056	-0.045301	3.651863
171.512345	5893.152451	16.050061	-0.045272	3.648319
171.550425	5881.668941	16.055066	-0.045273	3.644805
171.327925	5870.014020	16.060071	-0.045210	3.641233
171.430851	5858.365912	16.065075	-0.045226	3.637663
171.453071	5846.643970	16.070080	-0.045223	3.634065
171.523057	5834.777916	16.075085	-0.045232	3.630420
171.497554	5822.982249	16.080090	-0.045217	3.626792
171.598718	5810.926178	16.085095	-0.045233	3.623082
171.554326	5798.859273	16.090099	-0.045213	3.619363
171.441026	5786.826055	16.095104	-0.045177	3.615650
171.374371	5774.697810	16.100109	-0.045152	3.611904
171.237820	5762.606514	16.105114	-0.045110	3.608165
171.053845	5750.407289	16.110119	-0.045056	3.604389
170.899166	5738.250321	16.115123	-0.045009	3.600621
170.869681	5726.185838	16.120128	-0.044993	3.596880
170.755966	5713.951629	16.125133	-0.044956	3.593081
170.731745	5701.768786	16.130138	-0.044942	3.589295
170.586517	5689.530493	16.135143	-0.044897	3.585486
170.644670	5677.276682	16.140147	-0.044902	3.581671
170.706896	5664.953691	16.145152	-0.044909	3.577830
170.700746	5652.450200	16.150157	-0.044898	3.573928
170.656679	5640.023577	16.155162	-0.044878	3.570045
170.572759	5627.546028	16.160167	-0.044849	3.566142
170.657317	5614.943910	16.165171	-0.044860	3.562197
170.582005	5602.317436	16.170176	-0.044833	3.558238
170.572488	5589.549661	16.175181	-0.044821	3.554231
170.315887	5576.893432	16.180186	-0.044749	3.550252
170.233137	5564.239444	16.185191	-0.044720	3.546271
170.014351	5551.568977	16.190195	-0.044657	3.542279
169.965896	5538.906771	16.195200	-0.044636	3.538287
169.833908	5526.168057	16.200205	-0.044595	3.534265
169.897911	5513.442601	16.205210	-0.044601	3.530245
169.660798	5500.644263	16.210215	-0.044534	3.526194
169.512863	5487.855483	16.215219	-0.044488	3.522143
169.501239	5475.088143	16.220224	-0.044476	3.518095
169.440257	5462.222417	16.225229	-0.044452	3.514010
169.431814	5449.359845	16.230234	-0.044440	3.509922
169.354826	5436.443386	16.235239	-0.044412	3.505812
169.524565	5423.453000	16.240243	-0.044444	3.501676
169.606006	5410.380612	16.245248	-0.044455	3.497508
169.468751	5397.192874	16.250253	-0.044412	3.493296
169.530914	5384.058889	16.255258	-0.044417	3.489098
169.409627	5370.790323	16.260263	-0.044378	3.484850
169.356855	5357.492358	16.265267	-0.044355	3.480587
169.240003	5344.243578	16.270272	-0.044317	3.476335
169.177648	5330.945679	16.275277	-0.044292	3.472062
169.181892	5317.673976	16.280282	-0.044284	3.467794
169.057274	5304.228486	16.285287	-0.044244	3.463462
169.002841	5290.822035	16.290291	-0.044221	3.459138
168.912299	5277.450422	16.295296	-0.044189	3.454820
168.751161	5263.992578	16.300301	-0.044140	3.450467
168.648981	5250.620561	16.305306	-0.044105	3.446137
168.538144	5237.132018	16.310311	-0.044068	3.441764
168.382874	5223.695439	16.315315	-0.044020	3.437402
168.342423	5210.231420	16.320320	-0.044001	3.433027
168.340052	5196.734900	16.325325	-0.043990	3.428636
168.346816	5183.227483	16.330330	-0.043982	3.424236
168.251988	5169.598730	16.335335	-0.043949	3.419790
168.245987	5155.959701	16.340339	-0.043938	3.415335
168.240684	5142.324142	16.345344	-0.043927	3.410876
168.197697	5128.636790	16.350349	-0.043906	3.406393
168.185362	5114.837557	16.355354	-0.043893	3.401869
168.082874	5101.062079	16.360359	-0.043858	3.397344
168.030044	5087.230476	16.365363	-0.043835	3.392796
168.042774	5073.418006	16.370368	-0.043828	3.388249
167.801092	5059.530855	16.375373	-0.043759	3.383667
167.874215	5045.695006	16.380378	-0.043767	3.379101
167.588058	5031.784763	16.385383	-0.043687	3.374499
167.449827	5017.945537	16.390387	-0.043643	3.369916
167.420561	5004.064090	16.395392	-0.043626	3.365314
167.280336	4990.086206	16.400397	-0.043581	3.360672
167.198590	4976.232642	16.405402	-0.043551	3.356066
167.007180	4962.290572	16.410407	-0.043495	3.351423
167.012150	4948.407128	16.415411	-0.043486	3.346796
166.993286	4934.435743	16.420416	-0.043471	3.342132
167.055953	4920.367452	16.425421	-0.043476	3.337431
167.040923	4906.361404	16.430426	-0.043462	3.332743
167.044004	4892.265186	16.435431	-0.043453	3.328019
167.059473	4878.031227	16.440435	-0.043446	3.323242
167.048678	4863.814561	16.445440	-0.043433	3.318463
167.049357	4849.465758	16.450445	-0.043423	3.313633
166.895948	4835.253048	16.455450	-0.043375	3.308839
166.767106	4820.906287	16.460455	-0.043333	3.303993
166.821707	4806.579385	16.465459	-0.043336	3.299150
166.562063	4792.290759	16.470464	-0.043263	3.294307
166.348318	4777.982078	16.475469	-0.043200	3.289450
166.267900	4763.725487	16.480474	-0.043170	3.284607
166.115275	4749.410808	16.485479	-0.043122	3.279736
166.051452	4735.101271	16.490483	-0.043096	3.274860
165.951932	4720.846347	16.495488	-0.043062	3.269996
165.782669	4706.531114	16.500493	-0.043010	3.265102
165.941746	4692.198403	16.505498	-0.043038	3.260201
165.858640	4677.780848	16.510503	-0.043008	3.255259
165.897844	4663.365922	16.515507	-0.043007	3.250313
165.918372	4648.895110	16.520512	-0.043001	3.245339
165.916025	4634.295656	16.525517	-0.042990	3.240313
165.793943	4619.751730	16.530522	-0.042950	3.235296
165.863733	4605.168659	16.535527	-0.042956	3.230262
165.745370	4590.512920	16.540531	-0.042917	3.225191
165.602540	4575.905339	16.545536	-0.042871	3.220128
165.585233	4561.231854	16.550541	-0.042856	3.215036
165.474308	4546.610167	16.555546	-0.042819	3.209953
165.389972	4531.859446	16.560551	-0.042787	3.204817
165.361070	4517.146711	16.565555	-0.042770	3.199687
165.274662	4502.418535	16.570560	-0.042738	3.194542
165.102817	4487.688658	16.575565	-0.042685	3.189386
165.040198	4472.970992	16.580570	-0.042659	3.184229
164.948091	4458.259673	16.585575	-0.042626	3.179065
164.852697	4443.514887	16.590579	-0.042592	3.173881
164.791510	4428.843351	16.595584	-0.042567	3.168714
164.634863	4414.022789	16.600589	-0.042518	3.163485
164.701778	4399.277662	16.605594	-0.042523	3.158278
164.574463	4384.462746	16.610599	-0.042481	3.153034
164.455139	4369.673813	16.615603	-0.042442	3.147790
164.415731	4354.893469	16.620608	-0.042421	3.142543
164.197142	4340.068976	16.625613	-0.042357	3.137266
164.297951	4325.260871	16.630618	-0.042371	3.131995
164.133700	4310.408322	16.635623	-0.042320	3.126692
164.092888	4295.485815	16.640627	-0.042299	3.121358
164.062783	4280.636882	16.645632	-0.042281	3.116042
163.891502	4265.726218	16.650637	-0.042229	3.110690
163.900844	4250.851562	16.655642	-0.042220	3.105347
163.733536	4235.965284	16.660647	-0.042168	3.099986
163.796429	4221.003013	16.665651	-0.042173	3.094594
163.821785	4206.120536	16.670656	-0.042168	3.089221
163.655842	4191.083435	16.675661	-0.042117	3.083777
163.615402	4176.094555	16.680666	-0.042096	3.078345
163.492961	4161.103190	16.685671	-0.042055	3.072899
163.361661	4146.110041	16.690675	-0.042012	3.067443
163.431629	4131.138498	16.695680	-0.042019	3.061991
163.253187	4116.074317	16.700685	-0.041964	3.056488
163.254015	4101.047393	16.705690	-0.041954	3.050994
163.015849	4085.989593	16.710695	-0.041884	3.045472
162.979999	4070.932388	16.715699	-0.041865	3.039945
162.993775	4055.908861	16.720704	-0.041857	3.034423
162.856285	4040.829848	16.725709	-0.041813	3.028866
162.756010	4025.771453	16.730714	-0.041777	3.023306
162.672181	4010.711694	16.735719	-0.041746	3.017737
162.677868	3995.606896	16.740723	-0.041736	3.012143
162.560019	3980.553644	16.745728	-0.041697	3.006555
162.544278	3965.395139	16.750733	-0.041682	3.000920
162.532442	3950.239682	16.755738	-0.041668	2.995275
162.507592	3935.113884	16.760743	-0.041651	2.989630
162.279864	3919.933399	16.765747	-0.041584	2.983948
162.298378	3904.842299	16.770752	-0.041578	2.978297
162.124439	3889.626413	16.775757	-0.041524	2.972581
161.957352	3874.533136	16.780762	-0.041473	2.966901
161.862021	3859.377578	16.785767	-0.041438	2.961189
161.885538	3844.217278	16.790771	-0.041433	2.955467
161.808977	3829.150139	16.795776	-0.041404	2.949767
161.569369	3813.935268	16.800781	-0.041334	2.943994
161.778909	3798.817623	16.805786	-0.041374	2.938261
161.527355	3783.666853	16.810791	-0.041302	2.932490
161.387177	3768.502896	16.815795	-0.041257	2.926705
161.405015	3753.362543	16.820800	-0.041250	2.920924
161.246119	3738.181347	16.825805	-0.041200	2.915109
161.330358	3723.052976	16.830810	-0.041210	2.909311
161.273368	3707.826007	16.835815	-0.041185	2.903459
161.199461	3692.590805	16.840819	-0.041156	2.897591
161.287554	3677.338011	16.845824	-0.041166	2.891710
161.092873	3661.990840	16.850829	-0.041108	2.885771
161.086818	3646.745290	16.855834	-0.041095	2.879865
161.030819	3631.441567	16.860839	-0.041070	2.873923
160.889450	3616.158141	16.865843	-0.041025	2.867973
160.774396	3600.912153	16.870848	-0.040986	2.862027
160.591949	3585.638737	16.875853	-0.040930	2.856055
160.546562	3570.513791	16.880858	-0.040908	2.850133
160.524734	3555.203428	16.885863	-0.040892	2.844128
160.192613	3539.965678	16.890867	-0.040799	2.838126
160.148103	3524.858473	16.895872	-0.040778	2.832174
159.952819	3509.643291	16.900877	-0.040719	2.826161
159.883089	3494.558331	16.905882	-0.040691	2.820191
159.932360	3479.405092	16.910887	-0.040692	2.814187
159.890915	3464.160181	16.915891	-0.040671	2.808129
159.800219	3448.979593	16.920896	-0.040638	2.802082
159.714921	3433.758650	16.925901	-0.040606	2.796006
159.712725	3418.593982	16.930906	-0.040594	2.789942
159.560004	3403.379725	16.935911	-0.040546	2.783840
159.585203	3388.141897	16.940915	-0.040541	2.777721
159.673250	3372.960073	16.945920	-0.040552	2.771614
159.535326	3357.669342	16.950925	-0.040507	2.765441
159.492674	3342.417294	16.955930	-0.040485	2.759273
159.378529	3327.164209	16.960935	-0.040446	2.753088
159.237108	3311.902184	16.965939	-0.040401	2.746884
159.023906	3296.779332	16.970944	-0.040338	2.740720
159.035520	3281.527284	16.975949	-0.040330	2.734499
158.841169	3266.341569	16.980954	-0.040271	2.728282
158.850769	3251.133298	16.985959	-0.040262	2.722049
158.489420	3236.001715	16.990963	-0.040163	2.715819
158.613952	3220.899840	16.995968	-0.040183	2.709607
158.611224	3205.667279	17.000973	-0.040171	2.703321
158.560133	3190.488738	17.005978	-0.040148	2.697041
158.390036	3175.414436	17.010983	-0.040095	2.690784
158.378547	3160.194400	17.015987	-0.040081	2.684459
158.365428	3145.026878	17.020992	-0.040067	2.678140
158.137868	3129.887946	17.025997	-0.040000	2.671810
158.167532	3114.742185	17.031002	-0.039997	2.665472
158.097135	3099.611843	17.036007	-0.039969	2.659122
157.958779	3084.418202	17.041011	-0.039924	2.652726
157.950087	3069.273301	17.046016	-0.039911	2.646342
157.791177	3054.121007	17.051021	-0.039861	2.639932
157.694566	3039.007764	17.056026	-0.039826	2.633526
157.511249	3023.955138	17.061031	-0.039771	2.627126
157.533502	3008.861995	17.066035	-0.039765	2.620702
157.478484	2993.825977	17.071040	-0.039741	2.614284
157.279396	2978.717773	17.076045	-0.039681	2.607811
157.159877	2963.741381	17.081050	-0.039641	2.601384
157.180597	2948.708956	17.086055	-0.039635	2.594922
157.129855	2933.633618	17.091059	-0.039612	2.588423
157.139667	2918.613952	17.096064	-0.039604	2.581934
157.132234	2903.537483	17.101069	-0.039591	2.575403
157.117417	2888.425399	17.106074	-0.039576	2.568840
157.164318	2873.287298	17.111079	-0.039577	2.562252
156.984450	2858.170939	17.116083	-0.039522	2.555645
156.879368	2843.107777	17.121088	-0.039485	2.549048
156.720244	2828.029488	17.126093	-0.039436	2.542425
156.574680	2813.049344	17.131098	-0.039389	2.535827
156.503924	2798.056583	17.136103	-0.039361	2.529211
156.269407	2783.082570	17.141107	-0.039293	2.522578
156.289926	2768.150578	17.146112	-0.039287	2.515958
155.914116	2753.258786	17.151117	-0.039184	2.509319
156.024747	2738.385594	17.156122	-0.039201	2.502695
155.859150	2723.508357	17.161127	-0.039149	2.496037
155.685647	2708.606856	17.166131	-0.039096	2.489351
155.663838	2693.802573	17.171136	-0.039080	2.482698
155.609396	2678.956723	17.176141	-0.039056	2.476006
155.598664	2664.115813	17.181146	-0.039043	2.469301
155.674395	2649.270448	17.186151	-0.039051	2.462581
155.535171	2634.431559	17.191155	-0.039006	2.455833
155.630292	2619.560885	17.196160	-0.039018	2.449065
155.590917	2604.696911	17.201165	-0.038998	2.442274
155.554364	2589.826986	17.206170	-0.038978	2.435461
155.361776	2574.993567	17.211175	-0.038920	2.428638
155.107120	2560.224165	17.216179	-0.038847	2.421820
154.985378	2545.494509	17.221184	-0.038807	2.415010
154.923137	2530.728867	17.226189	-0.038781	2.408167
154.830165	2515.999295	17.231194	-0.038748	2.401319
154.689020	2501.319786	17.236199	-0.038703	2.394472
154.571985	2486.650375	17.241203	-0.038663	2.387612
154.614068	2471.993086	17.246208	-0.038663	2.380747
154.630756	2457.311503	17.251213	-0.038657	2.373849
154.602915	2442.635456	17.256218	-0.038639	2.366931
154.412973	2427.977210	17.261223	-0.038582	2.359992
154.251925	2413.393803	17.266227	-0.038532	2.353069
154.408869	2398.781040	17.271232	-0.038560	2.346130
154.284150	2384.162104	17.276237	-0.038519	2.339152
154.190689	2369.570209	17.281242	-0.038485	2.332167
154.056826	2354.961642	17.286247	-0.038442	2.325150
153.929158	2340.426621	17.291251	-0.038400	2.318149
153.761261	2325.932737	17.296256	-0.038349	2.311143
153.427839	2311.529148	17.301261	-0.038257	2.304149
153.385645	2297.165918	17.306266	-0.038236	2.297172
153.330673	2282.778234	17.311271	-0.038212	2.290161
153.195912	2268.431008	17.316275	-0.038169	2.283142
153.096915	2254.126514	17.321280	-0.038135	2.276126
153.022316	2239.832565	17.326285	-0.038106	2.269094
153.190282	2225.491281	17.331290	-0.038137	2.262033
153.168814	2211.137317	17.336295	-0.038121	2.254932
153.015420	2196.761235	17.341299	-0.038073	2.247788
153.034039	2182.442879	17.346304	-0.038067	2.240661
152.985699	2168.133369	17.351309	-0.038045	2.233512
153.008600	2153.805095	17.356314	-0.038040	2.226335
152.878961	2139.547133	17.361319	-0.037998	2.219160
152.793888	2125.260473	17.366323	-0.037967	2.211950
152.749671	2111.033416	17.371328	-0.037946	2.204749
152.538765	2096.833344	17.376333	-0.037884	2.197527
152.451678	2082.642230	17.381338	-0.037853	2.190294
152.273473	2068.566886	17.386343	-0.037799	2.183090
152.005984	2054.484398	17.391347	-0.037723	2.175853
151.897317	2040.467886	17.396352	-0.037687	2.168636
151.746024	2026.437835	17.401357	-0.037639	2.161385
151.637284	2012.536113	17.406362	-0.037603	2.154179
151.534914	1998.599716	17.411367	-0.037568	2.146931
151.445791	1984.711303	17.416371	-0.037536	2.139685
151.551385	1970.817893	17.421376	-0.037551	2.132425
151.439354	1956.911385	17.426381	-0.037514	2.125118
151.334099	1943.064563	17.431386	-0.037478	2.117818
151.364459	1929.237989	17.436391	-0.037476	2.110513
151.268616	1915.398475	17.441395	-0.037442	2.103167
151.234130	1901.602529	17.446400	-0.037424	2.095822
151.082515	1887.769362	17.451405	-0.037377	2.088423
151.018592	1874.010418	17.456410	-0.037351	2.081044
150.982343	1860.302727	17.461415	-0.037332	2.073668
150.776813	1846.568908	17.466419	-0.037272	2.066239
150.745636	1832.953804	17.471424	-0.037255	2.058861
150.704910	1819.285381	17.476429	-0.037235	2.051427
150.571751	1805.666357	17.481434	-0.037192	2.043985
150.585783	1792.083210	17.486439	-0.037186	2.036547
150.490907	1778.484829	17.491443	-0.037153	2.029065
150.457674	1764.955681	17.496448	-0.037135	2.021599
150.379092	1751.401475	17.501453	-0.037106	2.014087
150.426641	1737.819772	17.506458	-0.037108	2.006542
150.395455	1724.331516	17.511463	-0.037090	1.999014
150.037386	1710.874593	17.516467	-0.036993	1.991448
150.005943	1697.495779	17.521472	-0.036976	1.983925
149.872691	1684.139322	17.526477	-0.036933	1.976377
149.719481	1670.808329	17.531482	-0.036886	1.968813
149.526925	1657.571229	17.536487	-0.036830	1.961269
149.364153	1644.336049	17.541491	-0.036780	1.953700
149.247144	1631.199586	17.546496	-0.036742	1.946162
149.054335	1618.067171	17.551501	-0.036685	1.938591
148.882852	1604.964702	17.556506	-0.036634	1.931009
148.912087	1591.874072	17.561511	-0.036632	1.923421
148.842744	1578.841224	17.566515	-0.036605	1.915828
148.800289	1565.813879	17.571520	-0.036585	1.908211
148.805618	1552.818558	17.576525	-0.036577	1.900586
148.872888	1539.789226	17.581530	-0.036584	1.892916
148.738275	1526.829734	17.586535	-0.036542	1.885238
148.816710	1513.836941	17.591539	-0.036552	1.877528
148.777519	1500.919700	17.596544	-0.036533	1.869820
148.678243	1487.992030	17.601549	-0.036499	1.862069
148.495681	1475.126591	17.606554	-0.036445	1.854315
148.544876	1462.275122	17.611559	-0.036448	1.846559
148.423117	1449.444478	17.616563	-0.036409	1.838766
148.295905	1436.704174	17.621568	-0.036368	1.830995
148.210840	1423.950131	17.626573	-0.036338	1.823186
147.959490	1411.328017	17.631578	-0.036268	1.815409
147.953018	1398.684287	17.636583	-0.036257	1.807609
147.769852	1386.095926	17.641587	-0.036203	1.799792
147.693194	1373.565042	17.646592	-0.036175	1.791987
147.503473	1361.075051	17.651597	-0.036120	1.784162
147.385307	1348.637218	17.656602	-0.036082	1.776343
147.240444	1336.224564	17.661607	-0.036037	1.768502
147.239623	1323.818030	17.666611	-0.036028	1.760645
147.242358	1311.465718	17.671616	-0.036020	1.752787
147.164588	1299.132438	17.676621	-0.035992	1.744898
147.058408	1286.864534	17.681626	-0.035957	1.737012
147.113986	1274.572549	17.686631	-0.035962	1.729091
147.035621	1262.330634	17.691635	-0.035934	1.721152
146.955726	1250.127728	17.696640	-0.035905	1.713202
146.742743	1238.007292	17.701645	-0.035844	1.705255
146.654868	1225.891703	17.706650	-0.035814	1.697287
146.571399	1213.816022	17.711655	-0.035785	1.689308
146.494213	1201.790740	17.716659	-0.035757	1.681325
146.380627	1189.818148	17.721664	-0.035721	1.673336
146.145477	1177.916167	17.726669	-0.035655	1.665342
146.073118	1166.064824	17.731674	-0.035628	1.657362
146.085969	1154.213843	17.736679	-0.035623	1.649352
145.952783	1142.397752	17.741683	-0.035582	1.641311
145.901997	1130.645802	17.746688	-0.035561	1.633283
145.807620	1118.923966	17.751693	-0.035529	1.625232
145.705968	1107.231825	17.756698	-0.035496	1.617160
145.571330	1095.585959	17.761703	-0.035454	1.609076
145.609736	1083.942037	17.766707	-0.035455	1.600972
145.580450	1072.376707	17.771712	-0.035440	1.592874
145.540420	1060.812767	17.776717	-0.035421	1.584735
145.288956	1049.365829	17.781722	-0.035352	1.576612
145.327241	1037.897645	17.786727	-0.035353	1.568465
145.108140	1026.510033	17.791731	-0.035291	1.560303
145.099118	1015.168672	17.796736	-0.035280	1.552157
144.950041	1003.875363	17.801741	-0.035236	1.543986
144.751912	992.615151	17.806746	-0.035179	1.535789
144.769629	981.406793	17.811751	-0.035175	1.527612
144.574864	970.256780	17.816755	-0.035120	1.519408
144.560556	959.134473	17.821760	-0.035108	1.511202
144.437904	948.098874	17.826765	-0.035070	1.503003
144.361380	937.056873	17.831770	-0.035043	1.494759
144.269185	926.097077	17.836775	-0.035013	1.486529
144.203888	915.156441	17.841779	-0.034989	1.478272
144.140740	904.266242	17.846784	-0.034965	1.470006
144.020245	893.440237	17.851789	-0.034928	1.461736
143.907697	882.621190	17.856794	-0.034893	1.453425
143.948989	871.844043	17.861799	-0.034895	1.445118
143.937836	861.100260	17.866803	-0.034884	1.436783
143.719858	850.461063	17.871808	-0.034823	1.428453
143.669177	839.843302	17.876813	-0.034803	1.420113
143.636604	829.236199	17.881818	-0.034787	1.411735
143.565421	818.727583	17.886823	-0.034762	1.403381
143.477409	808.225740	17.891827	-0.034733	1.394979
143.289733	797.815376	17.896832	-0.034680	1.386586
143.223372	787.448131	17.901837	-0.034656	1.378194
143.113609	777.096956	17.906842	-0.034621	1.369757
142.972942	766.848557	17.911847	-0.034580	1.361348
142.777262	756.647392	17.916851	-0.034524	1.352918
142.756206	746.499041	17.921856	-0.034512	1.344504
142.663227	736.398433	17.926861	-0.034482	1.336067
142.417705	726.365446	17.931866	-0.034414	1.327610
142.553534	716.362801	17.936871	-0.034440	1.319181
142.271586	706.419312	17.941875	-0.034364	1.310686
142.210114	696.579481	17.946880	-0.034342	1.302258
142.133224	686.734327	17.951885	-0.034316	1.293768
142.096178	676.912235	17.956890	-0.034300	1.285248
142.006225	667.175694	17.961895	-0.034270	1.276737
141.878777	657.470615	17.966899	-0.034232	1.268192
141.863889	647.842509	17.971904	-0.034221	1.259674
141.613508	638.273482	17.976909	-0.034153	1.251114
141.458734	628.762116	17.981914	-0.034109	1.242561
141.305489	619.343062	17.986919	-0.034064	1.234034
141.233005	609.933786	17.991923	-0.034040	1.225469
140.956948	600.623113	17.996928	-0.033965	1.216901
140.807913	591.370342	18.001933	-0.033922	1.208346
140.786718	582.158072	18.006938	-0.033910	1.199789
140.625645	573.025329	18.011943	-0.033864	1.191223
140.544013	563.934005	18.016947	-0.033837	1.182646
140.505479	554.886938	18.021952	-0.033821	1.174056
140.479205	545.897513	18.026957	-0.033808	1.165461
140.371303	536.946114	18.031962	-0.033775	1.156824
140.223296	528.085587	18.036967	-0.033733	1.148203
140.018128	519.290658	18.041971	-0.033676	1.139572
139.852561	510.540639	18.046976	-0.033629	1.130926
139.595832	501.893855	18.051981	-0.033560	1.122299
139.422430	493.291421	18.056986	-0.033511	1.113665
139.200437	484.807799	18.061991	-0.033451	1.105075
138.730377	476.416234	18.066995	-0.033330	1.096466
138.626077	468.057443	18.072000	-0.033298	1.087890
138.253138	459.831226	18.077005	-0.033201	1.079332
137.886662	451.682900	18.082010	-0.033106	1.070789
137.645270	443.599557	18.087015	-0.033041	1.062269
137.453725	435.545725	18.092019	-0.032988	1.053721
137.306675	427.594644	18.097024	-0.032946	1.045222
137.120368	419.689844	18.102029	-0.032895	1.036695
136.828337	411.880951	18.107034	-0.032818	1.028180
136.584927	404.173010	18.112039	-0.032752	1.019715
136.369147	396.486708	18.117043	-0.032694	1.011208
136.233961	388.881793	18.122048	-0.032655	1.002736
136.015162	381.337985	18.127053	-0.032596	0.994243
135.820031	373.863152	18.132058	-0.032543	0.985760
135.668777	366.439394	18.137063	-0.032501	0.977272
135.480516	359.067340	18.142067	-0.032449	0.968760
135.284379	351.794945	18.147072	-0.032396	0.960287
134.872967	344.635747	18.152077	-0.032290	0.951825
134.684024	337.509534	18.157082	-0.032239	0.943375
134.453451	330.469641	18.162087	-0.032177	0.934942
134.036949	323.527136	18.167091	-0.032070	0.926508
133.735252	316.662053	18.172096	-0.031991	0.918117
133.482533	309.864891	18.177101	-0.031925	0.909743
133.346889	303.095884	18.182106	-0.031886	0.901353
133.122167	296.410367	18.187111	-0.031827	0.892968
132.754658	289.816122	18.192115	-0.031732	0.884585
132.633865	283.278841	18.197120	-0.031698	0.876253
132.454500	276.798092	18.202125	-0.031649	0.867900
132.077885	270.417550	18.207130	-0.031552	0.859547
131.971488	264.083105	18.212135	-0.031521	0.851240
131.591765	257.848591	18.217139	-0.031424	0.842915
131.438687	251.642389	18.222144	-0.031382	0.834602
131.250220	245.518563	18.227149	-0.031331	0.826308
131.022091	239.439896	18.232154	-0.031271	0.817981
130.844876	233.432795	18.237159	-0.031223	0.809681
130.504853	227.522145	18.242163	-0.031136	0.801386
130.335338	221.654975	18.247168	-0.031090	0.793111
130.129265	215.864081	18.252173	-0.031035	0.784847
129.679307	210.172456	18.257178	-0.030921	0.776572
129.658132	204.495296	18.262183	-0.030912	0.768347
129.461399	198.884680	18.267187	-0.030859	0.760082
129.280174	193.351370	18.272192	-0.030811	0.751845
129.181586	187.849050	18.277197	-0.030783	0.743587
128.808994	182.446288	18.282202	-0.030688	0.735308
128.769840	177.079065	18.287207	-0.030674	0.727088
128.506352	171.789002	18.292211	-0.030606	0.718826
128.384936	166.547402	18.297216	-0.030572	0.710588
128.061288	161.424100	18.302221	-0.030489	0.702379
127.828143	156.324506	18.307226	-0.030428	0.694140
127.688681	151.285279	18.312231	-0.030390	0.685929
127.261433	146.364811	18.317235	-0.030282	0.677723
126.933387	141.504906	18.322240	-0.030198	0.669550
126.725000	136.680654	18.327245	-0.030144	0.661375
126.487465	131.920952	18.332250	-0.030082	0.653198
126.355343	127.218026	18.337255	-0.030046	0.645051
126.050717	122.591911	18.342259	-0.029968	0.636876
125.865259	118.026378	18.347264	-0.029920	0.628743
125.888649	113.470414	18.352269	-0.029922	0.620594
125.652864	109.009411	18.357274	-0.029861	0.612418
125.413824	104.631444	18.362279	-0.029799	0.604284
125.109475	100.312706	18.367283	-0.029722	0.596126
124.967811	96.042951	18.372288	-0.029684	0.588008
124.711460	91.833564	18.377293	-0.029618	0.579850
124.374570	87.713690	18.382298	-0.029532	0.571721
124.290552	83.631119	18.387303	-0.029509	0.563644
124.014254	79.615204	18.392307	-0.029438	0.555510
123.664725	75.702197	18.397312	-0.029350	0.547436
123.642126	71.783047	18.402317	-0.029341	0.539359
123.360132	67.954848	18.407322	-0.029269	0.531245
123.188858	64.191826	18.412327	-0.029225	0.523191
123.081706	60.454920	18.417331	-0.029195	0.515094
122.868632	56.802535	18.422336	-0.029141	0.507009
122.664143	53.208953	18.427341	-0.029088	0.498929
122.383692	49.682165	18.432346	-0.029017	0.490833
122.032433	46.248335	18.437351	-0.028928	0.482786
121.678413	42.875313	18.442355	-0.028839	0.474744
121.370787	39.565935	18.447360	-0.028761	0.466737
121.116297	36.312319	18.452365	-0.028697	0.458752
120.541011	33.180264	18.457370	-0.028554	0.450772
120.111842	30.106293	18.462375	-0.028446	0.442866
119.735871	27.087686	18.467379	-0.028352	0.434985
119.299810	24.142300	18.472384	-0.028243	0.427120
118.982040	21.239733	18.477389	-0.028163	0.419283
118.444427	18.442396	18.482394	-0.028030	0.411466
118.026830	15.708379	18.487399	-0.027925	0.403738
117.179814	13.113941	18.492403	-0.027716	0.396016
116.366407	10.613549	18.497408	-0.027516	0.388430
115.446185	8.209389	18.502413	-0.027289	0.380914
114.327143	5.924154	18.507418	-0.027014	0.373486
112.935011	3.805399	18.512423	-0.026672	0.366252
111.879120	1.702525	18.517427	-0.026412	0.359126
110.900891	-0.333893	18.522432	-0.026171	0.352115
109.358480	-2.166902	18.527437	-0.025793	0.345263
107.838119	-3.920097	18.532442	-0.025420	0.338549
105.379590	-5.383096	18.537447	-0.024818	0.332058
90.723845	-4.147328	18.542451	-0.021238	0.326492
85.287056	-4.221295	18.547456	-0.019909	0.322558
78.049627	-3.716175	18.552461	-0.018141	0.319367
74.327069	-3.709676	18.557466	-0.017231	0.316819
71.232937	-3.668276	18.562471	-0.016475	0.314812
67.870968	-3.455508	18.567475	-0.015654	0.313218
66.319442	-3.530858	18.572480	-0.015274	0.311856
64.418637	-3.461196	18.577485	-0.014810	0.310764
62.589322	-3.350978	18.582490	-0.014362	0.309866
61.989972	-3.436641	18.587495	-0.014216	0.309129
60.951775	-3.389616	18.592499	-0.013962	0.308560
59.892192	-3.337448	18.597504	-0.013703	0.307993
58.876513	-3.245012	18.602509	-0.013454	0.307604
58.708063	-3.319446	18.607514	-0.013413	0.307211
58.253248	-3.320006	18.612519	-0.013302	0.306883
57.548381	-3.265105	18.617523	-0.013129	0.306577
57.770283	-3.379722	18.622528	-0.013183	0.306317
57.453597	-3.400566	18.627533	-0.013106	0.306012
57.105390	-3.412494	18.632538	-0.013020	0.305717
56.793802	-3.408271	18.637543	-0.012944	0.305508
56.473017	-3.407147	18.642547	-0.012865	0.305281
56.250568	-3.435665	18.647552	-0.012811	0.305015
55.398151	-3.294528	18.652557	-0.012602	0.304918
54.759142	-3.233391	18.657562	-0.012446	0.304681
54.993983	-3.275642	18.662567	-0.012503	0.304695
54.067195	-3.096189	18.667571	-0.012276	0.304685
53.660233	-3.015442	18.672576	-0.012177	0.304688
53.789409	-3.039277	18.677581	-0.012208	0.304692
53.673322	-3.019323	18.682586	-0.012180	0.304681
53.647972	-3.076061	18.687591	-0.012173	0.304454
53.393574	-3.045821	18.692595	-0.012111	0.304380
53.747741	-3.114842	18.697600	-0.012197	0.304381
53.792079	-3.132331	18.702605	-0.012208	0.304348
53.433458	-3.141268	18.707610	-0.012120	0.304055
54.058897	-3.271633	18.712615	-0.012272	0.304027
53.791334	-3.275402	18.717619	-0.012207	0.303818
54.259966	-3.443110	18.722624	-0.012321	0.303538
53.943512	-3.456973	18.727629	-0.012243	0.303257
53.114985	-3.372845	18.732634	-0.012041	0.302966
52.792087	-3.340984	18.737639	-0.011961	0.302849
52.596057	-3.372201	18.742643	-0.011913	0.302590
52.158840	-3.299269	18.747648	-0.011806	0.302542
51.641173	-3.267371	18.752653	-0.011680	0.302283
51.341606	-3.229335	18.757658	-0.011606	0.302205
51.373039	-3.231639	18.762663	-0.011614	0.302219
50.639099	-3.092023	18.767667	-0.011434	0.302202
50.484830	-3.061644	18.772672	-0.011396	0.302201
50.428672	-3.086043	18.777677	-0.011382	0.302069
49.763457	-3.002916	18.782682	-0.011220	0.301892
49.710567	-2.988948	18.787687	-0.011206	0.301905
49.628935	-2.974449	18.792691	-0.011186	0.301899
50.054003	-3.057593	18.797696	-0.011290	0.301899
49.966306	-3.037730	18.802701	-0.011268	0.301908
50.093264	-3.078996	18.807706	-0.011299	0.301847
50.149789	-3.157987	18.812711	-0.011313	0.301594
50.144411	-3.184450	18.817715	-0.011311	0.301491
49.776271	-3.166853	18.822720	-0.011221	0.301287
49.850329	-3.234333	18.827725	-0.011239	0.301089
49.366177	-3.176900	18.832730	-0.011120	0.300949
49.419643	-3.259735	18.837735	-0.011133	0.300678
49.167266	-3.235119	18.842739	-0.011071	0.300585
48.830462	-3.240260	18.847744	-0.010988	0.300318
48.726433	-3.244107	18.852749	-0.010963	0.300227
48.186107	-3.193253	18.857754	-0.010831	0.300020
48.110020	-3.180373	18.862759	-0.010812	0.300012
47.280125	-3.102148	18.867763	-0.010609	0.299694
47.069900	-3.061879	18.872768	-0.010557	0.299690
46.742552	-2.994850	18.877773	-0.010477	0.299700
46.720838	-2.992993	18.882778	-0.010472	0.299690
46.933149	-3.031065	18.887783	-0.010523	0.299703
46.836819	-3.040219	18.892787	-0.010499	0.299597
46.495178	-3.029840	18.897792	-0.010416	0.299384
46.662769	-3.060086	18.902797	-0.010456	0.299393
46.704274	-3.109719	18.907802	-0.010466	0.299237
46.668687	-3.145657	18.912807	-0.010457	0.299076
46.657361	-3.188997	18.917811	-0.010454	0.298904
46.531291	-3.190703	18.922816	-0.010423	0.298804
45.932097	-3.149121	18.927821	-0.010277	0.298518
45.907223	-3.174571	18.932826	-0.010270	0.298404
45.268612	-3.102858	18.937831	-0.010114	0.298201
45.296159	-3.109276	18.942835	-0.010121	0.298197
45.165121	-3.149298	18.947840	-0.010088	0.297949
44.454406	-3.027788	18.952845	-0.009915	0.297881
44.393546	-3.018376	18.957850	-0.009899	0.297870
44.725477	-3.125387	18.962855	-0.009980	0.297712
44.011848	-3.020941	18.967859	-0.009806	0.297577
44.271286	-3.073160	18.972864	-0.009869	0.297572
43.973427	-3.092093	18.977869	-0.009796	0.297279
43.296377	-2.970167	18.982874	-0.009630	0.297237
43.392025	-2.984973	18.987879	-0.009653	0.297251
43.516511	-3.046420	18.992883	-0.009684	0.297111
43.337877	-3.057321	18.997888	-0.009640	0.296937
43.300756	-3.056994	19.002893	-0.009630	0.296910
42.832663	-3.043156	19.007898	-0.009516	0.296614
42.987166	-3.069188	19.012903	-0.009553	0.296630
42.430747	-3.024670	19.017907	-0.009417	0.296384
42.316666	-3.018743	19.022912	-0.009389	0.296321
42.564415	-3.074866	19.027917	-0.009449	0.296292
42.293552	-3.102334	19.032922	-0.009383	0.295986
42.323440	-3.126937	19.037927	-0.009390	0.295915
41.566485	-3.040793	19.042931	-0.009205	0.295677
41.989114	-3.136823	19.047936	-0.009308	0.295627
41.480300	-3.106093	19.052941	-0.009183	0.295364
41.165509	-3.047421	19.057946	-0.009106	0.295351
41.223381	-3.112315	19.062951	-0.009120	0.295147
40.778958	-3.048190	19.067955	-0.009011	0.295059
40.772423	-3.092130	19.072960	-0.009009	0.294886
40.000916	-2.980174	19.077965	-0.008821	0.294735
39.955197	-2.974433	19.082970	-0.008809	0.294722
39.940550	-2.968575	19.087975	-0.008805	0.294733
39.589328	-2.931654	19.092979	-0.008719	0.294610
39.414834	-2.947690	19.097984	-0.008677	0.294418
39.560732	-2.973505	19.102989	-0.008712	0.294428
39.431529	-2.967007	19.107994	-0.008680	0.294356
39.085270	-2.963012	19.112999	-0.008595	0.294111
39.079170	-2.961550	19.118003	-0.008594	0.294111
39.155029	-3.011466	19.123008	-0.008612	0.293977
38.701870	-2.947748	19.128013	-0.008501	0.293880
38.882398	-3.017002	19.133018	-0.008545	0.293750
38.816011	-3.057928	19.138023	-0.008528	0.293543
38.568835	-3.052246	19.143027	-0.008468	0.293379
38.111789	-3.004556	19.148032	-0.008356	0.293218
38.438760	-3.106860	19.153037	-0.008435	0.293071
37.894103	-3.045518	19.158042	-0.008302	0.292896
37.831878	-3.086836	19.163047	-0.008287	0.292690
37.253790	-2.996265	19.168051	-0.008145	0.292602
37.373702	-3.065640	19.173056	-0.008174	0.292425
36.996024	-3.029586	19.178061	-0.008082	0.292278
36.653958	-2.965664	19.183066	-0.007998	0.292265
36.491354	-2.990568	19.188071	-0.007958	0.292046
35.931947	-2.901202	19.193075	-0.007821	0.291967
36.110537	-2.937835	19.198080	-0.007865	0.291960
35.956490	-2.917858	19.203085	-0.007827	0.291920
35.493537	-2.899564	19.208090	-0.007713	0.291641
35.579407	-2.914221	19.213095	-0.007734	0.291648
35.451804	-2.889143	19.218099	-0.007703	0.291648
35.477990	-2.953763	19.223104	-0.007709	0.291418
35.182606	-2.912318	19.228109	-0.007636	0.291354
34.926688	-2.867746	19.233114	-0.007574	0.291331
34.648733	-2.894808	19.238119	-0.007506	0.291016
34.456916	-2.858282	19.243123	-0.007458	0.291011
34.460494	-2.859521	19.248128	-0.007459	0.291008
34.380368	-2.907891	19.253133	-0.007439	0.290760
34.317090	-2.912697	19.258138	-0.007424	0.290693
34.583249	-3.014137	19.263143	-0.007488	0.290503
34.110378	-2.952069	19.268147	-0.007373	0.290383
34.339845	-3.064328	19.273152	-0.007428	0.290123
34.548248	-3.148390	19.278157	-0.007479	0.289955
33.831486	-3.068062	19.283162	-0.007304	0.289721
33.646444	-3.101161	19.288167	-0.007258	0.289451
33.370195	-3.069996	19.293171	-0.007190	0.289361
32.717555	-3.001274	19.298176	-0.007031	0.289130
32.548513	-2.964595	19.303181	-0.006989	0.289143
32.034243	-2.919245	19.308186	-0.006863	0.288926
32.133654	-2.937582	19.313191	-0.006887	0.288930
31.992626	-2.910191	19.318195	-0.006853	0.288928
31.733489	-2.926230	19.323200	-0.006789	0.288667
31.247943	-2.849600	19.328205	-0.006670	0.288594
31.163490	-2.836586	19.333210	-0.006650	0.288579
31.375751	-2.875601	19.338215	-0.006701	0.288589
30.906058	-2.862751	19.343219	-0.006586	0.288280
30.887874	-2.862724	19.348224	-0.006582	0.288265
30.568784	-2.796486	19.353229	-0.006503	0.288278
29.994708	-2.687481	19.358234	-0.006363	0.288263
30.003992	-2.745806	19.363239	-0.006365	0.288042
29.368816	-2.644925	19.368243	-0.006210	0.287949
29.832003	-2.737217	19.373248	-0.006322	0.287943
30.487993	-2.862874	19.378253	-0.006482	0.287954
30.841100	-3.002598	19.383258	-0.006568	0.287679
31.204488	-3.140414	19.388263	-0.006657	0.287420
30.767607	-3.142126	19.393267	-0.006550	0.287077
30.774619	-3.223041	19.398272	-0.006551	0.286766
30.576430	-3.259297	19.403277	-0.006503	0.286471
30.065317	-3.249234	19.408282	-0.006377	0.286116
29.667024	-3.234593	19.413287	-0.006280	0.285866
28.449803	-3.025043	19.418291	-0.005982	0.285750
27.738760	-2.942030	19.423296	-0.005809	0.285527
26.827682	-2.711108	19.428301	-0.005586	0.285730
26.308465	-2.606150	19.433306	-0.005459	0.285741
26.144808	-2.573501	19.438311	-0.005419	0.285742
26.111071	-2.505667	19.443315	-0.005410	0.285982
26.815864	-2.625319	19.448320	-0.005582	0.286055
27.084168	-2.697444	19.453325	-0.005647	0.285978
26.778734	-2.697985	19.458330	-0.005573	0.285739
27.592691	-2.856739	19.463335	-0.005771	0.285743
27.700796	-2.948662	19.468339	-0.005797	0.285465
27.809037	-3.028813	19.473344	-0.005823	0.285232
27.815493	-3.100593	19.478349	-0.005825	0.284954
27.267736	-3.073196	19.483354	-0.005691	0.284638
26.962356	-3.063362	19.488359	-0.005616	0.284439
26.252853	-2.988060	19.493363	-0.005442	0.284186
25.781187	-2.909074	19.498368	-0.005327	0.284131
24.903677	-2.782751	19.503373	-0.005112	0.283949
24.355227	-2.677324	19.508378	-0.004978	0.283939
24.506605	-2.705769	19.513383	-0.005015	0.283944
24.455398	-2.695347	19.518387	-0.005002	0.283944
24.745771	-2.754255	19.523392	-0.005073	0.283936
25.113351	-2.836944	19.528397	-0.005162	0.283894
24.991010	-2.887049	19.533402	-0.005132	0.283600
25.350214	-3.002024	19.538407	-0.005220	0.283423
24.785574	-2.933322	19.543411	-0.005081	0.283256
24.984414	-3.046534	19.548416	-0.005130	0.282961
25.118574	-3.139324	19.553421	-0.005162	0.282697
24.109384	-3.018434	19.558426	-0.004915	0.282389
23.721233	-2.955211	19.563431	-0.004820	0.282337
23.575174	-2.997836	19.568435	-0.004784	0.282053
22.918060	-2.876782	19.573440	-0.004624	0.282020
22.469052	-2.785224	19.578445	-0.004514	0.282033
22.070274	-2.772454	19.583450	-0.004416	0.281771
21.651528	-2.704107	19.588455	-0.004314	0.281715
21.376301	-2.586395	19.593459	-0.004246	0.281968
21.732579	-2.701204	19.598464	-0.004333	0.281788
21.756913	-2.723439	19.603469	-0.004339	0.281718
21.703159	-2.715452	19.608474	-0.004325	0.281707
22.228471	-2.846393	19.613479	-0.004453	0.281596
22.012360	-2.847979	19.618483	-0.004400	0.281420
22.073287	-2.918483	19.623488	-0.004415	0.281185
21.929270	-2.925713	19.628493	-0.004380	0.281043
21.772429	-2.964818	19.633498	-0.004341	0.280763
21.815303	-3.033688	19.638503	-0.004351	0.280521
20.855205	-2.871119	19.643507	-0.004116	0.280416
20.413238	-2.853101	19.648512	-0.004008	0.280140
20.424782	-2.851288	19.653517	-0.004011	0.280155
19.917009	-2.803653	19.658522	-0.003887	0.279946
19.232026	-2.699317	19.663527	-0.003719	0.279824
19.439071	-2.738994	19.668531	-0.003769	0.279827
19.735257	-2.799179	19.673536	-0.003841	0.279818
19.649014	-2.834796	19.678541	-0.003820	0.279607
19.437616	-2.817115	19.683546	-0.003768	0.279510
19.847047	-2.949812	19.688551	-0.003868	0.279300
19.447501	-2.899445	19.693555	-0.003770	0.279186
19.199668	-2.902343	19.698560	-0.003709	0.278978
19.162925	-2.930572	19.703565	-0.003700	0.278835
18.500204	-2.848517	19.708570	-0.003538	0.278640
18.792769	-2.953462	19.713575	-0.003609	0.278448
18.369288	-2.898124	19.718579	-0.003506	0.278335
18.196192	-2.930183	19.723584	-0.003463	0.278068
17.643575	-2.834340	19.728589	-0.003328	0.278016
17.195233	-2.759911	19.733594	-0.003218	0.277960
16.719908	-2.729906	19.738599	-0.003102	0.277704
16.504678	-2.685281	19.743603	-0.003049	0.277712
16.111605	-2.610609	19.748608	-0.002953	0.277701
16.154160	-2.615941	19.753613	-0.002963	0.277713
15.942549	-2.575693	19.758618	-0.002911	0.277707
16.206526	-2.627693	19.763623	-0.002975	0.277705
16.282777	-2.644927	19.768627	-0.002994	0.277695
16.339546	-2.735891	19.773632	-0.003007	0.277372
16.746861	-2.828227	19.778637	-0.003106	0.277321
16.499745	-2.842319	19.783642	-0.003046	0.277067
16.875875	-2.984209	19.788647	-0.003137	0.276791
16.628557	-2.999266	19.793651	-0.003077	0.276532
16.397759	-3.032814	19.798656	-0.003020	0.276211
16.203892	-3.056244	19.803661	-0.002972	0.275960
15.709032	-3.019088	19.808666	-0.002851	0.275715
15.335612	-3.000942	19.813671	-0.002760	0.275490
14.830252	-2.955825	19.818675	-0.002636	0.275268
13.832836	-2.780451	19.823680	-0.002392	0.275184
13.746389	-2.760534	19.828685	-0.002371	0.275195
13.288121	-2.672012	19.833690	-0.002259	0.275188
12.950993	-2.605806	19.838695	-0.002176	0.275187
12.677183	-2.550095	19.843699	-0.002109	0.275194
12.785603	-2.574246	19.848704	-0.002135	0.275182
13.078566	-2.655069	19.853709	-0.002207	0.275086
12.598630	-2.615383	19.858714	-0.002089	0.274862
13.195533	-2.732828	19.863719	-0.002235	0.274861
13.223490	-2.766078	19.868723	-0.002241	0.274747
13.048027	-2.780249	19.873728	-0.002198	0.274547
13.361403	-2.897842	19.878733	-0.002275	0.274317
12.989651	-2.863620	19.883738	-0.002183	0.274158
12.752055	-2.852805	19.888743	-0.002125	0.274010
12.457200	-2.870563	19.893747	-0.002053	0.273699
12.259341	-2.857836	19.898752	-0.002004	0.273591
11.813467	-2.825470	19.903757	-0.001895	0.273364
11.657435	-2.826543	19.908762	-0.001857	0.273233
11.290009	-2.801496	19.913767	-0.001767	0.273039
11.474763	-2.851901	19.918771	-0.001812	0.272980
11.084136	-2.835056	19.923776	-0.001716	0.272733
10.948989	-2.826145	19.928781	-0.001683	0.272659
9.961378	-2.692184	19.933786	-0.001441	0.272411
9.970196	-2.694666	19.938791	-0.001443	0.272407
9.945981	-2.687675	19.943795	-0.001437	0.272416
9.834408	-2.706289	19.948800	-0.001410	0.272248
9.593580	-2.692665	19.953805	-0.001351	0.272108
9.653049	-2.705974	19.958810	-0.001365	0.272101
9.927391	-2.801124	19.963815	-0.001432	0.271930
9.459839	-2.742702	19.968819	-0.001317	0.271791
9.500837	-2.804024	19.973824	-0.001327	0.271570
9.411337	-2.804239	19.978829	-0.001305	0.271496
9.150600	-2.826469	19.983834	-0.001241	0.271191
9.269334	-2.876656	19.988839	-0.001270	0.271079
8.653707	-2.811554	19.993843	-0.001119	0.270847
8.421295	-2.791117	19.998848	-0.001062	0.270742
7.994077	-2.758169	20.003853	-0.000957	0.270530
7.788531	-2.718667	20.008858	-0.000907	0.270525
7.783280	-2.760602	20.013863	-0.000905	0.270346
7.116420	-2.658164	20.018867	-0.000742	0.270227
7.156137	-2.667655	20.023872	-0.000752	0.270219
7.427360	-2.746904	20.028877	-0.000818	0.270110
6.637667	-2.642742	20.033882	-0.000625	0.269897
6.674389	-2.651046	20.038887	-0.000633	0.269892
6.646653	-2.656998	20.043891	-0.000626	0.269844
6.506350	-2.691524	20.048896	-0.000592	0.269585
7.071084	-2.818124	20.053901	-0.000730	0.269519
6.554983	-2.775658	20.058906	-0.000603	0.269272
6.711769	-2.840163	20.063911	-0.000641	0.269131
6.581452	-2.847325	20.068915	-0.000609	0.268994
5.939608	-2.789779	20.073920	-0.000452	0.268707
5.979442	-2.827324	20.078925	-0.000462	0.268582
5.394983	-2.755865	20.083930	-0.000319	0.268400
5.751364	-2.877546	20.088935	-0.000405	0.268183
5.199012	-2.793251	20.093939	-0.000270	0.268080
4.912438	-2.802604	20.098944	-0.000200	0.267805
4.862172	-2.797619	20.103949	-0.000187	0.267783
4.018066	-2.693363	20.108954	0.000019	0.267524
3.630493	-2.636610	20.113959	0.000114	0.267442
3.840158	-2.674857	20.118963	0.000063	0.267454
3.679221	-2.646285	20.123968	0.000102	0.267440
3.700141	-2.694575	20.128973	0.000098	0.267254
3.334260	-2.648873	20.133978	0.000187	0.267143
3.388019	-2.661269	20.138983	0.000174	0.267134
3.078636	-2.667753	20.143987	0.000250	0.266851
2.807092	-2.622415	20.148992	0.000317	0.266816
3.346309	-2.748720	20.153997	0.000185	0.266730
2.956827	-2.722127	20.159002	0.000281	0.266519
3.010428	-2.777566	20.164007	0.000268	0.266329
2.527319	-2.714179	20.169011	0.000386	0.266195
2.459797	-2.760393	20.174016	0.000403	0.265943
2.120472	-2.707806	20.179021	0.000486	0.265883
