Sun Feb 26 15:13:06 2017

Number of Points = 3616
Depth (nm)	Load (µN)	Time (s)	Depth (V)	Load (V)
0.362448	0.096733	0.000000	0.000049	0.281038

0.324924	0.119874	0.005005	0.000058	0.281100
0.251603	0.135611	0.010010	0.000076	0.281105
0.142253	0.158761	0.015014	0.000103	0.281111
0.022731	0.178465	0.020019	0.000132	0.281096
-0.126595	0.212829	0.025024	0.000169	0.281115
0.060600	0.172677	0.030029	0.000123	0.281101
0.037462	0.178136	0.035034	0.000129	0.281105
0.075813	0.153996	0.040038	0.000120	0.281038
0.087622	0.088632	0.045043	0.000117	0.280785
0.277410	0.055169	0.050048	0.000071	0.280800
0.277746	0.052029	0.055053	0.000071	0.280787
0.237440	-0.005272	0.060058	0.000081	0.280526
0.286933	-0.026432	0.065062	0.000069	0.280480
0.254068	-0.064507	0.070067	0.000078	0.280301
0.409461	-0.124777	0.075072	0.000040	0.280181
0.304084	-0.168678	0.080077	0.000066	0.279922
0.249992	-0.187149	0.085082	0.000079	0.279805
0.203636	-0.241763	0.090086	0.000091	0.279549
0.229415	-0.295278	0.095091	0.000084	0.279354
0.151093	-0.319245	0.100096	0.000104	0.279195
0.250632	-0.386038	0.105101	0.000080	0.279004
0.130041	-0.437736	0.110106	0.000109	0.278701
0.183882	-0.501966	0.115110	0.000096	0.278484
0.171952	-0.572357	0.120115	0.000099	0.278190
0.142949	-0.632200	0.125120	0.000107	0.277925
0.098269	-0.698255	0.130125	0.000118	0.277622
0.126000	-0.780551	0.135130	0.000111	0.277311
0.105220	-0.855070	0.140134	0.000117	0.276992
-0.135831	-0.886391	0.145139	0.000176	0.276673
-0.122798	-0.962210	0.150144	0.000173	0.276375
-0.326323	-1.003927	0.155149	0.000223	0.276042
-0.334826	-1.081374	0.160154	0.000225	0.275720
-0.123390	-1.202754	0.165158	0.000173	0.275394
-0.263645	-1.264365	0.170163	0.000208	0.275030
-0.307905	-1.340413	0.175168	0.000219	0.274684
-0.415662	-1.406794	0.180173	0.000245	0.274325
-0.282139	-1.511840	0.185178	0.000213	0.274002
-0.371968	-1.591895	0.190182	0.000235	0.273601
-0.419519	-1.679244	0.195187	0.000247	0.273204
-0.849994	-1.682529	0.200192	0.000352	0.272842
-1.842602	-1.576266	0.205197	0.000595	0.272476
-1.955571	-1.604627	0.210202	0.000623	0.272267
-2.424629	-1.546733	0.215206	0.000738	0.272125
-2.709798	-1.567590	0.220211	0.000807	0.271808
-2.676539	-1.582856	0.225216	0.000799	0.271771
-3.261139	-1.531353	0.230221	0.000942	0.271509
-2.858928	-1.624692	0.235226	0.000844	0.271449
-3.097795	-1.642079	0.240230	0.000903	0.271182
-2.786485	-1.732858	0.245235	0.000827	0.271059
-2.755205	-1.785853	0.250240	0.000820	0.270865
-2.946005	-1.824873	0.255245	0.000866	0.270547
-2.924892	-1.872962	0.260250	0.000861	0.270364
-3.309314	-1.836801	0.265254	0.000955	0.270200
-3.339298	-1.899418	0.270259	0.000963	0.269915
-3.173764	-1.982594	0.275264	0.000923	0.269704
-3.619264	-1.937369	0.280269	0.001032	0.269527
-3.778361	-1.960275	0.285274	0.001071	0.269301
-3.994297	-1.959050	0.290278	0.001124	0.269128
-4.657953	-1.843425	0.295283	0.001286	0.269066
-4.685277	-1.880846	0.300288	0.001293	0.268887
-5.318237	-1.793211	0.305293	0.001447	0.268733
-5.783607	-1.702737	0.310298	0.001561	0.268729
-6.402564	-1.578187	0.315302	0.001713	0.268740
-6.555793	-1.490985	0.320307	0.001750	0.268978
-6.145061	-1.548911	0.325312	0.001650	0.269073
-6.383811	-1.502379	0.330317	0.001708	0.269071
-6.233309	-1.532624	0.335322	0.001672	0.269067
-6.000508	-1.575962	0.340326	0.001615	0.269077
-5.818107	-1.614579	0.345331	0.001571	0.269065
-5.851450	-1.671065	0.350336	0.001579	0.268801
-6.294701	-1.599374	0.355341	0.001687	0.268736
-6.137027	-1.631438	0.360346	0.001649	0.268731
-5.799778	-1.701712	0.365350	0.001567	0.268714
-6.042419	-1.724912	0.370355	0.001626	0.268417
-5.841714	-1.761334	0.375360	0.001577	0.268429
-6.088541	-1.780186	0.380365	0.001638	0.268147
-6.190236	-1.770948	0.385370	0.001663	0.268101
-6.356121	-1.777492	0.390374	0.001704	0.267937
-6.579742	-1.767687	0.395379	0.001758	0.267793
-6.109246	-1.882841	0.400384	0.001644	0.267698
-6.840941	-1.793137	0.405389	0.001823	0.267470
-6.792951	-1.802820	0.410394	0.001811	0.267469
-6.871625	-1.849162	0.415398	0.001830	0.267209
-6.997684	-1.836992	0.420403	0.001861	0.267155
-7.138715	-1.836686	0.425408	0.001896	0.267040
-7.611795	-1.789547	0.430413	0.002012	0.266846
-7.153848	-1.879712	0.435418	0.001900	0.266845
-7.307405	-1.886342	0.440422	0.001938	0.266690
-8.075660	-1.772061	0.445427	0.002125	0.266535
-8.010166	-1.781699	0.450432	0.002110	0.266548
-8.531002	-1.680878	0.455437	0.002237	0.266541
-9.051327	-1.578930	0.460442	0.002364	0.266539
-9.353549	-1.516410	0.465446	0.002438	0.266552
-9.744419	-1.442811	0.470451	0.002534	0.266538
-9.621313	-1.397972	0.475456	0.002504	0.266828
-9.875118	-1.343409	0.480461	0.002566	0.266847
-9.416658	-1.433202	0.485466	0.002454	0.266848
-9.551621	-1.404831	0.490470	0.002487	0.266855
-9.255100	-1.466122	0.495475	0.002415	0.266842
-8.332790	-1.644807	0.500480	0.002190	0.266852
-7.796092	-1.801291	0.505485	0.002059	0.266637
-7.644069	-1.894102	0.510490	0.002022	0.266371
-7.714242	-1.945664	0.515494	0.002039	0.266095
-7.804918	-2.004851	0.520499	0.002062	0.265769
-7.869614	-2.052676	0.525504	0.002078	0.265513
-8.646219	-1.955907	0.530509	0.002268	0.265276
-8.841827	-1.982404	0.535514	0.002316	0.265001
-9.364199	-1.889704	0.540518	0.002443	0.264958
-10.047103	-1.818295	0.545523	0.002610	0.264691
-10.470007	-1.744269	0.550528	0.002714	0.264652
-11.060973	-1.625305	0.555533	0.002858	0.264664
-11.128010	-1.544320	0.560538	0.002875	0.264951
-11.340127	-1.500296	0.565542	0.002927	0.264960
-11.427982	-1.486332	0.570547	0.002948	0.264946
-11.312511	-1.506553	0.575552	0.002920	0.264956
-11.495491	-1.472044	0.580557	0.002965	0.264949
-11.035571	-1.562729	0.585562	0.002853	0.264947
-10.771657	-1.612542	0.590566	0.002789	0.264955
-10.691042	-1.631604	0.595571	0.002769	0.264941
-10.501170	-1.690650	0.600576	0.002723	0.264848
-10.598960	-1.718243	0.605581	0.002747	0.264649
-10.426737	-1.782629	0.610586	0.002705	0.264519
-11.102943	-1.691114	0.615590	0.002870	0.264343
-10.952779	-1.723653	0.620595	0.002834	0.264330
-11.048526	-1.754465	0.625600	0.002857	0.264118
-11.534292	-1.666815	0.630605	0.002976	0.264085
-11.546029	-1.665900	0.635610	0.002979	0.264078
-11.726601	-1.695129	0.640614	0.003023	0.263802
-12.098439	-1.636139	0.645619	0.003114	0.263742
-12.039580	-1.645231	0.650624	0.003100	0.263752
-12.160836	-1.622253	0.655629	0.003130	0.263748
-11.930167	-1.699506	0.660634	0.003074	0.263611
-12.061260	-1.713697	0.665638	0.003106	0.263441
-11.916302	-1.745451	0.670643	0.003071	0.263426
-11.987136	-1.792162	0.675648	0.003088	0.263167
-12.498629	-1.704655	0.680653	0.003213	0.263111
-12.316812	-1.755413	0.685658	0.003169	0.263046
-12.411636	-1.790529	0.690662	0.003192	0.262816
-12.625102	-1.751863	0.695667	0.003245	0.262802
-12.736319	-1.765564	0.700672	0.003272	0.262649
-13.331528	-1.688244	0.705677	0.003418	0.262479
-13.173205	-1.720875	0.710682	0.003379	0.262472
-13.546723	-1.643828	0.715686	0.003470	0.262487
-13.902042	-1.577008	0.720691	0.003557	0.262474
-13.934941	-1.568101	0.725696	0.003566	0.262484
-14.095911	-1.537157	0.730701	0.003605	0.262480
-14.323656	-1.493235	0.735706	0.003661	0.262476
-14.408990	-1.473616	0.740710	0.003682	0.262488
-14.346661	-1.488854	0.745715	0.003667	0.262474
-13.817327	-1.610279	0.750720	0.003538	0.262399
-13.952502	-1.635324	0.755725	0.003571	0.262178
-13.422727	-1.741219	0.760730	0.003442	0.262170
-13.496198	-1.797596	0.765734	0.003460	0.261866
-13.612226	-1.795012	0.770739	0.003488	0.261779
-13.785994	-1.811721	0.775744	0.003531	0.261560
-13.702318	-1.867969	0.780749	0.003511	0.261388
-14.366929	-1.777496	0.785754	0.003673	0.261215
-14.486471	-1.776897	0.790758	0.003702	0.261116
-15.114762	-1.702878	0.795763	0.003856	0.260903
-15.198463	-1.683483	0.800768	0.003877	0.260915
-15.625599	-1.600747	0.805773	0.003981	0.260909
-15.878545	-1.551632	0.810778	0.004043	0.260906
-16.059330	-1.513223	0.815782	0.004087	0.260918
-16.041771	-1.519226	0.820787	0.004083	0.260907
-16.008468	-1.523603	0.825792	0.004075	0.260915
-16.058847	-1.514466	0.830797	0.004088	0.260912
-15.651243	-1.595219	0.835802	0.003988	0.260908
-15.187960	-1.693118	0.840806	0.003875	0.260878
-15.454793	-1.708939	0.845811	0.003941	0.260584
-15.360422	-1.734021	0.850816	0.003918	0.260555
-15.729306	-1.722894	0.855821	0.004008	0.260290
-15.555478	-1.758186	0.860826	0.003966	0.260284
-16.064458	-1.731006	0.865830	0.004090	0.259969
-16.469709	-1.655103	0.870835	0.004189	0.259953
-16.356175	-1.675267	0.875840	0.004162	0.259961
-16.554158	-1.677301	0.880845	0.004210	0.259784
-16.991884	-1.621693	0.885850	0.004317	0.259652
-16.970663	-1.623769	0.890854	0.004312	0.259660
-16.943621	-1.632011	0.895859	0.004306	0.259647
-17.069133	-1.605005	0.900864	0.004337	0.259657
-17.216516	-1.609725	0.905869	0.004373	0.259511
-17.497840	-1.595205	0.910874	0.004442	0.259333
-17.395829	-1.611528	0.915878	0.004417	0.259349
-17.507024	-1.592558	0.920883	0.004444	0.259336
-17.635520	-1.565095	0.925888	0.004476	0.259345
-17.586560	-1.587473	0.930893	0.004464	0.259289
-17.854021	-1.577219	0.935898	0.004530	0.259105
-17.634924	-1.617424	0.940902	0.004476	0.259117
-17.612791	-1.623924	0.945907	0.004471	0.259107
-17.226275	-1.759868	0.950912	0.004377	0.258847
-17.458534	-1.730546	0.955917	0.004434	0.258776
-17.400086	-1.814826	0.960922	0.004420	0.258459
-17.232753	-1.872741	0.965926	0.004379	0.258350
-17.795690	-1.811655	0.970931	0.004517	0.258134
-17.657974	-1.887470	0.975936	0.004483	0.257921
-18.372679	-1.766488	0.980941	0.004658	0.257835
-18.574900	-1.769201	0.985946	0.004707	0.257650
-19.385083	-1.640217	0.990950	0.004905	0.257517
-19.810497	-1.558325	0.995955	0.005009	0.257509
-19.716769	-1.501226	1.000960	0.004987	0.257838

-20.019651	-1.441952	1.010957	0.005061	0.257836
-19.624971	-1.468904	1.020954	0.004965	0.258055
-19.222244	-1.528642	1.030950	0.004867	0.258138
-18.411125	-1.737602	1.040947	0.004669	0.257922
-18.308670	-1.809935	1.050944	0.004644	0.257693
-18.759290	-1.763310	1.060941	0.004755	0.257509
-18.914220	-1.732545	1.070938	0.004793	0.257510
-19.099119	-1.696104	1.080934	0.004838	0.257509
-19.397193	-1.636206	1.090931	0.004911	0.257514
-19.383224	-1.622623	1.100928	0.004908	0.257584
-18.892391	-1.659598	1.110925	0.004789	0.257842
-19.099362	-1.619183	1.120922	0.004840	0.257840
-19.476208	-1.545105	1.130918	0.004932	0.257839
-19.470831	-1.476325	1.140915	0.004931	0.258142
-19.245328	-1.489528	1.150912	0.004876	0.258276
-18.603394	-1.572243	1.160909	0.004720	0.258464
-18.149682	-1.683086	1.170906	0.004609	0.258369
-18.097246	-1.746006	1.180902	0.004597	0.258139
-17.948491	-1.773931	1.190899	0.004561	0.258143
-18.262181	-1.767258	1.200896	0.004638	0.257903
-18.496647	-1.701826	1.210893	0.004695	0.257986
-18.431712	-1.678379	1.220890	0.004679	0.258143
-18.822593	-1.601382	1.230886	0.004775	0.258142
-18.933471	-1.541942	1.240883	0.004803	0.258305
-18.583811	-1.573496	1.250880	0.004718	0.258465
-18.331706	-1.623858	1.260877	0.004656	0.258461
-18.290520	-1.590091	1.270874	0.004646	0.258642
-18.214350	-1.574807	1.280870	0.004628	0.258772
-17.820713	-1.650458	1.290867	0.004532	0.258778
-17.997566	-1.614926	1.300864	0.004576	0.258780
-17.782138	-1.657596	1.310861	0.004524	0.258778
-17.603875	-1.704212	1.320858	0.004480	0.258727
-17.845631	-1.659947	1.330854	0.004540	0.258711
-17.638016	-1.721365	1.340851	0.004489	0.258621
-17.754521	-1.709223	1.350848	0.004518	0.258573
-17.646758	-1.707583	1.360845	0.004492	0.258671
-17.909600	-1.631047	1.370842	0.004556	0.258778
-18.079055	-1.597869	1.380838	0.004598	0.258776
-18.125733	-1.525064	1.390835	0.004610	0.259051
-18.339381	-1.451836	1.400832	0.004662	0.259186
-17.365420	-1.606110	1.410829	0.004425	0.259346
-16.894035	-1.707056	1.420826	0.004310	0.259309
-17.133539	-1.705361	1.430822	0.004369	0.259111
-17.107396	-1.709734	1.440819	0.004363	0.259113
-17.171966	-1.696421	1.450816	0.004379	0.259115
-17.383492	-1.654460	1.460813	0.004431	0.259115
-17.585118	-1.563200	1.470810	0.004480	0.259338
-17.462946	-1.585699	1.480806	0.004451	0.259343
-17.103810	-1.621081	1.490803	0.004363	0.259495
-16.516463	-1.768562	1.500800	0.004220	0.259355
-16.505964	-1.771651	1.510797	0.004218	0.259350
-16.291804	-1.822777	1.520794	0.004166	0.259309
-17.049904	-1.697912	1.530790	0.004351	0.259204
-17.353328	-1.605137	1.540787	0.004426	0.259346
-17.835588	-1.460015	1.550784	0.004544	0.259563
-17.773538	-1.401747	1.560781	0.004529	0.259866
-17.297555	-1.415758	1.570778	0.004413	0.260209
-16.439579	-1.566482	1.580774	0.004204	0.260285
-15.850424	-1.705506	1.590771	0.004060	0.260184
-15.734922	-1.778771	1.600768	0.004032	0.259964
-15.339933	-1.909524	1.610765	0.003936	0.259734
-15.582213	-1.906295	1.620762	0.003996	0.259541
-16.257984	-1.818952	1.630758	0.004161	0.259343
-16.986905	-1.636265	1.640755	0.004339	0.259512
-17.310874	-1.514379	1.650752	0.004419	0.259763
-17.436512	-1.410449	1.660749	0.004450	0.260104
-17.199034	-1.375517	1.670746	0.004392	0.260455
-16.736367	-1.403447	1.680742	0.004279	0.260726
-15.804582	-1.543840	1.690739	0.004052	0.260909
-15.431941	-1.677853	1.700736	0.003961	0.260646
-14.857811	-1.812196	1.710733	0.003821	0.260552
-14.693471	-1.914048	1.720730	0.003782	0.260251
-14.852997	-1.949887	1.730726	0.003821	0.259960
-15.547824	-1.862862	1.740723	0.003991	0.259745
-15.986951	-1.764711	1.750720	0.004098	0.259795
-16.728696	-1.570231	1.760717	0.004280	0.260004
-17.021175	-1.429012	1.770714	0.004352	0.260365
-16.965069	-1.347084	1.780710	0.004338	0.260764
-16.122082	-1.426936	1.790707	0.004133	0.261133
-15.311239	-1.564891	1.800704	0.003935	0.261224
-14.742704	-1.719055	1.810701	0.003796	0.261040
-14.557584	-1.785292	1.820698	0.003751	0.260911
-14.799685	-1.801549	1.830694	0.003811	0.260635
-15.008896	-1.770062	1.840691	0.003862	0.260592
-15.286525	-1.714961	1.850688	0.003930	0.260593
-15.584199	-1.656038	1.860685	0.004003	0.260594
-15.457103	-1.608378	1.870682	0.003973	0.260906
-15.570045	-1.585600	1.880678	0.004000	0.260907
-15.454221	-1.549345	1.890675	0.003972	0.261160
-15.129840	-1.598521	1.900672	0.003894	0.261222
-15.117243	-1.601077	1.910669	0.003891	0.261220
-15.406549	-1.504092	1.920666	0.003962	0.261392
-14.992862	-1.548256	1.930662	0.003861	0.261550
-14.884365	-1.568701	1.940659	0.003835	0.261553
-14.339243	-1.674950	1.950656	0.003702	0.261556
-13.990182	-1.765475	1.960653	0.003617	0.261460
-14.083551	-1.803298	1.970650	0.003640	0.261218
-14.519727	-1.717294	1.980646	0.003747	0.261218
-14.958730	-1.630243	1.990643	0.003855	0.261220
-15.214300	-1.523062	2.000640	0.003917	0.261464
-15.038750	-1.513091	2.010637	0.003875	0.261654
-14.633743	-1.544854	2.020634	0.003776	0.261858
-14.392270	-1.591675	2.030630	0.003717	0.261860
-13.868673	-1.694366	2.040627	0.003590	0.261860
-13.642208	-1.775759	2.050624	0.003535	0.261700
-13.963228	-1.746416	2.060621	0.003614	0.261554
-14.183234	-1.703879	2.070618	0.003668	0.261550
-14.580615	-1.574151	2.080614	0.003765	0.261771
-14.816756	-1.504927	2.090611	0.003823	0.261868
-14.566088	-1.482042	2.100608	0.003762	0.262176
-14.361374	-1.500001	2.110605	0.003712	0.262270
-13.554495	-1.630928	2.120602	0.003515	0.262387
-13.456934	-1.700018	2.130598	0.003492	0.262173
-13.232116	-1.743419	2.140595	0.003437	0.262175
-13.276840	-1.775820	2.150592	0.003449	0.261997
-13.807499	-1.680949	2.160589	0.003579	0.261956
-13.819705	-1.627297	2.170586	0.003582	0.262174
-14.175128	-1.557541	2.180582	0.003669	0.262173
-14.197386	-1.493749	2.190579	0.003675	0.262426
-13.930887	-1.532869	2.200576	0.003610	0.262482
-13.291146	-1.602087	2.210573	0.003454	0.262722
-13.244458	-1.668373	2.220570	0.003443	0.262477
-13.422790	-1.587404	2.230566	0.003487	0.262673
-13.173691	-1.625299	2.240563	0.003426	0.262719
-13.149763	-1.655301	2.250560	0.003421	0.262610
-13.056642	-1.671235	2.260557	0.003398	0.262619
-13.084866	-1.649197	2.270554	0.003405	0.262688
-12.942927	-1.687666	2.280550	0.003371	0.262642
-12.851348	-1.717478	2.290547	0.003349	0.262590
-12.894854	-1.733067	2.300544	0.003360	0.262486
-12.564026	-1.799043	2.310541	0.003279	0.262481
-13.108340	-1.692529	2.320538	0.003413	0.262478
-13.149836	-1.632629	2.330534	0.003423	0.262698
-14.141455	-1.391140	2.340531	0.003665	0.262896
-14.083843	-1.315035	2.350528	0.003652	0.263268
-13.440255	-1.351727	2.360525	0.003495	0.263650
-12.298346	-1.553991	2.370522	0.003216	0.263743
-11.261706	-1.809306	2.380518	0.002963	0.263522
-10.933970	-1.960234	2.390515	0.002884	0.263152
-10.824805	-2.088756	2.400512	0.002857	0.262694
-11.682553	-1.986927	2.410509	0.003067	0.262408
-12.816421	-1.771043	2.420506	0.003344	0.262377
-13.760819	-1.530508	2.430502	0.003575	0.262611
-14.227698	-1.323174	2.440499	0.003690	0.263103
-13.936270	-1.257458	2.450496	0.003619	0.263627
-12.814996	-1.375528	2.460493	0.003345	0.264061
-11.954055	-1.539487	2.470490	0.003135	0.264082
-11.028071	-1.745947	2.480486	0.002909	0.263977
-10.739154	-1.880156	2.490483	0.002839	0.263646
-10.808220	-1.948325	2.500480	0.002856	0.263297
-11.432461	-1.868325	2.510477	0.003009	0.263114
-12.324245	-1.693730	2.520474	0.003227	0.263110
-12.906647	-1.519957	2.530470	0.003370	0.263362
-12.829382	-1.460461	2.540467	0.003351	0.263679
-12.173011	-1.526222	2.550464	0.003191	0.263947
-11.370015	-1.651944	2.560461	0.002995	0.264082
-10.968431	-1.804443	2.570458	0.002898	0.263768
-11.090053	-1.785709	2.580454	0.002928	0.263745
-11.320224	-1.748515	2.590451	0.002984	0.263710
-11.479527	-1.708162	2.600448	0.003023	0.263748
-12.225757	-1.560798	2.610445	0.003206	0.263749
-12.514839	-1.436821	2.620442	0.003277	0.264034
-11.957525	-1.483450	2.630438	0.003141	0.264300
-11.688954	-1.528685	2.640435	0.003076	0.264331
-11.016452	-1.660075	2.650432	0.002912	0.264334
-10.405419	-1.780479	2.660429	0.002763	0.264331
-9.879725	-1.929167	2.670426	0.002635	0.264137
-10.158765	-1.939939	2.680422	0.002703	0.263857
-10.697209	-1.860241	2.690419	0.002835	0.263745
-11.316653	-1.737785	2.700416	0.002987	0.263747
-12.369573	-1.481230	2.710413	0.003244	0.263957
-12.901789	-1.260543	2.720410	0.003374	0.264450
-12.299086	-1.266117	2.730406	0.003227	0.264927
-11.230630	-1.393775	2.740403	0.002967	0.265275
-9.986860	-1.636682	2.750400	0.002663	0.265280
-9.419598	-1.820290	2.760397	0.002525	0.264974
-9.060810	-1.976147	2.770394	0.002438	0.264611
-9.646949	-1.926075	2.780390	0.002581	0.264333
-10.005523	-1.911726	2.790387	0.002669	0.264094
-10.694618	-1.777729	2.800384	0.002838	0.264087
-11.270371	-1.623575	2.810381	0.002979	0.264260
-11.556274	-1.498656	2.820378	0.003049	0.264551
-11.526307	-1.425064	2.830374	0.003042	0.264887
-10.613791	-1.526496	2.840371	0.002819	0.265216
-10.054689	-1.621252	2.850368	0.002683	0.265279
-9.883721	-1.708821	2.860365	0.002641	0.265049
-10.061274	-1.656635	2.870362	0.002685	0.265121
-10.095906	-1.636062	2.880358	0.002694	0.265179
-10.208847	-1.590731	2.890355	0.002722	0.265275
-9.698016	-1.690449	2.900352	0.002597	0.265277
-9.602640	-1.756750	2.910349	0.002574	0.265075
-9.728507	-1.761349	2.920346	0.002605	0.264950
-9.754596	-1.756270	2.930342	0.002612	0.264948
-9.470031	-1.811237	2.940339	0.002543	0.264951
-10.025976	-1.701001	2.950336	0.002679	0.264954
-9.825542	-1.667599	2.960333	0.002630	0.265262
-10.071629	-1.615777	2.970330	0.002691	0.265275
-10.440412	-1.507005	2.980326	0.002781	0.265428
-10.367846	-1.461866	2.990323	0.002763	0.265678
-9.733262	-1.532828	3.000320	0.002609	0.265904
-9.629776	-1.553297	3.010317	0.002584	0.265902
-9.021816	-1.673094	3.020314	0.002436	0.265900
-8.543981	-1.768967	3.030310	0.002319	0.265890
-8.309460	-1.887162	3.040307	0.002262	0.265585
-8.756893	-1.841070	3.050304	0.002372	0.265407
-9.180848	-1.787597	3.060301	0.002476	0.265280
-9.527559	-1.664986	3.070298	0.002561	0.265509
-9.852290	-1.580303	3.080294	0.002640	0.265596
-9.667861	-1.544249	3.090291	0.002596	0.265900
-9.591259	-1.520354	3.100288	0.002577	0.266064
-9.153645	-1.570520	3.110285	0.002471	0.266214
-8.938319	-1.613487	3.120282	0.002418	0.266210
-8.140797	-1.769905	3.130278	0.002224	0.266210
-8.345963	-1.771787	3.140275	0.002274	0.266031
-8.816271	-1.706918	3.150272	0.002389	0.265914
-8.849083	-1.629470	3.160269	0.002398	0.266213
-9.000988	-1.600053	3.170266	0.002435	0.266210
-9.076107	-1.548299	3.180262	0.002454	0.266365
-8.448836	-1.628221	3.190259	0.002301	0.266546
-7.842967	-1.795414	3.200256	0.002153	0.266342
-7.684596	-1.856074	3.210253	0.002115	0.266217
-7.870369	-1.878931	3.220250	0.002161	0.265965
-8.691867	-1.718745	3.230246	0.002361	0.265959
-8.769573	-1.643602	3.240243	0.002381	0.266211
-9.376043	-1.479581	3.250240	0.002529	0.266399
-9.185507	-1.434120	3.260237	0.002483	0.266747
-8.700399	-1.465863	3.270234	0.002365	0.267013
-7.865646	-1.593894	3.280230	0.002161	0.267163
-7.182111	-1.786760	3.290227	0.001994	0.266916
-7.137794	-1.825563	3.300224	0.001984	0.266789
-7.348199	-1.840851	3.310221	0.002036	0.266549
-7.675720	-1.776456	3.320218	0.002116	0.266548
-7.945139	-1.722777	3.330214	0.002182	0.266550
-8.254957	-1.661786	3.340211	0.002258	0.266550
-8.127766	-1.627281	3.350208	0.002227	0.266799
-7.874365	-1.663409	3.360205	0.002166	0.266856
-7.883364	-1.661529	3.370202	0.002168	0.266855
-7.848860	-1.621068	3.380198	0.002160	0.267053
-8.122886	-1.539154	3.390195	0.002227	0.267170
-7.993947	-1.533293	3.400192	0.002196	0.267300
-7.505119	-1.587269	3.410189	0.002077	0.267475
-7.399585	-1.607918	3.420186	0.002051	0.267475
-6.729228	-1.740043	3.430182	0.001888	0.267472
-6.311335	-1.885916	3.440179	0.001786	0.267203
-6.146927	-1.974270	3.450176	0.001747	0.266966
-6.497698	-1.949242	3.460173	0.001833	0.266781
-7.306885	-1.799346	3.470170	0.002031	0.266741
-8.422120	-1.539941	3.480166	0.002303	0.266910
-8.785878	-1.364829	3.490163	0.002392	0.267344
-8.270037	-1.351341	3.500160	0.002266	0.267825
-7.284763	-1.477431	3.510157	0.002026	0.268107
-6.243056	-1.682554	3.520154	0.001772	0.268104
-5.927927	-1.806663	3.530150	0.001695	0.267842
-5.529487	-1.942631	3.540147	0.001598	0.267600
-6.106160	-1.892631	3.550144	0.001740	0.267333
-6.898716	-1.745555	3.560141	0.001934	0.267295
-7.055695	-1.672653	3.570138	0.001972	0.267471
-7.179232	-1.618917	3.580134	0.002003	0.267593
-6.906125	-1.623016	3.590131	0.001936	0.267800
-7.110157	-1.559489	3.600128	0.001986	0.267897
-6.570908	-1.615726	3.610125	0.001855	0.268105
-6.164262	-1.695596	3.620122	0.001756	0.268104
-5.922174	-1.744105	3.630118	0.001697	0.268099
-5.969085	-1.784927	3.640115	0.001709	0.267888
-6.170758	-1.765427	3.650112	0.001758	0.267803
-6.432249	-1.685236	3.660109	0.001823	0.267923
-6.562904	-1.615738	3.670106	0.001855	0.268105
-6.672502	-1.560779	3.680102	0.001882	0.268244
-6.421371	-1.565423	3.690099	0.001821	0.268430
-6.096920	-1.628038	3.700096	0.001742	0.268434
-5.607982	-1.724246	3.710093	0.001623	0.268432
-5.161449	-1.812668	3.720090	0.001514	0.268428
-5.561753	-1.792630	3.730086	0.001612	0.268182
-5.565333	-1.809563	3.740083	0.001613	0.268107
-5.921519	-1.733455	3.750080	0.001701	0.268132
-6.077490	-1.631300	3.760077	0.001739	0.268430
-6.275014	-1.583835	3.770074	0.001787	0.268465
-5.947988	-1.582198	3.780070	0.001708	0.268739
-5.858430	-1.599207	3.790067	0.001686	0.268741
-5.554668	-1.620161	3.800064	0.001612	0.268901
-4.966295	-1.770494	3.810061	0.001469	0.268755
-5.081883	-1.750738	3.820058	0.001498	0.268742
-5.238892	-1.720561	3.830054	0.001536	0.268738
-5.053906	-1.756041	3.840051	0.001491	0.268741
-5.214480	-1.724181	3.850048	0.001531	0.268741
-5.319983	-1.702787	3.860045	0.001557	0.268743
-4.874144	-1.790895	3.870042	0.001448	0.268740
-4.795039	-1.806898	3.880038	0.001429	0.268737
-5.051741	-1.755985	3.890035	0.001492	0.268738
-5.190248	-1.727989	3.900032	0.001527	0.268740
-5.185172	-1.729029	3.910029	0.001526	0.268739
-5.602008	-1.572551	3.920026	0.001628	0.269049
-5.717108	-1.509192	3.930022	0.001656	0.269218
-5.511126	-1.493204	3.940019	0.001606	0.269452
-4.645435	-1.623928	3.950016	0.001395	0.269615
-3.889528	-1.796919	3.960013	0.001211	0.269512
-3.441402	-1.948938	3.970010	0.001102	0.269245
-3.367234	-2.026404	3.980006	0.001084	0.268981
-4.351994	-1.890150	3.990003	0.001325	0.268741
-4.912676	-1.770122	4.000000	0.001462	0.268781
-5.039312	-1.674115	4.009997	0.001493	0.269077
-5.274019	-1.595005	4.019994	0.001551	0.269214
-5.129744	-1.560579	4.029990	0.001516	0.269474
-4.337776	-1.682825	4.039987	0.001322	0.269612
-4.232954	-1.701495	4.049984	0.001297	0.269619
-4.246312	-1.699276	4.059981	0.001301	0.269617
-4.095165	-1.729366	4.069978	0.001264	0.269614
-3.910936	-1.765154	4.079974	0.001219	0.269615
-4.108226	-1.726437	4.089971	0.001268	0.269613
-4.177940	-1.702135	4.099968	0.001285	0.269657
-3.686776	-1.776671	4.109965	0.001166	0.269747
-3.625622	-1.820543	4.119962	0.001151	0.269613
-3.761243	-1.794080	4.129958	0.001184	0.269612
-3.914355	-1.763593	4.139955	0.001222	0.269612
-3.742803	-1.737489	4.149952	0.001181	0.269860
-3.744007	-1.722354	4.159949	0.001181	0.269921
-4.132996	-1.645820	4.169946	0.001276	0.269920
-4.024691	-1.622897	4.179942	0.001250	0.270103
-3.729700	-1.646768	4.189939	0.001179	0.270244
-3.629448	-1.665109	4.199936	0.001154	0.270248
-3.171642	-1.754989	4.209933	0.001043	0.270248
-2.927995	-1.803025	4.219930	0.000984	0.270246
-2.896821	-1.842214	4.229926	0.000976	0.270108
-3.307108	-1.745443	4.239923	0.001077	0.270174
-3.291544	-1.730471	4.249920	0.001073	0.270248
-3.236989	-1.740967	4.259917	0.001060	0.270247
-3.249284	-1.738690	4.269914	0.001064	0.270246
-3.228367	-1.743296	4.279910	0.001059	0.270243
-2.944335	-1.798717	4.289907	0.000990	0.270243
-2.931997	-1.799860	4.299904	0.000987	0.270248
-3.172156	-1.752660	4.309901	0.001046	0.270247
-3.427164	-1.632157	4.319898	0.001109	0.270538
-3.483800	-1.600573	4.329894	0.001123	0.270622
-3.386323	-1.561708	4.339891	0.001099	0.270861
-3.208943	-1.549999	4.349888	0.001056	0.271053
-2.452046	-1.668063	4.359885	0.000872	0.271179
-1.844151	-1.833301	4.369882	0.000723	0.270988
-1.666587	-1.911141	4.379878	0.000680	0.270809
-1.642742	-1.978494	4.389875	0.000675	0.270548
-1.831102	-1.988333	4.399872	0.000721	0.270353
-2.597770	-1.863126	4.409869	0.000909	0.270246
-3.374543	-1.649389	4.419866	0.001099	0.270499
-3.860168	-1.465172	4.429862	0.001218	0.270866
-3.550062	-1.422296	4.439859	0.001142	0.271295
-2.709493	-1.533877	4.449856	0.000937	0.271516
-2.049281	-1.646549	4.459853	0.000776	0.271585
-1.723930	-1.728368	4.469850	0.000697	0.271510
-1.456760	-1.781096	4.479846	0.000632	0.271508
-1.403237	-1.838634	4.489843	0.000619	0.271313
-1.559766	-1.840333	4.499840	0.000658	0.271177
-1.669138	-1.818436	4.509837	0.000685	0.271178
-1.734760	-1.806028	4.519834	0.000701	0.271175
-1.719438	-1.809259	4.529830	0.000698	0.271173
-1.853815	-1.782048	4.539827	0.000731	0.271175
-2.147554	-1.723416	4.549824	0.000803	0.271178
-2.473010	-1.601536	4.559821	0.000883	0.271417
-2.505350	-1.527639	4.569818	0.000891	0.271695
-2.243355	-1.545509	4.579814	0.000827	0.271833
-1.688603	-1.582641	4.589811	0.000692	0.272128
-1.431212	-1.632937	4.599808	0.000629	0.272128
-1.149766	-1.687849	4.609805	0.000561	0.272129
-1.035645	-1.719019	4.619802	0.000534	0.272092
-1.041676	-1.785491	4.629798	0.000535	0.271812
-1.017669	-1.789814	4.639795	0.000530	0.271812
-1.172528	-1.758445	4.649792	0.000568	0.271815
-1.582466	-1.656323	4.659789	0.000668	0.271903
-1.618587	-1.593783	4.669786	0.000677	0.272131
-1.486331	-1.612738	4.679782	0.000645	0.272159
-1.225964	-1.595889	4.689779	0.000582	0.272438
-1.080688	-1.623526	4.699776	0.000547	0.272441
-1.081840	-1.622939	4.709773	0.000547	0.272441
-1.118912	-1.616143	4.719770	0.000557	0.272438
-0.975691	-1.578088	4.729766	0.000522	0.272710
-0.954244	-1.568847	4.739763	0.000517	0.272764
-0.900043	-1.578470	4.749760	0.000504	0.272767
-0.837312	-1.591393	4.759757	0.000489	0.272764
-0.793855	-1.574999	4.769754	0.000479	0.272865
-0.748496	-1.534879	4.779750	0.000468	0.273066
-0.718951	-1.540066	4.789747	0.000461	0.273068
-0.832381	-1.517254	4.799744	0.000489	0.273069
-0.730200	-1.476749	4.809741	0.000465	0.273317
-0.634218	-1.478296	4.819738	0.000441	0.273387
-0.616475	-1.481734	4.829734	0.000437	0.273386
-0.382543	-1.486736	4.839731	0.000381	0.273553
-0.550769	-1.416391	4.849728	0.000422	0.273705
-0.562448	-1.413735	4.859725	0.000425	0.273705
-0.662944	-1.337080	4.869722	0.000450	0.273938
-0.679671	-1.308484	4.879718	0.000454	0.274040
-0.478225	-1.293997	4.889715	0.000405	0.274261
-0.445704	-1.298076	4.899712	0.000398	0.274269
-0.424006	-1.236609	4.909709	0.000393	0.274537
-0.430517	-1.225089	4.919706	0.000395	0.274578
-0.549259	-1.127240	4.929702	0.000424	0.274881
-0.489234	-1.094965	4.939699	0.000409	0.275060
-0.433643	-1.060357	4.949696	0.000396	0.275245
-0.440778	-0.992456	4.959693	0.000398	0.275515
-0.417184	-0.939070	4.969690	0.000393	0.275750
-0.338775	-0.903475	4.979686	0.000374	0.275956
-0.175632	-0.888776	4.989683	0.000334	0.276146
-0.137257	-0.819015	4.999680	0.000325	0.276459
-0.164817	-0.776582	5.009677	0.000332	0.276608
-0.214963	-0.713589	5.019674	0.000345	0.276822
-0.279005	-0.632282	5.029670	0.000360	0.277100
-0.313037	-0.549669	5.039667	0.000369	0.277406
-0.236826	-0.484248	5.049664	0.000351	0.277730
-0.193527	-0.420859	5.059661	0.000340	0.278020
-0.117239	-0.359127	5.069658	0.000322	0.278328
-0.015994	-0.309032	5.079654	0.000298	0.278609
-0.038286	-0.230463	5.089651	0.000303	0.278907
0.188737	-0.214983	5.099648	0.000248	0.279148
0.249863	-0.175171	5.109645	0.000233	0.279355
0.301317	-0.132832	5.119642	0.000221	0.279565
0.191876	-0.039152	5.129638	0.000248	0.279853
0.172875	0.043665	5.139635	0.000253	0.280169
0.040978	0.150562	5.149632	0.000285	0.280492
0.000000	0.235254	5.159629	0.000296	0.280798

-0.045052	0.292904	5.164634	0.000307	0.280992
-0.040613	0.343948	5.169638	0.000306	0.281199
-0.025146	0.414286	5.174643	0.000302	0.281491
0.004795	0.476111	5.179648	0.000295	0.281761
0.101943	0.533946	5.184653	0.000271	0.282067
0.142057	0.606827	5.189658	0.000262	0.282387
0.200890	0.680709	5.194662	0.000247	0.282726
0.248340	0.759105	5.199667	0.000236	0.283074
0.350590	0.830626	5.204672	0.000211	0.283436
0.371977	0.920562	5.209677	0.000206	0.283808
0.536519	0.974742	5.214682	0.000166	0.284149
0.389927	1.102485	5.219686	0.000202	0.284540
0.514448	1.190279	5.224691	0.000171	0.284981
0.690250	1.259404	5.229696	0.000128	0.285389
0.658142	1.391403	5.234701	0.000136	0.285882
0.668447	1.503292	5.239706	0.000134	0.286329
0.456958	1.679302	5.244710	0.000186	0.286855
0.600760	1.793949	5.249715	0.000151	0.287413
0.649886	1.920977	5.254720	0.000139	0.287946
0.617023	2.075026	5.259725	0.000147	0.288520
0.394271	2.270947	5.264730	0.000201	0.289111
0.355014	2.432971	5.269734	0.000211	0.289709
0.476323	2.586881	5.274739	0.000181	0.290396
0.377237	2.784278	5.279744	0.000205	0.291082
0.428602	2.963482	5.284749	0.000193	0.291811
0.540556	3.139057	5.289754	0.000166	0.292569
0.627488	3.310134	5.294758	0.000144	0.293289
0.726216	3.491832	5.299763	0.000120	0.294057
0.776302	3.671607	5.304768	0.000108	0.294780
0.884083	3.858033	5.309773	0.000082	0.295569
1.183605	4.008870	5.314778	0.000009	0.296363
1.044825	4.245058	5.319782	0.000042	0.297153
1.128177	4.446673	5.324787	0.000022	0.297974
1.236926	4.649621	5.329792	-0.000004	0.298818
1.215870	4.862386	5.334797	0.000001	0.299600
1.127369	5.115332	5.339802	0.000022	0.300480
1.208079	5.340688	5.344806	0.000003	0.301380
1.246064	5.586519	5.349811	-0.000007	0.302321
1.063005	5.880532	5.354816	0.000038	0.303277
0.922445	6.167688	5.359821	0.000072	0.304236
1.009896	6.425830	5.364826	0.000051	0.305249
1.004688	6.712489	5.369830	0.000052	0.306297
1.122640	6.983668	5.374835	0.000023	0.307373
1.221076	7.258304	5.379840	-0.000001	0.308444
1.361714	7.507260	5.384845	-0.000035	0.309448
1.407378	7.797030	5.389850	-0.000046	0.310529
1.517959	8.085975	5.394854	-0.000074	0.311650
1.631238	8.372455	5.399859	-0.000101	0.312759
1.629285	8.683751	5.404864	-0.000101	0.313872
1.737493	8.969877	5.409869	-0.000127	0.314969
1.718111	9.303107	5.414874	-0.000123	0.316140
1.683306	9.642460	5.419878	-0.000114	0.317318
1.676497	9.993059	5.424883	-0.000113	0.318550
1.637748	10.335308	5.429888	-0.000103	0.319727
1.632382	10.698302	5.434893	-0.000102	0.320994
1.518125	11.098885	5.439898	-0.000074	0.322313
1.635107	11.452506	5.444902	-0.000103	0.323621
1.877085	11.777716	5.449907	-0.000162	0.324911
1.756235	12.188176	5.454912	-0.000133	0.326243
1.854087	12.567835	5.459917	-0.000157	0.327612
2.015077	12.929325	5.464922	-0.000196	0.328955
1.867088	13.351525	5.469926	-0.000160	0.330294
2.014304	13.748460	5.474931	-0.000196	0.331737
2.072094	14.159720	5.479936	-0.000211	0.333163
2.100182	14.564369	5.484941	-0.000218	0.334541
2.222891	14.984623	5.489946	-0.000248	0.336028
2.154725	15.437114	5.494950	-0.000231	0.337491
2.345223	15.843046	5.499955	-0.000278	0.338962
2.246586	16.311267	5.504960	-0.000254	0.340444
2.375708	16.753337	5.509965	-0.000286	0.341981
2.438848	17.214867	5.514970	-0.000301	0.343532
2.425017	17.683687	5.519974	-0.000298	0.345051
2.444820	18.173489	5.524979	-0.000303	0.346653
2.525893	18.654098	5.529984	-0.000323	0.348256
2.539949	19.139468	5.534989	-0.000327	0.349825
2.561490	19.653925	5.539994	-0.000332	0.351485
2.593341	20.164710	5.544998	-0.000340	0.353131
2.710237	20.655392	5.550003	-0.000369	0.354759
2.736749	21.188701	5.555008	-0.000376	0.356458
2.856955	21.702571	5.560013	-0.000405	0.358146
2.863692	22.237693	5.565018	-0.000407	0.359823
2.966727	22.773164	5.570022	-0.000433	0.361551
3.161431	23.299295	5.575027	-0.000480	0.363298
3.016614	23.883115	5.580032	-0.000445	0.365009
3.086227	24.452407	5.585037	-0.000462	0.366797
3.352299	24.982131	5.590042	-0.000528	0.368572
3.239561	25.577242	5.595046	-0.000500	0.370312
3.263019	26.183352	5.600051	-0.000506	0.372158
3.348319	26.768370	5.605056	-0.000528	0.373968
3.230890	27.409648	5.610061	-0.000499	0.375818
3.346832	28.030813	5.615066	-0.000528	0.377736
3.299170	28.662280	5.620070	-0.000516	0.379579
3.531785	29.278256	5.625075	-0.000574	0.381530
3.536260	29.932041	5.630080	-0.000575	0.383450
3.625641	30.573757	5.635085	-0.000597	0.385374
3.714104	31.241138	5.640090	-0.000619	0.387362
3.768403	31.884637	5.645094	-0.000633	0.389252
4.082412	32.518225	5.650099	-0.000710	0.391251
4.153012	33.188653	5.655104	-0.000727	0.393208
4.110465	33.879813	5.660109	-0.000717	0.395152
4.175941	34.590741	5.665114	-0.000733	0.397201
4.301091	35.258758	5.670118	-0.000764	0.399152
4.352750	35.982295	5.675123	-0.000777	0.401209
4.170640	36.752801	5.680128	-0.000733	0.403259
4.240502	37.488329	5.685133	-0.000751	0.405339
4.285128	38.255765	5.690138	-0.000762	0.407481
4.104427	39.042910	5.695142	-0.000718	0.409547
4.252731	39.818095	5.700147	-0.000755	0.411744
4.265437	40.605998	5.705152	-0.000758	0.413892
4.343387	41.405418	5.710157	-0.000778	0.416095
4.469057	42.204651	5.715162	-0.000809	0.418310
4.528114	43.010574	5.720166	-0.000824	0.420497
4.853132	43.791810	5.725171	-0.000904	0.422745
4.997727	44.589373	5.730176	-0.000939	0.424931
4.943203	45.454751	5.735181	-0.000926	0.427182
5.190329	46.246237	5.740186	-0.000987	0.429382
5.237622	47.100927	5.745190	-0.000999	0.431633
5.324469	47.942540	5.750195	-0.001021	0.433859
5.461479	48.796886	5.755200	-0.001055	0.436132
5.509431	49.666922	5.760205	-0.001067	0.438388
5.609032	50.540794	5.765210	-0.001092	0.440669
5.642977	51.437955	5.770214	-0.001101	0.442964
5.554519	52.373920	5.775219	-0.001080	0.445285
5.547467	53.318416	5.780224	-0.001078	0.447655
5.529695	54.253449	5.785229	-0.001074	0.449984
5.803264	55.177792	5.790234	-0.001142	0.452415
5.843185	56.119142	5.795238	-0.001152	0.454763
5.930225	57.089824	5.800243	-0.001174	0.457193
5.998003	58.052566	5.805248	-0.001191	0.459582
6.054050	59.051008	5.810253	-0.001205	0.462040
6.266974	60.012635	5.815258	-0.001258	0.464469
6.492973	60.986374	5.820262	-0.001314	0.466921
6.456645	61.992835	5.825267	-0.001305	0.469316
6.579308	63.015768	5.830272	-0.001336	0.471812
6.655025	64.021395	5.835277	-0.001355	0.474233
6.720390	65.080349	5.840282	-0.001371	0.476761
6.764351	66.116817	5.845286	-0.001383	0.479214
6.991912	67.164463	5.850291	-0.001439	0.481764
7.042980	68.224239	5.855296	-0.001452	0.484249
7.076739	69.319650	5.860301	-0.001461	0.486795
7.210489	70.384458	5.865306	-0.001494	0.489303
7.272397	71.493677	5.870310	-0.001510	0.491867
7.455759	72.576719	5.875315	-0.001555	0.494413
7.631323	73.685849	5.880320	-0.001599	0.497000
7.431018	74.850927	5.885325	-0.001551	0.499536
7.533348	76.016371	5.890330	-0.001576	0.502191
7.632793	77.167614	5.895334	-0.001601	0.504800
7.783124	78.336527	5.900339	-0.001639	0.507456
7.899641	79.498519	5.905344	-0.001668	0.510068
7.842155	80.721767	5.910349	-0.001654	0.512727
7.855073	81.947852	5.915354	-0.001658	0.515409
8.010807	83.147794	5.920358	-0.001697	0.518080
8.051960	84.398571	5.925363	-0.001708	0.520799
8.128770	85.641795	5.930368	-0.001727	0.523502
8.113861	86.936098	5.935373	-0.001724	0.526262
8.303393	88.173054	5.940378	-0.001771	0.528971
8.381714	89.466687	5.945382	-0.001791	0.531740
8.364175	90.784135	5.950387	-0.001788	0.534505
8.714487	92.050007	5.955392	-0.001874	0.537297
8.891401	93.334483	5.960397	-0.001918	0.540044
9.116309	94.632091	5.965402	-0.001974	0.542823
9.152975	95.970258	5.970406	-0.001984	0.545597
9.432405	97.252344	5.975411	-0.002053	0.548337
9.489968	98.610290	5.980416	-0.002068	0.551132
9.596150	99.940438	5.985421	-0.002094	0.553874
9.769298	101.305873	5.990426	-0.002137	0.556701
9.871406	102.654859	5.995430	-0.002163	0.559452
10.097949	104.023791	6.000435	-0.002219	0.562278
10.062650	105.439557	6.005440	-0.002212	0.565083
10.094707	106.849013	6.010445	-0.002220	0.567886
10.145849	108.296309	6.015450	-0.002234	0.570758
10.215675	109.720037	6.020454	-0.002251	0.573576
10.251602	111.206257	6.025459	-0.002261	0.576489
10.354735	112.670481	6.030464	-0.002287	0.579370
10.508174	114.145359	6.035469	-0.002326	0.582276
10.652219	115.642801	6.040474	-0.002362	0.585208
10.787145	117.128033	6.045478	-0.002396	0.588098
10.937021	118.639523	6.050483	-0.002433	0.591029
10.984361	120.163799	6.055488	-0.002446	0.593933
11.199726	121.674479	6.060493	-0.002499	0.596858
11.348950	123.205328	6.065498	-0.002537	0.599782
11.261198	124.801301	6.070502	-0.002516	0.602728
11.370665	126.390946	6.075507	-0.002544	0.605719
11.440513	127.963794	6.080512	-0.002562	0.608650
11.630873	129.561531	6.085517	-0.002609	0.611655
11.844740	131.151670	6.090522	-0.002663	0.614640
11.986090	132.758212	6.095526	-0.002698	0.617615
12.407206	134.328016	6.100531	-0.002802	0.620606
12.474183	135.952586	6.105536	-0.002819	0.623559
12.524134	137.602157	6.110541	-0.002832	0.626537
12.693894	139.232212	6.115546	-0.002875	0.629507
12.644386	140.925647	6.120550	-0.002864	0.632501
12.839159	142.604218	6.125555	-0.002913	0.635537
12.961084	144.271199	6.130560	-0.002943	0.638514
12.903799	146.028375	6.135565	-0.002930	0.641575
13.058550	147.755671	6.140570	-0.002969	0.644640
13.089752	149.492984	6.145574	-0.002978	0.647666
13.255785	151.251509	6.150579	-0.003020	0.650760
13.412756	153.000809	6.155584	-0.003059	0.653821
13.632908	154.749706	6.160589	-0.003114	0.656887
13.580062	156.586152	6.165594	-0.003102	0.659998
13.620833	158.407385	6.170598	-0.003113	0.663100
13.871299	160.220324	6.175603	-0.003176	0.666241
14.037367	162.036818	6.180608	-0.003217	0.669346
14.192985	163.853938	6.185613	-0.003257	0.672434
14.480672	165.686608	6.190618	-0.003328	0.675576
14.565590	167.518575	6.195622	-0.003350	0.678638
14.725899	169.382629	6.200627	-0.003390	0.681763
14.847390	171.270269	6.205632	-0.003421	0.684900
14.872528	173.148374	6.210637	-0.003428	0.687977
14.910456	175.088345	6.215642	-0.003439	0.691144
14.976804	177.022846	6.220646	-0.003456	0.694298
15.137008	178.953900	6.225651	-0.003497	0.697460
15.351831	180.908941	6.230656	-0.003550	0.700663
15.459959	182.863082	6.235661	-0.003578	0.703818
15.567259	184.847220	6.240666	-0.003605	0.707005
15.543823	186.870832	6.245670	-0.003601	0.710202
15.768643	188.857194	6.250675	-0.003657	0.713400
15.807097	190.903178	6.255680	-0.003668	0.716621
15.742384	192.987819	6.260685	-0.003653	0.719858
15.931336	195.047995	6.265690	-0.003701	0.723117
15.918554	197.157798	6.270694	-0.003699	0.726378
16.119289	199.249531	6.275699	-0.003750	0.729660
16.440111	201.311943	6.280704	-0.003829	0.732918
16.527232	203.430832	6.285709	-0.003852	0.736179
16.966172	205.508265	6.290714	-0.003960	0.739464
17.081571	207.618522	6.295718	-0.003990	0.742692
17.370109	209.717792	6.300723	-0.004062	0.745938
17.388300	211.878033	6.305728	-0.004068	0.749185
17.327341	214.056025	6.310733	-0.004054	0.752421
17.571309	216.228489	6.315738	-0.004115	0.755722
17.594778	218.428946	6.320742	-0.004122	0.758987
17.579384	220.665975	6.325747	-0.004120	0.762282
17.721522	222.912216	6.330752	-0.004156	0.765620
17.747985	225.165599	6.335757	-0.004164	0.768921
17.883676	227.437900	6.340762	-0.004199	0.772266
17.744963	229.793848	6.345766	-0.004166	0.775643
17.802660	232.134558	6.350771	-0.004182	0.779036
18.019423	234.469537	6.355776	-0.004236	0.782450
18.214297	236.807874	6.360781	-0.004285	0.785847
18.433264	239.159214	6.365786	-0.004340	0.789255
18.749066	241.463441	6.370790	-0.004419	0.792608
19.098659	243.783684	6.375795	-0.004506	0.795978
19.335384	246.131959	6.380800	-0.004565	0.799343
19.557586	248.452951	6.385805	-0.004621	0.802652
19.777775	250.816420	6.390810	-0.004676	0.806006
19.900951	253.190043	6.395814	-0.004708	0.809334
20.064265	255.558286	6.400819	-0.004749	0.812652
20.156865	257.978854	6.405824	-0.004774	0.816010
20.201097	260.423128	6.410829	-0.004786	0.819375
20.246580	262.889973	6.415834	-0.004799	0.822756
20.334879	265.367621	6.420838	-0.004822	0.826149
20.550416	267.836972	6.425843	-0.004876	0.829550
20.672130	270.318766	6.430848	-0.004907	0.832930
20.719012	272.834120	6.435853	-0.004921	0.836322
21.003193	275.345238	6.440858	-0.004992	0.839754
20.911255	277.916973	6.445862	-0.004971	0.843159
21.050164	280.464170	6.450867	-0.005006	0.846575
21.284003	283.033030	6.455872	-0.005065	0.850030
21.365847	285.616927	6.460877	-0.005087	0.853452
21.370189	288.252809	6.465882	-0.005090	0.856910
21.564778	290.877124	6.470886	-0.005139	0.860386
21.661305	293.539863	6.475891	-0.005164	0.863874
21.695336	296.199186	6.480896	-0.005174	0.867328
21.814354	298.883375	6.485901	-0.005205	0.870820
22.003377	301.588504	6.490906	-0.005253	0.874343
22.277214	304.254853	6.495910	-0.005322	0.877822
22.315133	306.994856	6.500915	-0.005333	0.881325
22.443862	309.744488	6.505920	-0.005366	0.884848
22.411260	312.511691	6.510925	-0.005360	0.888340
22.486021	315.322728	6.515930	-0.005380	0.891900
22.653727	318.121694	6.520934	-0.005423	0.895452
23.064236	320.894643	6.525939	-0.005525	0.899014
23.208056	323.705169	6.530944	-0.005562	0.902547
23.318736	326.528314	6.535949	-0.005591	0.906074
23.420321	329.391551	6.540954	-0.005617	0.909634
23.540996	332.240556	6.545958	-0.005649	0.913168
23.642689	335.117336	6.550963	-0.005676	0.916717
23.681750	338.048182	6.555968	-0.005687	0.920304
23.813366	340.975947	6.560973	-0.005721	0.923895
24.022014	343.878732	6.565978	-0.005774	0.927459
24.287375	346.795268	6.570982	-0.005841	0.931039
24.315133	349.770916	6.575987	-0.005849	0.934622
24.625552	352.719890	6.580992	-0.005927	0.938223
24.584720	355.726052	6.585997	-0.005919	0.941800
24.827863	358.717576	6.591002	-0.005981	0.945410
24.842294	361.754166	6.596006	-0.005986	0.949008
24.961298	364.790032	6.601011	-0.006017	0.952615
25.166120	367.836355	6.606016	-0.006069	0.956239
25.128644	370.946892	6.611021	-0.006062	0.959872
25.317309	374.067328	6.616026	-0.006110	0.963551
25.430246	377.146471	6.621030	-0.006140	0.967152
25.650005	380.275096	6.626035	-0.006196	0.970820
25.904270	383.406178	6.631040	-0.006260	0.974485
26.014908	386.552667	6.636045	-0.006289	0.978122
26.235850	389.710852	6.641050	-0.006345	0.981783
26.558481	392.853026	6.646054	-0.006426	0.985434
26.822922	395.991470	6.651059	-0.006493	0.989054
27.044147	399.132091	6.656064	-0.006549	0.992655
27.089174	402.300018	6.661069	-0.006562	0.996236
27.369884	405.489110	6.666074	-0.006633	0.999878
27.557042	408.678291	6.671078	-0.006680	1.003487
27.518655	411.899980	6.676083	-0.006673	1.007072
27.610162	415.162079	6.681088	-0.006698	1.010717
27.725657	418.426185	6.686093	-0.006728	1.014355
28.012252	421.700577	6.691098	-0.006800	1.018027
28.004798	425.007472	6.696102	-0.006801	1.021661
28.129127	428.328517	6.701107	-0.006833	1.025325
28.355751	431.650553	6.706112	-0.006891	1.028997
28.355591	435.011032	6.711117	-0.006893	1.032652
28.440210	438.398222	6.716122	-0.006916	1.036341
28.504535	441.827783	6.721126	-0.006934	1.040058
28.571637	445.273383	6.726131	-0.006952	1.043779
28.817167	448.700446	6.731136	-0.007015	1.047502
28.959688	452.132026	6.736141	-0.007052	1.051197
29.274917	455.590502	6.741146	-0.007131	1.054941
29.586747	459.023407	6.746150	-0.007210	1.058644
29.875262	462.461262	6.751155	-0.007282	1.062335
29.988171	465.922519	6.756160	-0.007312	1.066004
30.082172	469.401197	6.761165	-0.007338	1.069675
30.342397	472.894715	6.766170	-0.007403	1.073380
30.324982	476.425515	6.771174	-0.007402	1.077059
30.375208	479.984700	6.776179	-0.007416	1.080767
30.524784	483.556762	6.781184	-0.007455	1.084495
30.693795	487.123163	6.786189	-0.007499	1.088208
31.023886	490.689573	6.791194	-0.007582	1.091938
31.285888	494.240669	6.796198	-0.007648	1.095627
31.415310	497.847753	6.801203	-0.007682	1.099336
31.508657	501.495120	6.806208	-0.007707	1.103067
31.726648	505.073560	6.811213	-0.007763	1.106738
31.958445	508.695805	6.816218	-0.007822	1.110445
32.019738	512.359446	6.821222	-0.007840	1.114149
32.075527	516.055403	6.826227	-0.007856	1.117872
32.104053	519.804910	6.831232	-0.007865	1.121632
32.188510	523.511145	6.836237	-0.007888	1.125345
32.234046	527.312285	6.841242	-0.007902	1.129134
32.482223	531.088217	6.846246	-0.007965	1.132922
32.660619	534.863513	6.851251	-0.008011	1.136684
32.888564	538.674508	6.856256	-0.008069	1.140477
32.974944	542.488841	6.861261	-0.008093	1.144236
33.176849	546.318911	6.866266	-0.008145	1.148018
33.310038	550.156309	6.871270	-0.008180	1.151783
33.515248	553.977463	6.876275	-0.008233	1.155533
33.628070	557.878298	6.881280	-0.008263	1.159331
33.699397	561.783632	6.886285	-0.008283	1.163114
34.036688	565.657362	6.891290	-0.008368	1.166900
34.219536	569.533032	6.896294	-0.008415	1.170649
34.347815	573.460937	6.901299	-0.008449	1.174427
34.522105	577.421304	6.906304	-0.008494	1.178231
34.576932	581.390649	6.911309	-0.008511	1.182012
34.740199	585.347349	6.916314	-0.008553	1.185786
34.799457	589.368578	6.921318	-0.008570	1.189592
34.807257	593.429328	6.926323	-0.008575	1.193414
35.121772	597.472516	6.931328	-0.008654	1.197259
35.220764	601.535184	6.936333	-0.008681	1.201074
35.296441	605.621654	6.941338	-0.008703	1.204895
35.512493	609.709454	6.946342	-0.008758	1.208728
35.778425	613.811465	6.951347	-0.008826	1.212570
35.904239	617.941310	6.956352	-0.008859	1.216403
36.131753	622.056293	6.961357	-0.008918	1.220227
36.542584	626.156894	6.966362	-0.009021	1.224056
36.660687	630.283413	6.971366	-0.009052	1.227848
36.831236	634.415000	6.976371	-0.009097	1.231642
37.000208	638.558461	6.981376	-0.009141	1.235435
37.139570	642.729294	6.986381	-0.009178	1.239236
37.354210	646.909889	6.991386	-0.009233	1.243047
37.565656	651.078362	6.996390	-0.009288	1.246834
37.545808	655.304381	7.001395	-0.009286	1.250625
37.827755	659.542368	7.006400	-0.009357	1.254462
37.794396	663.831388	7.011405	-0.009352	1.258284
38.038169	668.116696	7.016410	-0.009414	1.262134
38.375288	672.339720	7.021414	-0.009500	1.265932
38.594624	676.585208	7.026419	-0.009556	1.269720
38.758408	680.884137	7.031424	-0.009599	1.273535
38.860757	685.187287	7.036429	-0.009627	1.277333
39.120467	689.516511	7.041434	-0.009693	1.281167
39.152662	693.828706	7.046438	-0.009704	1.284939
39.246535	698.205373	7.051443	-0.009730	1.288766
39.460484	702.589018	7.056448	-0.009785	1.292606
39.683701	706.972148	7.061453	-0.009843	1.296435
39.959121	711.362319	7.066458	-0.009913	1.300267
40.175971	715.694142	7.071462	-0.009969	1.304029
40.274602	720.089997	7.076467	-0.009996	1.307817
40.373026	724.553150	7.081472	-0.010023	1.311651
40.452574	728.987326	7.086477	-0.010045	1.315447
40.833470	733.409881	7.091482	-0.010141	1.319267
40.946711	737.877943	7.096486	-0.010172	1.323074
41.182146	742.329004	7.101491	-0.010233	1.326874
41.311325	746.837531	7.106496	-0.010267	1.330696
41.384621	751.325121	7.111501	-0.010288	1.334482
41.573678	755.886201	7.116506	-0.010337	1.338335
41.708505	760.434709	7.121510	-0.010373	1.342158
41.958068	764.956528	7.126515	-0.010437	1.345966
41.956326	769.565186	7.131520	-0.010440	1.349798
42.027805	774.167987	7.136525	-0.010461	1.353625
42.237457	778.812409	7.141530	-0.010515	1.357495
42.369638	783.472908	7.146534	-0.010550	1.361356
42.408145	788.130878	7.151539	-0.010563	1.365192
42.449666	792.879445	7.156544	-0.010576	1.369090
42.690207	797.576882	7.161549	-0.010638	1.372965
42.800694	802.361311	7.166554	-0.010669	1.376880
43.149427	807.100917	7.171558	-0.010757	1.380782
43.310883	811.830085	7.176563	-0.010800	1.384638
43.645370	816.557947	7.181568	-0.010885	1.388507
43.692834	821.331355	7.186573	-0.010899	1.392361
44.066739	826.077667	7.191578	-0.010994	1.396228
44.237854	830.840208	7.196582	-0.011039	1.400069
44.451343	835.565845	7.201587	-0.011094	1.403876
44.605804	840.371494	7.206592	-0.011135	1.407729
44.756784	845.169404	7.211597	-0.011175	1.411564
44.887251	850.016732	7.216602	-0.011211	1.415425
45.030809	854.861713	7.221606	-0.011249	1.419276
45.233622	859.701677	7.226611	-0.011302	1.423120
45.480042	864.567088	7.231616	-0.011365	1.426979
45.774481	869.392203	7.236621	-0.011440	1.430803
45.841285	874.267405	7.241626	-0.011460	1.434626
45.837916	879.210741	7.246630	-0.011463	1.438482
46.017633	884.136873	7.251635	-0.011510	1.442338
46.036143	889.137086	7.256640	-0.011518	1.446221
46.145768	894.141278	7.261645	-0.011548	1.450108
46.459315	899.113303	7.266650	-0.011628	1.453986
46.594618	904.154981	7.271654	-0.011664	1.457885
46.528737	909.232679	7.276659	-0.011652	1.461774
46.766952	914.324438	7.281664	-0.011713	1.465703
46.746341	919.428966	7.286669	-0.011712	1.469598
46.991842	924.542518	7.291674	-0.011775	1.473524
47.207875	929.676541	7.296678	-0.011832	1.477452
47.442603	934.786770	7.301683	-0.011892	1.481353
47.795452	939.900387	7.306688	-0.011982	1.485261
48.001380	944.977702	7.311693	-0.012036	1.489113
48.339250	950.089916	7.316698	-0.012122	1.492998
48.442253	955.220105	7.321702	-0.012151	1.496857
48.692639	960.354859	7.326707	-0.012215	1.500728
48.923923	965.482595	7.331712	-0.012275	1.504581
49.063508	970.604208	7.336717	-0.012313	1.508408
49.206895	975.795597	7.341722	-0.012351	1.512277
49.390664	980.981360	7.346726	-0.012400	1.516138
49.439618	986.220901	7.351731	-0.012415	1.520011
49.525363	991.443906	7.356736	-0.012440	1.523867
49.597566	996.725895	7.361741	-0.012461	1.527755
49.638863	1002.069674	7.366746	-0.012475	1.531675
49.779997	1007.443424	7.371750	-0.012513	1.535619
49.786898	1012.853104	7.376755	-0.012518	1.539562
49.983111	1018.234738	7.381760	-0.012570	1.543498
50.080166	1023.651760	7.386765	-0.012597	1.547437
50.390467	1029.069820	7.391770	-0.012677	1.551393
50.511876	1034.521696	7.396774	-0.012710	1.555340
50.817806	1039.938798	7.401779	-0.012788	1.559274
50.938016	1045.365182	7.406784	-0.012822	1.563183
51.129876	1050.819109	7.411789	-0.012872	1.567111
51.547851	1056.250894	7.416794	-0.012978	1.571039
51.821531	1061.682761	7.421798	-0.013049	1.574940
51.946662	1067.124082	7.426803	-0.013083	1.578822
52.037385	1072.609938	7.431808	-0.013109	1.582721
52.211413	1078.077948	7.436813	-0.013155	1.586607
52.380030	1083.612464	7.441818	-0.013200	1.590531
52.411121	1089.173460	7.446822	-0.013211	1.594447
52.605104	1094.723549	7.451827	-0.013262	1.598365
52.800401	1100.300581	7.456832	-0.013314	1.602292
52.781946	1105.908020	7.461837	-0.013313	1.606206
52.992859	1111.562116	7.466842	-0.013369	1.610169
53.164899	1117.219144	7.471846	-0.013415	1.614121
53.264636	1122.889397	7.476851	-0.013443	1.618063
53.305954	1128.644143	7.481856	-0.013457	1.622048
53.459425	1134.366411	7.486861	-0.013498	1.626013
53.744309	1140.088782	7.491866	-0.013572	1.629983
53.905228	1145.826896	7.496870	-0.013615	1.633940
53.953364	1151.587631	7.501875	-0.013631	1.637891
54.285260	1157.352680	7.506880	-0.013716	1.641867
54.453812	1163.109929	7.511885	-0.013761	1.645809
54.657473	1168.907124	7.516890	-0.013814	1.649774
54.669053	1174.750314	7.521894	-0.013821	1.653738
54.869805	1180.574534	7.526899	-0.013874	1.657701
55.046139	1186.438335	7.531904	-0.013921	1.661679
55.142131	1192.306359	7.536909	-0.013949	1.665641
55.335698	1198.217544	7.541914	-0.014000	1.669633
55.469100	1204.142023	7.546918	-0.014037	1.673618
55.494006	1210.095906	7.551923	-0.014047	1.677602
55.685962	1216.068425	7.556928	-0.014098	1.681606
55.830939	1222.053502	7.561933	-0.014137	1.685605
56.063944	1228.072403	7.566938	-0.014199	1.689625
56.174589	1234.120061	7.571942	-0.014230	1.693642
56.349805	1240.152401	7.576947	-0.014277	1.697646
56.399053	1246.259630	7.581952	-0.014293	1.701677
56.710471	1252.306583	7.586957	-0.014373	1.705686
57.086755	1258.348565	7.591962	-0.014469	1.709689
57.249275	1264.415045	7.596966	-0.014513	1.713677
57.498024	1270.454247	7.601971	-0.014578	1.717646
57.758216	1276.490668	7.606976	-0.014646	1.721605
57.779625	1282.591730	7.611981	-0.014655	1.725573
57.934996	1288.717107	7.616986	-0.014697	1.729561
57.977876	1294.892744	7.621990	-0.014712	1.733561
58.218167	1301.048184	7.626995	-0.014775	1.737558
58.436918	1307.211693	7.632000	-0.014832	1.741550
58.687413	1313.347506	7.637005	-0.014898	1.745518
58.835487	1319.546590	7.642010	-0.014938	1.749507
58.904311	1325.786392	7.647014	-0.014959	1.753504
59.086269	1332.008668	7.652019	-0.015008	1.757493
59.351777	1338.229339	7.657024	-0.015077	1.761480
59.650587	1344.443065	7.662029	-0.015154	1.765457
60.029255	1350.642676	7.667034	-0.015251	1.769424
60.204786	1356.859002	7.672038	-0.015298	1.773373
60.303890	1363.094379	7.677043	-0.015327	1.777317
60.582003	1369.343661	7.682048	-0.015399	1.781278
60.629404	1375.590211	7.687053	-0.015415	1.785207
60.945113	1381.847724	7.692058	-0.015496	1.789160
61.044965	1388.136801	7.697062	-0.015525	1.793102
61.175314	1394.427275	7.702067	-0.015561	1.797040
61.368275	1400.735186	7.707072	-0.015613	1.800986
61.471627	1407.054683	7.712077	-0.015642	1.804923
61.675307	1413.428410	7.717082	-0.015696	1.808893
61.746300	1419.832617	7.722086	-0.015718	1.812861
61.684454	1426.270771	7.727091	-0.015707	1.816829
62.000718	1432.715609	7.732096	-0.015789	1.820828
62.224734	1439.139032	7.737101	-0.015848	1.824796
62.420656	1445.599300	7.742106	-0.015900	1.828776
62.522716	1452.095946	7.747110	-0.015930	1.832760
62.764218	1458.549975	7.752115	-0.015993	1.836723
63.098059	1465.017745	7.757120	-0.016079	1.840694
63.163800	1471.501395	7.762125	-0.016100	1.844641
63.410326	1478.026332	7.767130	-0.016164	1.848622
63.679608	1484.530781	7.772134	-0.016235	1.852584
63.622650	1491.080484	7.777139	-0.016225	1.856534
63.947950	1497.658949	7.782144	-0.016309	1.860528
63.979035	1504.227147	7.787149	-0.016321	1.864481
64.122441	1510.848403	7.792154	-0.016361	1.868467
64.309692	1517.469391	7.797158	-0.016411	1.872449
64.370084	1524.103805	7.802163	-0.016430	1.876419
64.680076	1530.743948	7.807168	-0.016511	1.880406
64.977674	1537.358274	7.812173	-0.016588	1.884368
65.291053	1543.976975	7.817178	-0.016669	1.888326
65.467733	1550.618118	7.822182	-0.016717	1.892277
65.618299	1557.254232	7.827187	-0.016758	1.896214
65.663935	1563.959580	7.832192	-0.016774	1.900174
65.819279	1570.645137	7.837197	-0.016816	1.904124
65.903419	1577.400113	7.842202	-0.016842	1.908100
66.074564	1584.160139	7.847206	-0.016888	1.912079
66.080309	1590.972343	7.852211	-0.016894	1.916065
66.337204	1597.782688	7.857216	-0.016962	1.920064
66.685192	1604.544406	7.862221	-0.017051	1.924035
66.798275	1611.374089	7.867226	-0.017084	1.928016
67.076341	1618.202439	7.872230	-0.017156	1.932002
67.376411	1624.983519	7.877235	-0.017234	1.935955
67.704864	1631.789311	7.882240	-0.017319	1.939916
67.963640	1638.524262	7.887245	-0.017387	1.943822
68.236161	1645.280131	7.892250	-0.017458	1.947734
68.506951	1652.020108	7.897254	-0.017529	1.951628
68.590294	1658.774590	7.902259	-0.017554	1.955507
68.645913	1665.591998	7.907264	-0.017572	1.959412
68.636956	1672.446572	7.912269	-0.017575	1.963325
68.802342	1679.350738	7.917274	-0.017620	1.967272
68.966222	1686.249333	7.922278	-0.017665	1.971209
69.094145	1693.178433	7.927283	-0.017701	1.975152
69.408278	1700.111980	7.932288	-0.017782	1.979105
69.384197	1707.069838	7.937293	-0.017781	1.983036
69.638206	1714.047451	7.942298	-0.017848	1.986994
69.798423	1721.026552	7.947302	-0.017892	1.990936
69.910195	1728.036436	7.952307	-0.017924	1.994884
70.161357	1735.066372	7.957312	-0.017990	1.998847
70.427783	1742.040924	7.962317	-0.018060	2.002772
70.558994	1749.094676	7.967322	-0.018097	2.006723
70.726348	1756.134176	7.972326	-0.018143	2.010660
70.837330	1763.218551	7.977331	-0.018175	2.014611
71.072468	1770.335179	7.982336	-0.018237	2.018581
71.191043	1777.432995	7.987341	-0.018271	2.022524
71.186141	1784.589478	7.992346	-0.018275	2.026482
71.251039	1791.766559	7.997350	-0.018295	2.030449
71.338908	1799.015673	8.002355	-0.018322	2.034450
71.687325	1806.233302	8.007360	-0.018412	2.038446
71.965264	1813.415134	8.012365	-0.018485	2.042409
72.195353	1820.625702	8.017370	-0.018546	2.046376
72.387365	1827.825028	8.022374	-0.018598	2.050327
72.594494	1835.054542	8.027379	-0.018653	2.054287
72.925573	1842.278400	8.032384	-0.018739	2.058246
73.087764	1849.475580	8.037389	-0.018784	2.062170
73.267356	1856.689288	8.042394	-0.018833	2.066097
73.615966	1863.878324	8.047398	-0.018923	2.070016
73.801927	1871.064773	8.052403	-0.018973	2.073914
74.062534	1878.304093	8.057408	-0.019042	2.077838
74.260431	1885.480856	8.062413	-0.019095	2.081717
74.384128	1892.709289	8.067418	-0.019130	2.085611
74.612401	1899.955455	8.072422	-0.019191	2.089514
74.583463	1907.257816	8.077427	-0.019189	2.093421
74.819905	1914.604491	8.082432	-0.019252	2.097364
74.719133	1921.956135	8.087437	-0.019232	2.101277
74.803808	1929.353153	8.092442	-0.019258	2.105221
74.963169	1936.794493	8.097446	-0.019302	2.109187
75.173741	1944.227158	8.102451	-0.019359	2.113144
75.388273	1951.704055	8.107456	-0.019416	2.117118
75.400254	1959.159600	8.112461	-0.019424	2.121057
75.635256	1966.643217	8.117466	-0.019487	2.125021
75.794168	1974.175629	8.122470	-0.019531	2.128998
76.222981	1981.651368	8.127475	-0.019641	2.132956
76.628432	1989.109090	8.132480	-0.019745	2.136897
76.975266	1996.470193	8.137485	-0.019835	2.140775
77.257552	2003.826019	8.142490	-0.019909	2.144638
77.553929	2011.202047	8.147494	-0.019986	2.148507
77.783423	2018.559396	8.152499	-0.020047	2.152353
78.098430	2025.929701	8.157504	-0.020129	2.156206
78.326804	2033.213291	8.162509	-0.020190	2.160000
78.588868	2040.528749	8.167514	-0.020259	2.163807
78.598151	2047.952120	8.172518	-0.020267	2.167645
78.602542	2055.379642	8.177523	-0.020273	2.171477
78.725071	2062.902108	8.182528	-0.020308	2.175360
78.702858	2070.394979	8.187533	-0.020308	2.179211
78.745496	2077.981139	8.192538	-0.020323	2.183108
78.864659	2085.619568	8.197542	-0.020358	2.187029
78.991202	2093.226188	8.202547	-0.020394	2.190928
79.053196	2100.946727	8.207552	-0.020414	2.194873
79.363248	2108.536902	8.212557	-0.020495	2.198763
79.453751	2116.242316	8.217562	-0.020523	2.202688
79.602713	2123.995805	8.222566	-0.020564	2.206635
79.968660	2131.666208	8.227571	-0.020659	2.210548
80.402925	2139.337864	8.232576	-0.020770	2.214459
80.490809	2146.944657	8.237581	-0.020797	2.218306
80.898779	2154.582198	8.242586	-0.020902	2.222185
81.104003	2162.220482	8.247590	-0.020958	2.226043
81.331560	2169.808225	8.252595	-0.021018	2.229870
81.595350	2177.459463	8.257600	-0.021088	2.233725
81.823568	2185.036169	8.262605	-0.021149	2.237534
81.928175	2192.675216	8.267610	-0.021180	2.241359
82.179433	2200.343286	8.272614	-0.021247	2.245202
82.244697	2207.946464	8.277619	-0.021268	2.248993
82.365131	2215.733673	8.282624	-0.021303	2.252873
82.378349	2223.521506	8.287629	-0.021311	2.256740
82.518065	2231.287731	8.292634	-0.021351	2.260598
82.606167	2239.113916	8.297638	-0.021378	2.264475
82.832818	2246.883478	8.302643	-0.021438	2.268327
83.012868	2254.756818	8.307648	-0.021488	2.272220
83.213029	2262.586875	8.312653	-0.021542	2.276087
83.306517	2270.437035	8.317658	-0.021570	2.279950
83.479253	2278.309339	8.322662	-0.021618	2.283822
83.422997	2286.256896	8.327667	-0.021610	2.287710
83.703659	2294.263896	8.332672	-0.021684	2.291642
84.155131	2302.167245	8.337677	-0.021799	2.295527
84.208144	2310.050037	8.342682	-0.021818	2.299371
84.429948	2318.002266	8.347686	-0.021877	2.303252
84.513718	2325.941826	8.352691	-0.021903	2.307112
84.912578	2333.923713	8.357696	-0.022006	2.311006
85.078867	2341.865673	8.362701	-0.022052	2.314859
85.371685	2349.732599	8.367706	-0.022129	2.318678
85.443044	2357.721132	8.372710	-0.022152	2.322535
85.472018	2365.733623	8.377715	-0.022165	2.326395
85.714254	2373.813757	8.382720	-0.022230	2.330293
85.817812	2381.852370	8.387725	-0.022261	2.334157
86.022254	2389.898049	8.392730	-0.022316	2.338024
86.167421	2397.992825	8.397734	-0.022357	2.341904
86.242700	2406.101498	8.402739	-0.022381	2.345781
86.467026	2414.245724	8.407744	-0.022442	2.349676
86.673897	2422.367755	8.412749	-0.022498	2.353554
86.811448	2430.464072	8.417754	-0.022537	2.357409
87.122682	2438.621024	8.422758	-0.022619	2.361297
87.125710	2446.788503	8.427763	-0.022625	2.365165
87.275233	2455.031933	8.432768	-0.022667	2.369071
87.411857	2463.256933	8.437773	-0.022706	2.372961
87.546615	2471.495434	8.442778	-0.022745	2.376851
87.840827	2479.748881	8.447782	-0.022822	2.380751
87.945556	2488.015396	8.452787	-0.022854	2.384639
88.269731	2496.241542	8.457792	-0.022939	2.388516
88.335676	2504.553041	8.462797	-0.022960	2.392410
88.574533	2512.815938	8.467802	-0.023024	2.396286
88.637997	2521.170650	8.472806	-0.023046	2.400188
88.913538	2529.464886	8.477811	-0.023119	2.404068
89.141997	2537.779522	8.482816	-0.023180	2.407948
89.388823	2546.115233	8.487821	-0.023246	2.411833
89.567881	2554.459731	8.492826	-0.023296	2.415711
89.783823	2562.801777	8.497830	-0.023354	2.419584
89.992186	2571.092349	8.502835	-0.023411	2.423427
90.121441	2579.423144	8.507840	-0.023448	2.427278
90.212710	2587.826491	8.512845	-0.023476	2.431154
90.369090	2596.230656	8.517850	-0.023521	2.435028
90.555822	2604.639535	8.522854	-0.023572	2.438899
90.765749	2613.007306	8.527859	-0.023629	2.442747
90.997977	2621.445801	8.532864	-0.023692	2.446622
91.108264	2629.923131	8.537869	-0.023724	2.450502
91.196567	2638.412859	8.542874	-0.023752	2.454381
91.319228	2646.917447	8.547878	-0.023788	2.458261
91.557045	2655.385710	8.552883	-0.023852	2.462126
91.674127	2663.951716	8.557888	-0.023886	2.466022
91.880334	2672.497296	8.562893	-0.023942	2.469907
92.032374	2681.091230	8.567898	-0.023985	2.473806
92.349236	2689.596641	8.572903	-0.024069	2.477667
92.367891	2698.182394	8.577907	-0.024079	2.481542
92.589175	2706.816571	8.582912	-0.024139	2.485444
92.626672	2715.497282	8.587917	-0.024154	2.489350
92.802248	2724.202533	8.592922	-0.024203	2.493269
93.155795	2732.842513	8.597927	-0.024296	2.497162
93.369391	2741.466578	8.602931	-0.024354	2.501034
93.599298	2750.118331	8.607936	-0.024416	2.504914
93.854225	2758.748187	8.612941	-0.024484	2.508779
93.927961	2767.394068	8.617946	-0.024508	2.512635
94.157117	2776.043294	8.622951	-0.024570	2.516495
94.250384	2784.714699	8.627955	-0.024599	2.520352
94.427131	2793.453542	8.632960	-0.024648	2.524238
94.763286	2802.152641	8.637965	-0.024736	2.528108
94.813452	2810.853764	8.642970	-0.024755	2.531958
94.964389	2819.656004	8.647975	-0.024798	2.535852
95.238724	2828.333699	8.652979	-0.024871	2.539691
95.510722	2837.100935	8.657984	-0.024943	2.543564
95.588458	2845.820042	8.662989	-0.024968	2.547400
95.871598	2854.583755	8.667994	-0.025043	2.551260
96.168323	2863.330517	8.672999	-0.025122	2.555108
96.201590	2872.065236	8.678003	-0.025136	2.558931
96.389853	2880.870946	8.683008	-0.025188	2.562787
96.516612	2889.680174	8.688013	-0.025225	2.566636
96.794957	2898.506790	8.693018	-0.025299	2.570494
97.059566	2907.371042	8.698023	-0.025370	2.574362
97.128181	2916.151014	8.703027	-0.025393	2.578178
97.365258	2924.946801	8.708032	-0.025457	2.582003
97.579464	2933.776758	8.713037	-0.025515	2.585836
97.720742	2942.594856	8.718042	-0.025556	2.589655
97.876061	2951.504131	8.723047	-0.025600	2.593508
98.061444	2960.290783	8.728051	-0.025651	2.597304
98.316044	2969.157167	8.733056	-0.025720	2.601132
98.331498	2978.075933	8.738061	-0.025730	2.604966
98.562824	2987.013191	8.743066	-0.025792	2.608812
98.830413	2995.982421	8.748071	-0.025864	2.612667
99.064697	3004.794582	8.753075	-0.025927	2.616448
99.274715	3013.736761	8.758080	-0.025985	2.620279
99.356395	3022.682750	8.763085	-0.026011	2.624099
99.554807	3031.613357	8.768090	-0.026066	2.627912
99.791855	3040.580425	8.773095	-0.026130	2.631737
99.887529	3049.516818	8.778099	-0.026159	2.635537
100.163985	3058.509249	8.783104	-0.026233	2.639363
100.351976	3067.491272	8.788109	-0.026285	2.643176
100.318487	3076.502108	8.793114	-0.026283	2.646985
100.635279	3085.592626	8.798119	-0.026367	2.650838
100.895998	3094.593681	8.803123	-0.026437	2.654645
101.153188	3103.613785	8.808128	-0.026506	2.658455
101.391659	3112.606649	8.813133	-0.026570	2.662246
101.449952	3121.569153	8.818138	-0.026591	2.666012
101.668122	3130.657083	8.823143	-0.026650	2.669831
101.955493	3139.672506	8.828147	-0.026727	2.673618
102.191970	3148.685360	8.833152	-0.026791	2.677397
102.286613	3157.681141	8.838157	-0.026820	2.681156
102.499026	3166.726717	8.843162	-0.026878	2.684936
102.806369	3175.815775	8.848167	-0.026960	2.688733
102.884390	3184.866703	8.853171	-0.026985	2.692499
103.114059	3193.876174	8.858176	-0.027047	2.696249
103.216119	3202.985477	8.863181	-0.027079	2.700029
103.272671	3212.110836	8.868186	-0.027099	2.703809
103.481918	3221.305016	8.873191	-0.027156	2.707619
103.608206	3230.455766	8.878195	-0.027194	2.711401
103.971266	3239.577590	8.883200	-0.027289	2.715177
104.102030	3248.727101	8.888205	-0.027327	2.718948
104.317977	3257.896653	8.893210	-0.027386	2.722727
104.735996	3267.034105	8.898215	-0.027494	2.726495
104.975345	3276.134093	8.903219	-0.027559	2.730235
105.248201	3285.228824	8.908224	-0.027632	2.733969
105.402815	3294.332876	8.913229	-0.027676	2.737697
105.619460	3303.365121	8.918234	-0.027735	2.741393
105.797778	3312.467215	8.923239	-0.027785	2.745111
105.873898	3321.592052	8.928243	-0.027810	2.748829
106.168622	3330.760401	8.933248	-0.027889	2.752569
106.330853	3339.809248	8.938253	-0.027934	2.756249
106.554767	3348.920398	8.943258	-0.027995	2.759953
106.620872	3358.118281	8.948263	-0.028018	2.763680
106.639475	3367.351890	8.953267	-0.028029	2.767414
106.789202	3376.626793	8.958272	-0.028072	2.771166
106.953655	3385.859468	8.963277	-0.028118	2.774896
107.120539	3395.131596	8.968282	-0.028166	2.778636
107.416302	3404.451073	8.973287	-0.028244	2.782396
107.505759	3413.686107	8.978291	-0.028273	2.786109
107.699712	3423.035485	8.983296	-0.028326	2.789867
107.940776	3432.346226	8.988301	-0.028392	2.793605
108.034242	3441.640988	8.993306	-0.028421	2.797327
108.199003	3451.018718	8.998311	-0.028468	2.801080
108.199436	3460.411698	9.003315	-0.028474	2.804827
108.493124	3469.868213	9.008320	-0.028553	2.808606
108.491529	3479.368377	9.013325	-0.028559	2.812386
108.643887	3488.802907	9.018330	-0.028603	2.816140
108.883899	3498.321292	9.023335	-0.028668	2.819926
108.889153	3507.837932	9.028339	-0.028676	2.823698
109.087593	3517.423182	9.033344	-0.028731	2.827499
109.210065	3527.050007	9.038349	-0.028767	2.831308
109.324942	3536.555250	9.043354	-0.028802	2.835063
109.595259	3546.232938	9.048359	-0.028875	2.838888
109.793239	3555.842557	9.053363	-0.028930	2.842678
110.074811	3565.477198	9.058368	-0.029005	2.846475
110.373164	3575.053310	9.063373	-0.029085	2.850245
110.480385	3584.606693	9.068378	-0.029118	2.853995
110.741419	3594.225490	9.073383	-0.029188	2.857770
110.826041	3603.826357	9.078387	-0.029215	2.861527
111.067262	3613.437482	9.083392	-0.029281	2.865289
111.034855	3623.156242	9.088397	-0.029280	2.869078
111.299728	3632.800451	9.093402	-0.029351	2.872843
111.482661	3642.528439	9.098407	-0.029403	2.876633
111.659238	3652.203216	9.103411	-0.029453	2.880397
111.782555	3661.968899	9.108416	-0.029489	2.884190
112.007028	3671.757734	9.113421	-0.029551	2.887990
112.196946	3681.531251	9.118426	-0.029604	2.891778
112.493060	3691.280688	9.123431	-0.029683	2.895555
112.609075	3700.941008	9.128435	-0.029718	2.899287
112.966241	3710.697702	9.133440	-0.029812	2.903059
113.119234	3720.412470	9.138445	-0.029857	2.906804
113.297687	3730.108359	9.143450	-0.029907	2.910537
113.502132	3739.808830	9.148455	-0.029964	2.914267
113.620366	3749.536819	9.153459	-0.029999	2.918001
113.875817	3759.328932	9.158464	-0.030068	2.921759
114.057841	3769.091256	9.163469	-0.030120	2.925498
114.208532	3778.838675	9.168474	-0.030163	2.929226
114.569483	3788.608979	9.173479	-0.030258	2.932964
114.525550	3798.364003	9.178483	-0.030254	2.936679
114.669985	3808.203743	9.183488	-0.030296	2.940427
114.959450	3817.991021	9.188493	-0.030374	2.944156
114.884876	3827.888885	9.193498	-0.030362	2.947909
115.069376	3837.861207	9.198503	-0.030414	2.951695
115.140648	3847.766174	9.203507	-0.030439	2.955446
115.444601	3857.703652	9.208512	-0.030520	2.959212
115.676255	3867.656832	9.213517	-0.030583	2.962978
115.722648	3877.645128	9.218522	-0.030602	2.966745
116.179643	3887.669650	9.223527	-0.030720	2.970535
116.229099	3897.513913	9.228531	-0.030739	2.974239
116.484014	3907.517974	9.233536	-0.030808	2.978004
116.612354	3917.517124	9.238541	-0.030847	2.981759
117.000022	3927.413215	9.243546	-0.030948	2.985479
117.232638	3937.327246	9.248551	-0.031012	2.989196
117.529103	3947.179140	9.253555	-0.031091	2.992888
117.771900	3957.045309	9.258560	-0.031157	2.996578
117.939436	3966.953443	9.263565	-0.031205	3.000277
118.033122	3976.764181	9.268570	-0.031235	3.003933
118.245474	3986.794849	9.273575	-0.031294	3.007669
118.452049	3996.700683	9.278579	-0.031351	3.011355
118.822176	4006.552535	9.283584	-0.031448	3.015021
119.182333	4016.369381	9.288589	-0.031543	3.018669
119.392145	4026.167364	9.293594	-0.031601	3.022301
119.520594	4036.053091	9.298599	-0.031639	3.025959
119.745643	4045.860255	9.303603	-0.031701	3.029586
119.898068	4055.653751	9.308608	-0.031745	3.033201
120.046211	4065.546749	9.313613	-0.031788	3.036849
120.224683	4075.428979	9.318618	-0.031839	3.040489
120.518915	4085.297087	9.323623	-0.031917	3.044123
120.803209	4095.156689	9.328627	-0.031994	3.047750
120.882935	4105.051851	9.333632	-0.032020	3.051379
121.199530	4114.905473	9.338637	-0.032104	3.054995
121.259312	4124.700304	9.343642	-0.032126	3.058578
121.402010	4134.615750	9.348647	-0.032167	3.062203
121.509489	4144.541476	9.353651	-0.032200	3.065827
121.688992	4154.515527	9.358656	-0.032251	3.069466
121.853101	4164.441773	9.363661	-0.032298	3.073083
121.960537	4174.389295	9.368666	-0.032331	3.076701
122.123564	4184.478632	9.373671	-0.032378	3.080369
122.305924	4194.479589	9.378675	-0.032430	3.084000
122.547138	4204.523409	9.383680	-0.032496	3.087645
122.867316	4214.556092	9.388685	-0.032581	3.091283
122.889015	4224.540063	9.393690	-0.032593	3.094891
123.141211	4234.548897	9.398695	-0.032662	3.098510
123.289194	4244.586849	9.403699	-0.032705	3.102132
123.573277	4254.643105	9.408704	-0.032781	3.105761
123.662983	4264.735135	9.413709	-0.032810	3.109393
123.719834	4274.717951	9.418714	-0.032831	3.112980
124.034493	4284.871179	9.423719	-0.032915	3.116631
124.136869	4295.000493	9.428723	-0.032947	3.120264
124.311312	4305.108565	9.433728	-0.032996	3.123887
124.582619	4315.305410	9.438733	-0.033070	3.127540
124.624369	4325.421467	9.443738	-0.033087	3.131153
124.868966	4335.661766	9.448743	-0.033154	3.134812
124.969606	4345.766612	9.453747	-0.033185	3.138415
124.969271	4355.995623	9.458752	-0.033192	3.142055
125.253282	4366.324575	9.463757	-0.033269	3.145734
125.379597	4376.595057	9.468762	-0.033307	3.149384
125.561469	4386.836674	9.473767	-0.033358	3.153020
125.620170	4397.134970	9.478771	-0.033380	3.156669
125.813266	4407.526871	9.483776	-0.033434	3.160351
125.998059	4417.893595	9.488781	-0.033487	3.164019
126.237578	4428.235987	9.493786	-0.033552	3.167675
126.568879	4438.616128	9.498791	-0.033641	3.171343
126.891044	4448.903587	9.503795	-0.033726	3.174974
127.166083	4459.083692	9.508800	-0.033801	3.178561
127.464394	4469.328155	9.513805	-0.033881	3.182168
127.469391	4479.556975	9.518810	-0.033889	3.185758
127.708329	4489.896657	9.523815	-0.033954	3.189388
127.815638	4500.059901	9.528819	-0.033988	3.192949
127.935524	4510.426649	9.533824	-0.034024	3.196578
128.135484	4520.830389	9.538829	-0.034080	3.200217
128.208691	4531.152396	9.543834	-0.034105	3.203821
128.377711	4541.612454	9.548839	-0.034154	3.207471
128.433546	4552.069489	9.553843	-0.034175	3.211113
128.717115	4562.529986	9.558848	-0.034251	3.214757
129.004686	4572.922268	9.563853	-0.034329	3.218374
129.022127	4583.314069	9.568858	-0.034340	3.221980
129.279626	4593.824778	9.573863	-0.034410	3.225629
129.505176	4604.299078	9.578867	-0.034473	3.229260
129.649844	4614.654050	9.583872	-0.034515	3.232844
129.869055	4625.148863	9.588877	-0.034576	3.236474
129.973343	4635.596730	9.593882	-0.034609	3.240081
130.339293	4646.121580	9.598887	-0.034706	3.243716
130.494217	4656.526411	9.603891	-0.034751	3.247302
130.565523	4666.997982	9.608896	-0.034775	3.250904
130.905194	4677.534763	9.613901	-0.034866	3.254531
130.990130	4687.970745	9.618906	-0.034894	3.258113
131.207141	4698.466756	9.623911	-0.034954	3.261715
131.217826	4709.016216	9.628915	-0.034964	3.265327
131.542559	4719.619661	9.633920	-0.035051	3.268960
131.826103	4730.068427	9.638925	-0.035127	3.272535
131.995391	4740.539296	9.643930	-0.035176	3.276111
132.230533	4751.114055	9.648935	-0.035241	3.279720
132.443594	4761.623034	9.653939	-0.035300	3.283302
132.529525	4772.111614	9.658944	-0.035328	3.286871
132.659309	4782.731396	9.663949	-0.035367	3.290481
132.787320	4793.305052	9.668954	-0.035406	3.294072
133.003036	4803.931352	9.673959	-0.035466	3.297678
133.105534	4814.500304	9.678963	-0.035498	3.301259
133.232587	4825.201317	9.683968	-0.035537	3.304881
133.411687	4835.944493	9.688973	-0.035588	3.308514
133.588377	4846.472055	9.693978	-0.035639	3.312070
133.858586	4857.230036	9.698983	-0.035712	3.315702
134.079512	4867.897947	9.703987	-0.035773	3.319298
134.306999	4878.537295	9.708992	-0.035836	3.322881
134.472401	4889.256803	9.713997	-0.035884	3.326486
134.744182	4899.864951	9.719002	-0.035958	3.330052
135.128603	4910.529741	9.724007	-0.036059	3.333635
135.266688	4921.034083	9.729011	-0.036100	3.337155
135.354688	4931.649432	9.734016	-0.036129	3.340709
135.751468	4942.327769	9.739021	-0.036234	3.344285
136.007993	4952.823219	9.744026	-0.036304	3.347793
136.337708	4963.323158	9.749031	-0.036391	3.351301
136.400929	4973.849363	9.754035	-0.036414	3.354809
136.443066	4984.441248	9.759040	-0.036432	3.358334
136.600132	4995.054270	9.764045	-0.036478	3.361865
136.658761	5005.735417	9.769050	-0.036499	3.365413
136.757652	5016.574580	9.774055	-0.036531	3.369011
136.932636	5027.229211	9.779059	-0.036581	3.372545
136.935675	5038.002058	9.784064	-0.036589	3.376111
137.021078	5048.896430	9.789069	-0.036618	3.379715
137.119215	5059.771601	9.794074	-0.036649	3.383309
137.448824	5070.679951	9.799079	-0.036737	3.386914
137.592184	5081.509933	9.804083	-0.036780	3.390486
137.740822	5092.412849	9.809088	-0.036824	3.394079
138.140505	5103.322687	9.814093	-0.036929	3.397674
138.280591	5114.097335	9.819098	-0.036971	3.401216
138.468524	5125.075142	9.824103	-0.037024	3.404822
138.753359	5135.949546	9.829107	-0.037102	3.408392
138.856098	5146.731748	9.834112	-0.037134	3.411926
139.116201	5157.594093	9.839117	-0.037205	3.415484
139.345800	5168.431170	9.844122	-0.037269	3.419029
139.721289	5179.267074	9.849127	-0.037368	3.422573
139.828033	5190.035077	9.854131	-0.037402	3.426087
139.966192	5200.851110	9.859136	-0.037443	3.429613
140.193242	5211.713636	9.864141	-0.037506	3.433152
140.375539	5222.510810	9.869146	-0.037558	3.436666
140.595621	5233.373229	9.874151	-0.037619	3.440198
140.770020	5244.212452	9.879155	-0.037669	3.443717
141.008605	5255.104348	9.884160	-0.037735	3.447251
141.150020	5265.954040	9.889165	-0.037777	3.450767
141.213686	5276.801922	9.894170	-0.037800	3.454277
141.573353	5287.744577	9.899175	-0.037896	3.457818
141.615708	5298.540288	9.904179	-0.037914	3.461304
141.869614	5309.463694	9.909184	-0.037983	3.464830
142.064415	5320.410645	9.914189	-0.038039	3.468360
142.165930	5331.215636	9.919194	-0.038071	3.471838
142.253420	5342.206041	9.924199	-0.038100	3.475373
142.356339	5353.243046	9.929203	-0.038133	3.478919
142.654214	5364.247260	9.934208	-0.038213	3.482454
142.803209	5375.285588	9.939213	-0.038257	3.485994
142.890334	5386.267551	9.944218	-0.038286	3.489512
143.104196	5397.360976	9.949223	-0.038346	3.493063
143.273331	5408.421713	9.954227	-0.038395	3.496600
143.423811	5419.450492	9.959232	-0.038440	3.500122
143.609080	5430.592943	9.964237	-0.038493	3.503678
143.897681	5441.686894	9.969242	-0.038571	3.507216
144.169303	5452.652568	9.974247	-0.038645	3.510709
144.362153	5463.690381	9.979251	-0.038700	3.514221
144.568868	5474.759498	9.984256	-0.038758	3.517739
144.869378	5485.781146	9.989261	-0.038839	3.521239
144.856825	5496.812019	9.994266	-0.038843	3.524736
145.111537	5507.987850	9.999271	-0.038913	3.528278
145.273553	5519.065977	10.004275	-0.038961	3.531784
145.274763	5530.104825	10.009280	-0.038969	3.535272
145.414945	5541.338487	10.014285	-0.039011	3.538821
145.394472	5552.535869	10.019290	-0.039013	3.542352
145.493442	5563.864063	10.024295	-0.039046	3.545922
145.402149	5575.189682	10.029299	-0.039031	3.549486
145.643875	5586.616231	10.034304	-0.039098	3.553082
145.704203	5598.157325	10.039309	-0.039121	3.556708
145.889208	5609.576541	10.044314	-0.039174	3.560293
146.152793	5621.159171	10.049319	-0.039246	3.563927
146.400651	5632.646630	10.054323	-0.039315	3.567527
146.609407	5644.034366	10.059328	-0.039374	3.571091
147.048568	5655.457967	10.064333	-0.039489	3.574666
147.088753	5666.802400	10.069338	-0.039507	3.578208
147.407113	5678.271236	10.074343	-0.039593	3.581788
147.858592	5689.529952	10.079347	-0.039711	3.585301
147.882591	5700.789595	10.084352	-0.039724	3.588806
148.202951	5712.174462	10.089357	-0.039811	3.592350
148.279939	5723.426591	10.094362	-0.039837	3.595846
148.539483	5734.801844	10.099367	-0.039909	3.599379
148.693773	5746.162473	10.104371	-0.039954	3.602903
148.780945	5757.558564	10.109376	-0.039983	3.606433
148.937231	5768.963827	10.114381	-0.040029	3.609964
148.905507	5780.392012	10.119386	-0.040030	3.613496
149.156264	5791.960651	10.124391	-0.040099	3.617071
149.181760	5803.416847	10.129395	-0.040113	3.620606
149.355041	5815.009757	10.134400	-0.040164	3.624181
149.631984	5826.619433	10.139405	-0.040239	3.627758
149.878478	5838.078145	10.144410	-0.040308	3.631285
150.112819	5849.583076	10.149415	-0.040373	3.634823
150.453867	5861.052732	10.154419	-0.040464	3.638347
150.702003	5872.527099	10.159424	-0.040533	3.641868
150.970376	5883.941881	10.164429	-0.040606	3.645368

151.061201	5895.128632	10.169434	-0.040636	3.648793
151.298004	5906.383457	10.174439	-0.040702	3.652237
151.520571	5917.476676	10.179443	-0.040764	3.655628
151.672560	5928.453219	10.184448	-0.040809	3.658980
151.845736	5939.538757	10.189453	-0.040859	3.662362
151.827639	5950.502030	10.194458	-0.040862	3.665702
152.066795	5961.365396	10.199463	-0.040928	3.669011
152.172784	5972.241945	10.204467	-0.040961	3.672319
152.220105	5983.077358	10.209472	-0.040980	3.675612
152.551364	5993.816071	10.214477	-0.041069	3.678875
152.654700	6004.536869	10.219482	-0.041101	3.682127
152.769672	6015.214396	10.224487	-0.041137	3.685364
152.938434	6025.759890	10.229491	-0.041186	3.688558
153.338360	6036.262009	10.234496	-0.041291	3.691738
153.450090	6046.577232	10.239501	-0.041325	3.694856
153.709040	6056.818429	10.244506	-0.041395	3.697951
154.033618	6067.058693	10.249511	-0.041482	3.701043
154.208559	6077.067432	10.254515	-0.041531	3.704061
154.324347	6087.040061	10.259520	-0.041567	3.707066
154.567375	6096.943545	10.264525	-0.041633	3.710049
154.658937	6106.760596	10.269530	-0.041662	3.713002
154.833789	6116.634794	10.274535	-0.041712	3.715970
155.049895	6126.262400	10.279539	-0.041771	3.718862
154.999261	6136.004810	10.284544	-0.041765	3.721785
155.133429	6145.701331	10.289549	-0.041805	3.724693
155.158224	6155.319997	10.294554	-0.041818	3.727575
155.509956	6164.902513	10.299559	-0.041910	3.730445
155.710533	6174.308470	10.304563	-0.041966	3.733260
155.876958	6183.738980	10.309568	-0.042013	3.736079
156.153996	6192.964561	10.314573	-0.042087	3.738836
156.309365	6202.218072	10.319578	-0.042131	3.741598
156.657266	6211.321255	10.324583	-0.042223	3.744315
156.729727	6220.347868	10.329587	-0.042247	3.747005
156.878115	6229.158454	10.334592	-0.042289	3.749629
157.151959	6238.122274	10.339597	-0.042362	3.752298
157.218758	6246.863859	10.344602	-0.042384	3.754898
157.500146	6255.615489	10.349607	-0.042459	3.757499
157.508333	6264.272440	10.354611	-0.042467	3.760070
157.495487	6272.929338	10.359616	-0.042470	3.762639
157.735283	6281.665207	10.364621	-0.042535	3.765230
157.660925	6290.190587	10.369626	-0.042522	3.767756
157.867634	6298.817727	10.374631	-0.042579	3.770312
158.044302	6307.246531	10.379635	-0.042628	3.772807
158.341495	6315.666631	10.384640	-0.042706	3.775299
158.439459	6323.906068	10.389645	-0.042736	3.777734
158.712629	6332.142133	10.394650	-0.042808	3.780168
158.877850	6340.280347	10.399655	-0.042854	3.782570
159.031995	6348.368912	10.404659	-0.042898	3.784957
159.079166	6356.281831	10.409664	-0.042915	3.787290
159.434874	6364.221160	10.414669	-0.043007	3.789630
159.572967	6372.010248	10.419674	-0.043046	3.791924
159.705449	6379.734140	10.424679	-0.043084	3.794197
159.895911	6387.499200	10.429683	-0.043136	3.796481
159.810117	6395.049152	10.434688	-0.043120	3.798699
159.876899	6402.856893	10.439693	-0.043142	3.800993
159.912996	6410.416524	10.444698	-0.043156	3.803212
159.986032	6418.184571	10.449703	-0.043179	3.805491
160.062417	6425.648376	10.454707	-0.043203	3.807679
160.267405	6433.196128	10.459712	-0.043258	3.809892
160.182051	6440.749296	10.464717	-0.043242	3.812103
160.414280	6448.184028	10.469722	-0.043304	3.814280
160.717928	6455.655488	10.474727	-0.043383	3.816466
160.852811	6462.823250	10.479731	-0.043421	3.818562
160.970263	6470.139474	10.484736	-0.043455	3.820700
161.144813	6477.243284	10.489741	-0.043503	3.822775
161.252966	6484.385889	10.494746	-0.043534	3.824860
161.543853	6491.331648	10.499751	-0.043610	3.826887
161.537449	6498.207805	10.504755	-0.043613	3.828891
161.602052	6505.180190	10.509760	-0.043633	3.830923
161.906306	6511.967692	10.514765	-0.043712	3.832901
161.956127	6518.822090	10.519770	-0.043729	3.834896
161.949579	6525.554951	10.524775	-0.043732	3.836855
162.042385	6532.275433	10.529779	-0.043760	3.838809
161.980610	6539.091907	10.534784	-0.043749	3.840790
162.266656	6545.775957	10.539789	-0.043824	3.842732
162.232803	6552.461547	10.544794	-0.043820	3.844673
162.294489	6559.056201	10.549799	-0.043840	3.846587
162.396763	6565.523607	10.554803	-0.043869	3.848463
162.506948	6572.116960	10.559808	-0.043900	3.850374
162.574327	6578.558723	10.564813	-0.043921	3.852241
162.805387	6585.002593	10.569818	-0.043982	3.854108
163.030729	6591.393617	10.574823	-0.044042	3.855958
163.204339	6597.534474	10.579827	-0.044088	3.857735
163.258878	6603.794464	10.584832	-0.044106	3.859546
163.337804	6610.017307	10.589837	-0.044129	3.861344
163.387050	6616.047621	10.594842	-0.044145	3.863087
163.559336	6622.280065	10.599847	-0.044192	3.864887
163.583327	6628.244710	10.604851	-0.044202	3.866609
163.605217	6634.117877	10.609856	-0.044211	3.868303
163.670295	6640.334494	10.614861	-0.044231	3.870096
163.767841	6646.167145	10.619866	-0.044259	3.871778
163.769997	6652.170771	10.624871	-0.044264	3.873508
163.798634	6658.188899	10.629875	-0.044275	3.875241
163.993673	6663.986687	10.634880	-0.044326	3.876910
164.153600	6669.878337	10.639885	-0.044370	3.878606
164.265614	6675.727206	10.644890	-0.044401	3.880288
164.425977	6681.351481	10.649895	-0.044444	3.881906
164.619786	6687.025852	10.654899	-0.044495	3.883537
164.750948	6692.630049	10.659904	-0.044531	3.885147
164.983659	6698.012280	10.664909	-0.044591	3.886692
164.907984	6703.367183	10.669914	-0.044577	3.888229
165.137321	6708.880047	10.674919	-0.044636	3.889811
165.105181	6714.190145	10.679923	-0.044632	3.891334
165.323238	6719.392769	10.684928	-0.044689	3.892826
165.310476	6724.767982	10.689933	-0.044690	3.894366
165.307747	6730.042836	10.694938	-0.044692	3.895877
165.387480	6735.129827	10.699943	-0.044715	3.897334
165.546627	6740.433501	10.704947	-0.044758	3.898852
165.452525	6745.670985	10.709952	-0.044738	3.900351
165.464799	6750.812030	10.714957	-0.044745	3.901821
165.468264	6755.988891	10.719962	-0.044749	3.903301
165.541087	6761.262683	10.724967	-0.044771	3.904809
165.607569	6766.354923	10.729971	-0.044790	3.906264
165.652440	6771.367103	10.734976	-0.044805	3.907695
165.897757	6776.505654	10.739981	-0.044868	3.909162
165.890804	6781.612471	10.744986	-0.044870	3.910619
165.960823	6786.427795	10.749991	-0.044890	3.911993
166.137118	6791.491161	10.754995	-0.044937	3.913437
166.169407	6796.387799	10.760000	-0.044948	3.914833
166.346549	6801.207279	10.765005	-0.044995	3.916206
166.341877	6805.919983	10.770010	-0.044997	3.917549
166.642713	6810.791150	10.775015	-0.045073	3.918936
166.461767	6815.524688	10.780019	-0.045032	3.920283
166.617693	6820.107416	10.785024	-0.045074	3.921587
166.750206	6824.873917	10.790029	-0.045109	3.922943
166.732172	6829.505843	10.795034	-0.045108	3.924260
166.854952	6834.199851	10.800039	-0.045141	3.925595
166.924339	6838.565800	10.805043	-0.045161	3.926835
166.902864	6843.103420	10.810048	-0.045159	3.928124
167.032715	6847.775750	10.815053	-0.045194	3.929451
166.979778	6852.250373	10.820058	-0.045184	3.930722
167.024970	6856.622052	10.825063	-0.045198	3.931962
167.064285	6861.209731	10.830067	-0.045210	3.933264
167.175490	6865.668051	10.835072	-0.045241	3.934528
167.284503	6870.083779	10.840077	-0.045270	3.935780
167.299944	6874.277123	10.845082	-0.045277	3.936969
167.419877	6878.755170	10.850087	-0.045309	3.938238
167.466293	6883.111066	10.855091	-0.045323	3.939471
167.558226	6887.364795	10.860096	-0.045349	3.940676
167.643245	6891.517251	10.865101	-0.045372	3.941851
167.700254	6895.759165	10.870106	-0.045389	3.943052
167.776661	6899.975951	10.875111	-0.045411	3.944245
168.010362	6904.149212	10.880115	-0.045470	3.945425
167.854088	6907.899668	10.885120	-0.045435	3.946485
167.931439	6912.142275	10.890125	-0.045457	3.947684
167.953240	6916.235736	10.895130	-0.045465	3.948841
168.092155	6920.295420	10.900135	-0.045501	3.949988
168.023820	6924.241730	10.905139	-0.045487	3.951102
168.050817	6928.243668	10.910144	-0.045496	3.952232
168.269205	6932.265155	10.915149	-0.045553	3.953367
168.255218	6936.300256	10.920154	-0.045552	3.954506
168.355509	6940.170925	10.925159	-0.045579	3.955597
168.392403	6943.989289	10.930163	-0.045590	3.956674
168.562653	6947.770484	10.935168	-0.045635	3.957740
168.767047	6951.653692	10.940173	-0.045687	3.958834
168.623623	6955.310468	10.945178	-0.045655	3.959865
168.744586	6959.026969	10.950183	-0.045687	3.960912
168.872030	6962.691292	10.955187	-0.045720	3.961944
168.843704	6966.293776	10.960192	-0.045716	3.962958
168.871310	6970.058286	10.965197	-0.045725	3.964017
168.825205	6973.781292	10.970202	-0.045716	3.965065
168.785474	6977.247819	10.975207	-0.045709	3.966041
168.902892	6980.858079	10.980211	-0.045740	3.967056
168.948153	6984.565526	10.985216	-0.045753	3.968098
169.038942	6988.202001	10.990221	-0.045778	3.969120
169.075028	6991.789146	10.995226	-0.045789	3.970128
169.151940	6995.164069	11.000231	-0.045810	3.971077
169.379351	6998.662919	11.005235	-0.045868	3.972059
169.407746	7001.997009	11.010240	-0.045877	3.972995
169.439607	7005.513180	11.015245	-0.045887	3.973983
169.617882	7008.895382	11.020250	-0.045933	3.974932
169.661175	7012.062889	11.025255	-0.045946	3.975820
169.763620	7015.280436	11.030259	-0.045973	3.976723
169.764062	7018.498110	11.035264	-0.045975	3.977626
169.775916	7021.801203	11.040269	-0.045980	3.978552
169.797124	7024.990423	11.045274	-0.045988	3.979446
169.704258	7028.266518	11.050279	-0.045967	3.980365
169.673680	7031.413404	11.055283	-0.045962	3.981247
169.697790	7034.676125	11.060288	-0.045970	3.982161
169.811714	7038.031604	11.065293	-0.046000	3.983100
169.776166	7041.239715	11.070298	-0.045993	3.983999
169.998047	7044.401247	11.075303	-0.046049	3.984884
170.012821	7047.427116	11.080307	-0.046055	3.985731
170.232425	7050.389252	11.085312	-0.046111	3.986559
170.316820	7053.386786	11.090317	-0.046133	3.987398
170.468915	7056.350857	11.095322	-0.046172	3.988227
170.738434	7059.257261	11.100327	-0.046240	3.989039
170.851103	7062.033621	11.105331	-0.046269	3.989815
170.773236	7064.640482	11.110336	-0.046252	3.990544
170.815638	7067.288928	11.115341	-0.046264	3.991284
170.697552	7069.981337	11.120346	-0.046237	3.992037
170.707034	7072.897585	11.125351	-0.046241	3.992852
170.647470	7075.657423	11.130355	-0.046229	3.993623
170.652997	7078.512197	11.135360	-0.046232	3.994420
170.734981	7081.322310	11.140365	-0.046254	3.995205
170.573660	7083.928625	11.145370	-0.046216	3.995933
170.607914	7086.770741	11.150375	-0.046226	3.996726
170.690272	7089.610466	11.155379	-0.046248	3.997519
170.615080	7092.423731	11.160384	-0.046232	3.998304
170.734130	7095.319738	11.165389	-0.046263	3.999112
170.923079	7098.030000	11.170394	-0.046311	3.999867
171.029489	7100.706514	11.175399	-0.046338	4.000613
171.063425	7103.238466	11.180403	-0.046348	4.001319
171.279371	7105.767965	11.185408	-0.046403	4.002024
171.446951	7108.383777	11.190413	-0.046445	4.002752
171.401195	7110.788696	11.195418	-0.046436	4.003423
171.601097	7113.239893	11.200423	-0.046486	4.004105
171.573935	7115.607689	11.205427	-0.046481	4.004765
171.571269	7117.921165	11.210432	-0.046482	4.005409
171.555617	7120.162021	11.215437	-0.046479	4.006033
171.416169	7122.564687	11.220442	-0.046447	4.006703
171.282164	7125.059752	11.225447	-0.046416	4.007398
171.353691	7127.593032	11.230451	-0.046435	4.008103
171.376368	7130.020853	11.235456	-0.046442	4.008778
171.509236	7132.482665	11.240461	-0.046476	4.009463
171.375374	7135.004113	11.245466	-0.046445	4.010165
171.429752	7137.233692	11.250471	-0.046460	4.010785
171.467192	7139.652068	11.255475	-0.046470	4.011457
171.406506	7142.062044	11.260480	-0.046457	4.012128
171.585076	7144.557856	11.265485	-0.046502	4.012821
171.725719	7146.858309	11.270490	-0.046538	4.013460
171.785900	7149.159474	11.275495	-0.046554	4.014099
171.693558	7151.504438	11.280499	-0.046533	4.014751
171.860970	7153.689430	11.285504	-0.046576	4.015358
172.113483	7155.760990	11.290509	-0.046639	4.015933
172.092490	7157.846962	11.295514	-0.046635	4.016512
172.171387	7159.952241	11.300519	-0.046655	4.017096
172.218923	7162.076631	11.305523	-0.046668	4.017686
172.280750	7164.030547	11.310528	-0.046685	4.018229
172.366886	7166.152575	11.315533	-0.046707	4.018817
172.268163	7168.191998	11.320538	-0.046684	4.019384
172.409268	7170.229719	11.325543	-0.046720	4.019949
172.254007	7172.102577	11.330547	-0.046683	4.020469
172.235190	7174.016499	11.335552	-0.046680	4.021000
172.312847	7176.143301	11.340557	-0.046700	4.021590
172.070986	7178.178063	11.345562	-0.046642	4.022155
172.317004	7180.314050	11.350567	-0.046704	4.022746
172.438853	7182.320666	11.355571	-0.046735	4.023302
172.378097	7184.197197	11.360576	-0.046721	4.023823
172.339565	7186.334388	11.365581	-0.046713	4.024415
172.522940	7188.336906	11.370586	-0.046759	4.024970
172.664729	7189.952824	11.375591	-0.046795	4.025417
172.840142	7191.698887	11.380595	-0.046839	4.025901
172.755249	7193.451281	11.385600	-0.046819	4.026386
172.817883	7195.181868	11.390605	-0.046836	4.026866
172.724435	7197.082237	11.395610	-0.046814	4.027392
172.819531	7198.778684	11.400615	-0.046838	4.027862
172.835924	7200.688658	11.405619	-0.046843	4.028391
172.797201	7202.334396	11.410624	-0.046835	4.028846
172.781954	7204.228687	11.415629	-0.046832	4.029371
172.721216	7206.009910	11.420634	-0.046819	4.029864
172.743788	7207.654695	11.425639	-0.046825	4.030319
172.814883	7209.462684	11.430643	-0.046844	4.030820
173.036155	7211.023312	11.435648	-0.046899	4.031251
173.139488	7212.846790	11.440653	-0.046925	4.031755
173.199030	7214.294186	11.445658	-0.046941	4.032155
173.341844	7215.942487	11.450663	-0.046977	4.032611
173.373905	7217.482438	11.455667	-0.046985	4.033037
173.241036	7218.924631	11.460672	-0.046954	4.033436
173.354056	7220.616024	11.465677	-0.046982	4.033903
173.339272	7222.089292	11.470682	-0.046980	4.034311
173.583020	7223.500327	11.475687	-0.047040	4.034700
173.394295	7225.009060	11.480691	-0.046995	4.035118
173.349672	7226.258774	11.485696	-0.046985	4.035463
173.425494	7227.696437	11.490701	-0.047004	4.035860
173.517624	7229.093779	11.495706	-0.047027	4.036246
173.422824	7230.668609	11.500711	-0.047005	4.036682
173.307059	7232.140520	11.505715	-0.046978	4.037089
173.399330	7233.572197	11.510720	-0.047001	4.037484
173.504779	7235.189530	11.515725	-0.047028	4.037931
173.483022	7236.574894	11.520730	-0.047023	4.038313
173.467334	7237.953681	11.525735	-0.047020	4.038694
173.596565	7239.404500	11.530739	-0.047053	4.039094
173.425486	7240.955720	11.535744	-0.047012	4.039523
173.549474	7242.369467	11.540749	-0.047043	4.039913
173.675729	7243.593411	11.545754	-0.047075	4.040251
173.619475	7244.833248	11.550759	-0.047062	4.040593
173.698100	7246.268305	11.555763	-0.047082	4.040989
173.733773	7247.622651	11.560768	-0.047091	4.041363
173.743436	7248.899868	11.565773	-0.047094	4.041715
173.757923	7250.241746	11.570778	-0.047099	4.042086
174.074063	7251.474484	11.575783	-0.047177	4.042425
174.028478	7252.704945	11.580787	-0.047166	4.042764
173.956676	7253.874061	11.585792	-0.047149	4.043087
174.095225	7255.051651	11.590797	-0.047184	4.043412
174.150281	7256.214678	11.595802	-0.047198	4.043732
174.216907	7257.256839	11.600807	-0.047215	4.044019
174.093662	7258.409795	11.605811	-0.047186	4.044338
174.033999	7259.517253	11.610816	-0.047172	4.044643
174.093866	7260.797315	11.615821	-0.047187	4.044996
174.103063	7261.719036	11.620826	-0.047190	4.045250
173.932663	7262.691666	11.625831	-0.047149	4.045519
173.936066	7263.952010	11.630835	-0.047150	4.045867
173.881268	7265.192438	11.635840	-0.047138	4.046209
173.968397	7266.441650	11.640845	-0.047160	4.046553
173.931418	7267.706311	11.645850	-0.047151	4.046902
173.952918	7268.894830	11.650855	-0.047157	4.047229
174.235056	7270.100534	11.655859	-0.047227	4.047560
174.090152	7271.148802	11.660864	-0.047192	4.047850
174.314435	7272.256492	11.665869	-0.047247	4.048154
174.381534	7273.287371	11.670874	-0.047264	4.048438
174.343324	7274.370164	11.675879	-0.047256	4.048736
174.533013	7275.434591	11.680883	-0.047303	4.049029
174.593598	7276.246875	11.685888	-0.047318	4.049253
174.801520	7277.020407	11.690893	-0.047369	4.049465
174.770392	7277.857609	11.695898	-0.047362	4.049696
174.770715	7278.885727	11.700903	-0.047363	4.049979
174.856487	7279.474098	11.705907	-0.047384	4.050140
174.579720	7279.996314	11.710912	-0.047316	4.050285
174.636205	7281.066161	11.715917	-0.047331	4.050580
174.649744	7281.935947	11.720922	-0.047335	4.050819
174.567476	7282.659330	11.725927	-0.047315	4.051019
174.680279	7283.613356	11.730931	-0.047343	4.051281
174.526145	7284.457164	11.735936	-0.047306	4.051514
174.578931	7285.528424	11.740941	-0.047319	4.051808
174.499904	7286.380178	11.745946	-0.047300	4.052043
174.446887	7287.323077	11.750951	-0.047288	4.052303
174.619819	7288.272582	11.755955	-0.047331	4.052564
174.637159	7289.008995	11.760960	-0.047335	4.052766
174.641485	7290.205844	11.765965	-0.047337	4.053096
174.630799	7290.940828	11.770970	-0.047335	4.053298
174.604685	7291.749379	11.775975	-0.047329	4.053521
174.702741	7292.576737	11.780979	-0.047353	4.053748
174.775919	7293.618257	11.785984	-0.047372	4.054034
174.785146	7294.336673	11.790989	-0.047374	4.054232
174.781298	7295.019759	11.795994	-0.047374	4.054420
174.696575	7295.928711	11.800999	-0.047353	4.054670
174.768232	7296.998828	11.806003	-0.047372	4.054964
174.814980	7297.467101	11.811008	-0.047383	4.055093
174.945242	7297.991060	11.816013	-0.047415	4.055236
174.900281	7298.999515	11.821018	-0.047405	4.055514
174.936205	7299.462026	11.826023	-0.047414	4.055641
174.985059	7300.250547	11.831027	-0.047426	4.055858
174.797559	7301.089092	11.836032	-0.047381	4.056089
174.905058	7301.737755	11.841037	-0.047407	4.056267
174.921181	7302.542961	11.846042	-0.047412	4.056488
174.860131	7303.350511	11.851047	-0.047397	4.056711
174.893760	7303.964153	11.856051	-0.047406	4.056879
174.825929	7304.776223	11.861056	-0.047389	4.057103
174.900967	7305.685789	11.866061	-0.047408	4.057353
174.887302	7306.263641	11.871066	-0.047405	4.057511
174.895267	7307.134853	11.876071	-0.047408	4.057751
174.925077	7307.908753	11.881075	-0.047415	4.057964
174.799287	7308.452125	11.886080	-0.047385	4.058113
174.969688	7309.386030	11.891085	-0.047427	4.058369
175.003208	7310.147609	11.896090	-0.047436	4.058579
175.074091	7310.568959	11.901095	-0.047453	4.058694
175.109824	7311.599892	11.906099	-0.047462	4.058977
175.125651	7311.770532	11.911104	-0.047466	4.059024
175.107282	7312.875750	11.916109	-0.047462	4.059328
175.200844	7313.173665	11.921114	-0.047485	4.059409
175.163493	7313.953726	11.926119	-0.047476	4.059624
175.322047	7314.408299	11.931123	-0.047515	4.059748
175.104519	7315.143730	11.936128	-0.047463	4.059951
175.296470	7315.613609	11.941133	-0.047510	4.060079
175.277454	7316.074718	11.946138	-0.047505	4.060206
175.167612	7316.502680	11.951143	-0.047478	4.060324
175.410557	7317.267729	11.956147	-0.047538	4.060533
175.282161	7317.560196	11.961152	-0.047507	4.060614
175.363298	7318.335419	11.966157	-0.047527	4.060827
175.316014	7318.519983	11.971162	-0.047516	4.060878
175.385249	7319.537206	11.976167	-0.047533	4.061157
175.336556	7319.560346	11.981171	-0.047521	4.061163
175.216109	7320.485017	11.986176	-0.047492	4.061418
175.246622	7320.630972	11.991181	-0.047499	4.061458
175.276144	7321.752346	11.996186	-0.047507	4.061765
175.248880	7321.793996	12.001191	-0.047501	4.061777
175.432193	7322.874549	12.006195	-0.047546	4.062073
175.320925	7322.899029	12.011200	-0.047519	4.062080
175.364386	7323.709231	12.016205	-0.047530	4.062302
175.500214	7324.096721	12.021210	-0.047563	4.062408
175.622141	7324.224754	12.026215	-0.047593	4.062443
175.662358	7325.299951	12.031219	-0.047603	4.062738
175.584861	7325.252155	12.036224	-0.047584	4.062725
175.621317	7325.393704	12.041229	-0.047593	4.062764
175.635387	7326.376475	12.046234	-0.047597	4.063034
175.538832	7326.367053	12.051239	-0.047573	4.063031
175.656142	7326.572380	12.056243	-0.047602	4.063087
175.530324	7327.511041	12.061248	-0.047572	4.063346
175.503879	7327.552716	12.066253	-0.047565	4.063357
175.436206	7328.199993	12.071258	-0.047549	4.063535
175.456110	7328.692789	12.076263	-0.047554	4.063670
175.479219	7328.817110	12.081267	-0.047559	4.063704
175.522820	7329.792590	12.086272	-0.047571	4.063972
175.639643	7329.848950	12.091277	-0.047599	4.063987
175.753311	7329.995128	12.096282	-0.047627	4.064026
175.699132	7330.946460	12.101287	-0.047614	4.064288
175.797632	7331.021890	12.106291	-0.047638	4.064308
175.818347	7330.986928	12.111296	-0.047643	4.064298
175.869868	7331.351747	12.116301	-0.047656	4.064398
175.751788	7332.121297	12.121306	-0.047627	4.064610
175.714597	7332.102519	12.126311	-0.047618	4.064605
175.945450	7332.128772	12.131315	-0.047674	4.064611
175.801331	7332.699993	12.136320	-0.047639	4.064769
175.933858	7333.385814	12.141325	-0.047672	4.064956
175.869406	7333.363204	12.146330	-0.047656	4.064950
175.847908	7333.365142	12.151335	-0.047650	4.064951
175.902977	7333.380763	12.156339	-0.047664	4.064955
175.922107	7334.071717	12.161344	-0.047669	4.065144
175.967587	7334.144088	12.166349	-0.047680	4.065164
175.986338	7334.153467	12.171354	-0.047684	4.065167
175.849384	7334.105853	12.176359	-0.047651	4.065154
176.035525	7334.197438	12.181363	-0.047696	4.065178
175.985747	7334.904449	12.186368	-0.047684	4.065373
175.895417	7335.247858	12.191373	-0.047662	4.065467
175.798263	7335.224742	12.196378	-0.047638	4.065461
175.886226	7335.222663	12.201383	-0.047660	4.065460
175.895962	7335.490225	12.206387	-0.047662	4.065534
175.792587	7336.352385	12.211392	-0.047637	4.065771
175.843112	7336.427122	12.216397	-0.047649	4.065791
175.978231	7336.384798	12.221402	-0.047682	4.065779
175.955197	7336.337776	12.226407	-0.047677	4.065766
175.986278	7336.845821	12.231411	-0.047684	4.065905
176.038906	7337.510139	12.236416	-0.047697	4.066087
176.100334	7337.536111	12.241421	-0.047712	4.066094
176.259771	7337.555622	12.246426	-0.047751	4.066099
176.210012	7337.492250	12.251431	-0.047739	4.066082
176.324496	7337.570254	12.256435	-0.047767	4.066103
176.198293	7337.512537	12.261440	-0.047736	4.066087
176.187613	7337.529436	12.266445	-0.047733	4.066092
176.118923	7337.570483	12.271450	-0.047716	4.066104
176.079215	7337.497023	12.276455	-0.047706	4.066084
176.049605	7338.223847	12.281459	-0.047699	4.066283
176.051226	7338.659798	12.286464	-0.047700	4.066403
176.052192	7338.695088	12.291469	-0.047700	4.066412
175.920935	7338.652083	12.296474	-0.047668	4.066401
176.051150	7338.668873	12.301479	-0.047699	4.066405
176.009242	7338.700089	12.306483	-0.047689	4.066414
175.998524	7339.377177	12.311488	-0.047687	4.066600
176.071451	7339.796047	12.316493	-0.047705	4.066714
176.146890	7339.816552	12.321498	-0.047723	4.066719
176.152928	7339.748336	12.326503	-0.047724	4.066701
176.286056	7339.834615	12.331507	-0.047757	4.066724
176.226821	7339.809787	12.336512	-0.047742	4.066717
176.234644	7339.814452	12.341517	-0.047744	4.066719
176.287049	7339.860783	12.346522	-0.047756	4.066731
176.216952	7339.781148	12.351527	-0.047739	4.066709
176.277722	7339.848098	12.356531	-0.047754	4.066728
176.336190	7339.793212	12.361536	-0.047768	4.066712
176.241000	7339.808809	12.366541	-0.047745	4.066717
176.248164	7339.806634	12.371546	-0.047746	4.066716
176.307105	7339.760862	12.376551	-0.047760	4.066704
176.269862	7340.083564	12.381555	-0.047751	4.066792
176.275688	7340.928320	12.386560	-0.047753	4.067024
176.267390	7340.949812	12.391565	-0.047751	4.067030
176.240285	7340.936861	12.396570	-0.047744	4.067026
176.330857	7340.930282	12.401575	-0.047766	4.067024
176.235145	7340.967499	12.406579	-0.047743	4.067035
176.452074	7340.920752	12.411584	-0.047795	4.067021
176.491086	7340.979404	12.416589	-0.047805	4.067037
176.386692	7340.953874	12.421594	-0.047779	4.067030
176.510751	7340.952367	12.426599	-0.047809	4.067029
176.482918	7340.976972	12.431603	-0.047802	4.067036
176.299969	7340.934290	12.436608	-0.047758	4.067025
176.445607	7340.968407	12.441613	-0.047793	4.067034
176.357241	7340.951094	12.446618	-0.047771	4.067030
176.243101	7340.947043	12.451623	-0.047743	4.067029
176.420343	7340.974818	12.456627	-0.047786	4.067036
176.164518	7340.933287	12.461632	-0.047724	4.067026
176.373254	7340.971794	12.466637	-0.047775	4.067035
176.428921	7340.946461	12.471642	-0.047788	4.067028
176.455307	7340.945721	12.476647	-0.047794	4.067028
176.516815	7340.978537	12.481651	-0.047809	4.067037
176.444922	7340.933018	12.486656	-0.047791	4.067025
176.595429	7340.988840	12.491661	-0.047828	4.067039
176.624047	7340.927798	12.496666	-0.047835	4.067022
176.626416	7339.783756	12.501671	-0.047835	4.066709
176.707969	7339.851028	12.506675	-0.047854	4.066727
176.636216	7339.798686	12.511680	-0.047837	4.066713
176.645919	7339.802241	12.516685	-0.047839	4.066714
176.621247	7339.824618	12.521690	-0.047833	4.066720
176.501276	7339.779501	12.526695	-0.047803	4.066708
176.491126	7339.840805	12.531699	-0.047801	4.066725
176.433591	7339.808035	12.536704	-0.047786	4.066716
176.482147	7339.783731	12.541709	-0.047798	4.066709
176.531365	7339.848226	12.546714	-0.047810	4.066727
176.403823	7339.769982	12.551719	-0.047779	4.066706
176.625157	7339.835994	12.556723	-0.047833	4.066723
176.567617	7339.688252	12.561728	-0.047818	4.066683
176.600542	7338.699579	12.566733	-0.047825	4.066411
176.512651	7338.683420	12.571738	-0.047804	4.066407
176.536528	7338.659874	12.576743	-0.047809	4.066401
176.575008	7338.702572	12.581747	-0.047819	4.066412
176.448426	7338.665329	12.586752	-0.047788	4.066403
176.477954	7338.703335	12.591757	-0.047795	4.066413
176.511837	7338.706124	12.596762	-0.047803	4.066414
176.394033	7338.671292	12.601767	-0.047774	4.066404
176.543950	7338.696354	12.606771	-0.047810	4.066411
176.540961	7338.656460	12.611776	-0.047809	4.066400
176.652343	7338.675238	12.616781	-0.047837	4.066404
176.589093	7338.671979	12.621786	-0.047821	4.066404
176.542605	7338.650765	12.626791	-0.047809	4.066398
176.588618	7338.704961	12.631795	-0.047821	4.066413
176.699847	7338.005517	12.636800	-0.047847	4.066221
176.738966	7337.538317	12.641805	-0.047856	4.066092
176.844945	7337.588876	12.646810	-0.047882	4.066106
176.902178	7337.505521	12.651815	-0.047896	4.066083
176.784310	7337.554918	12.656819	-0.047867	4.066097
176.763500	7337.250702	12.661824	-0.047861	4.066013
176.822550	7336.375255	12.666829	-0.047875	4.065773
176.694423	7336.402871	12.671834	-0.047843	4.065781
176.656612	7336.356759	12.676839	-0.047834	4.065769
176.794828	7336.423738	12.681843	-0.047868	4.065786
176.695557	7336.380098	12.686848	-0.047843	4.065775
176.729424	7336.402231	12.691853	-0.047851	4.065781
176.724787	7335.767118	12.696858	-0.047850	4.065606
176.685984	7335.230515	12.701863	-0.047840	4.065459
176.790918	7335.276492	12.706867	-0.047865	4.065472
176.624816	7335.228422	12.711872	-0.047824	4.065459
176.684939	7335.236160	12.716877	-0.047839	4.065461
176.672305	7335.245061	12.721882	-0.047836	4.065464
176.672584	7335.207502	12.726887	-0.047836	4.065453
176.617921	7335.058720	12.731891	-0.047822	4.065413
176.602680	7334.135615	12.736896	-0.047817	4.065159
176.633468	7334.138351	12.741901	-0.047825	4.065160
176.649271	7334.165892	12.746906	-0.047829	4.065168
176.850935	7334.143927	12.751911	-0.047878	4.065161
176.924302	7334.183726	12.756915	-0.047895	4.065171
176.917310	7334.147196	12.761920	-0.047894	4.065161
176.908159	7333.423356	12.766925	-0.047891	4.064963
176.887780	7333.362730	12.771930	-0.047886	4.064946
176.835267	7333.333474	12.776935	-0.047873	4.064938
176.838027	7333.390399	12.781939	-0.047873	4.064954
176.871604	7333.120096	12.786944	-0.047881	4.064880
176.888982	7332.136163	12.791949	-0.047884	4.064610
176.936074	7332.120941	12.796954	-0.047896	4.064605
176.910250	7332.100060	12.801959	-0.047889	4.064600
176.910094	7332.129629	12.806963	-0.047889	4.064608
176.847720	7331.114972	12.811968	-0.047873	4.064330
176.878416	7330.991422	12.816973	-0.047880	4.064296
176.827332	7331.033869	12.821978	-0.047868	4.064307
176.800558	7330.982258	12.826983	-0.047861	4.064293
176.884640	7331.031306	12.831987	-0.047881	4.064306
176.805648	7329.874278	12.836992	-0.047861	4.063989
176.895195	7329.856285	12.841997	-0.047883	4.063984
176.911446	7329.853109	12.847002	-0.047887	4.063983
176.893221	7329.820971	12.852007	-0.047882	4.063974
176.945993	7329.506656	12.857011	-0.047894	4.063888
176.933022	7328.688575	12.862016	-0.047890	4.063663
176.881820	7328.675279	12.867021	-0.047878	4.063660
176.859365	7328.731805	12.872026	-0.047872	4.063676
176.758190	7328.663156	12.877031	-0.047847	4.063657
176.928090	7327.966176	12.882035	-0.047888	4.063465
176.906127	7327.515420	12.887040	-0.047882	4.063341
176.955104	7327.552545	12.892045	-0.047894	4.063351
176.854707	7327.553297	12.897050	-0.047869	4.063352
176.830403	7327.262888	12.902055	-0.047863	4.063272
177.009545	7326.394371	12.907059	-0.047906	4.063033
176.893999	7326.331209	12.912064	-0.047878	4.063016
176.902798	7326.384785	12.917069	-0.047880	4.063031
176.926866	7326.391962	12.922074	-0.047886	4.063033
176.845975	7325.318294	12.927079	-0.047865	4.062739
176.947275	7325.309570	12.932083	-0.047889	4.062736
176.862532	7325.282133	12.937088	-0.047869	4.062729
176.815138	7325.235923	12.942093	-0.047857	4.062716
176.917110	7324.981572	12.947098	-0.047881	4.062646
176.931342	7324.091375	12.952103	-0.047884	4.062401
176.914373	7324.149105	12.957107	-0.047880	4.062417
176.801720	7324.100786	12.962112	-0.047852	4.062405
176.752974	7324.121652	12.967117	-0.047840	4.062410
176.833120	7323.710070	12.972122	-0.047859	4.062297
176.786980	7322.873627	12.977127	-0.047847	4.062068
176.718853	7322.906711	12.982131	-0.047830	4.062077
176.797869	7322.932897	12.987136	-0.047850	4.062084
176.905158	7322.924257	12.992141	-0.047876	4.062081
176.796802	7322.963562	12.997146	-0.047849	4.062092
176.847005	7322.020588	13.002151	-0.047860	4.061833
176.964318	7321.839276	13.007155	-0.047889	4.061783
176.891489	7321.785881	13.012160	-0.047871	4.061769
176.973019	7321.820059	13.017165	-0.047891	4.061778
177.105207	7321.087561	13.022170	-0.047922	4.061576
176.991586	7320.581084	13.027175	-0.047894	4.061437
177.034431	7320.632871	13.032179	-0.047904	4.061451
177.053394	7320.486488	13.037184	-0.047909	4.061411
177.021269	7319.546987	13.042189	-0.047900	4.061153
177.121311	7319.572336	13.047194	-0.047924	4.061160
176.971175	7319.540541	13.052199	-0.047887	4.061152
177.036175	7318.775324	13.057203	-0.047903	4.060941
177.050004	7318.306059	13.062208	-0.047906	4.060812
176.935562	7318.330499	13.067213	-0.047877	4.060820
176.837653	7318.347227	13.072218	-0.047853	4.060825
176.900029	7317.729796	13.077223	-0.047868	4.060655
176.952124	7317.277044	13.082227	-0.047880	4.060530
176.937343	7317.262040	13.087232	-0.047877	4.060526
176.988235	7317.244597	13.092237	-0.047889	4.060521
176.977004	7316.590888	13.097242	-0.047885	4.060342
176.885836	7316.080367	13.102247	-0.047863	4.060202
176.879003	7316.133673	13.107251	-0.047861	4.060216
176.988420	7316.079588	13.112256	-0.047887	4.060201
176.962658	7315.679151	13.117261	-0.047881	4.060091
177.016625	7315.200348	13.122266	-0.047893	4.059959
176.894213	7315.178081	13.127271	-0.047863	4.059954
176.883556	7315.227918	13.132275	-0.047861	4.059968
176.958122	7314.916486	13.137280	-0.047878	4.059882
176.891353	7313.950703	13.142285	-0.047861	4.059617
176.923415	7313.996619	13.147290	-0.047869	4.059629
176.907508	7313.936149	13.152295	-0.047865	4.059613
176.964244	7313.934701	13.157299	-0.047879	4.059612
177.043666	7312.871134	13.162304	-0.047897	4.059319
177.001846	7312.851195	13.167309	-0.047887	4.059314
177.149828	7312.896533	13.172314	-0.047923	4.059326
177.076377	7312.025088	13.177319	-0.047904	4.059087
177.181048	7311.707338	13.182323	-0.047929	4.058999
177.069329	7311.653432	13.187328	-0.047902	4.058985
177.013329	7311.098161	13.192333	-0.047888	4.058832
176.980731	7310.631869	13.197338	-0.047879	4.058704
177.122364	7310.587346	13.202343	-0.047913	4.058692
177.137975	7310.426240	13.207347	-0.047917	4.058647
177.096023	7309.385004	13.212352	-0.047906	4.058361
177.084707	7309.407550	13.217357	-0.047903	4.058367
176.932305	7309.392827	13.222362	-0.047866	4.058364
176.940575	7308.651150	13.227367	-0.047867	4.058160
177.037351	7308.253836	13.232371	-0.047890	4.058051
177.050374	7308.241521	13.237376	-0.047893	4.058047
177.011210	7308.201186	13.242381	-0.047883	4.058036
177.009382	7307.272007	13.247386	-0.047882	4.057781
176.885727	7307.099832	13.252391	-0.047852	4.057734
176.982847	7307.169379	13.257395	-0.047875	4.057753
176.839188	7307.134350	13.262400	-0.047840	4.057744
176.801787	7306.547728	13.267405	-0.047830	4.057583
176.909982	7305.999578	13.272410	-0.047856	4.057432
176.870996	7305.945626	13.277415	-0.047846	4.057417
177.030008	7305.994480	13.282419	-0.047885	4.057430
176.997414	7305.691897	13.287424	-0.047877	4.057347
177.046884	7304.836297	13.292429	-0.047888	4.057111
177.055679	7304.850043	13.297434	-0.047890	4.057115
177.070903	7304.794607	13.302439	-0.047894	4.057100
177.180770	7303.869520	13.307443	-0.047920	4.056845
177.147692	7303.644192	13.312448	-0.047911	4.056783
177.098583	7303.659374	13.317453	-0.047899	4.056787
177.216686	7302.751505	13.322458	-0.047927	4.056537
177.179461	7302.482987	13.327463	-0.047918	4.056464
177.182569	7302.502326	13.332467	-0.047918	4.056469
177.114400	7301.399972	13.337472	-0.047901	4.056166
176.930192	7301.426845	13.342477	-0.047856	4.056174
177.070742	7301.418630	13.347482	-0.047890	4.056171
176.817094	7301.142500	13.352487	-0.047828	4.056097
177.095431	7300.209828	13.357491	-0.047895	4.055839
177.064732	7300.210515	13.362496	-0.047887	4.055839
177.017110	7300.188255	13.367501	-0.047875	4.055833
177.056682	7299.413428	13.372506	-0.047884	4.055620
177.057468	7299.111462	13.377511	-0.047884	4.055537
177.067066	7299.164945	13.382515	-0.047886	4.055552
177.080858	7298.729217	13.387520	-0.047889	4.055432
176.981627	7297.955895	13.392525	-0.047864	4.055220
176.986912	7297.988880	13.397530	-0.047865	4.055229
177.024928	7297.908818	13.402535	-0.047875	4.055206
177.010929	7297.342199	13.407539	-0.047871	4.055051
177.012127	7297.139031	13.412544	-0.047871	4.054995
177.006583	7297.112837	13.417549	-0.047869	4.054988
177.142315	7296.907041	13.422554	-0.047902	4.054930
177.093824	7295.938188	13.427559	-0.047889	4.054664
177.333949	7295.996059	13.432563	-0.047948	4.054679
177.163615	7295.465885	13.437568	-0.047906	4.054534
177.218433	7294.790248	13.442573	-0.047918	4.054348
177.261034	7294.795381	13.447578	-0.047929	4.054349
177.251906	7293.946377	13.452583	-0.047926	4.054116
177.257101	7293.645718	13.457587	-0.047927	4.054033
177.082537	7293.623956	13.462592	-0.047884	4.054028
177.202289	7292.649750	13.467597	-0.047912	4.053759
177.125932	7292.539734	13.472602	-0.047893	4.053729
176.959566	7292.493132	13.477607	-0.047852	4.053717
176.982014	7291.702578	13.482611	-0.047857	4.053499
176.933615	7291.335408	13.487616	-0.047845	4.053399
176.810606	7291.312116	13.492621	-0.047815	4.053393
176.876800	7291.353882	13.497626	-0.047831	4.053404
176.868457	7291.211931	13.502631	-0.047828	4.053365
177.033871	7290.257808	13.507635	-0.047868	4.053102
176.855817	7290.221271	13.512640	-0.047824	4.053092
176.913847	7290.234554	13.517645	-0.047838	4.053096
177.041302	7290.067287	13.522650	-0.047869	4.053049
177.020648	7289.027816	13.527655	-0.047863	4.052763
177.112696	7289.076739	13.532659	-0.047886	4.052776
177.109048	7289.043781	13.537664	-0.047885	4.052767
177.047653	7288.111577	13.542669	-0.047869	4.052511
177.185239	7288.023872	13.547674	-0.047902	4.052486
177.218195	7287.967605	13.552679	-0.047910	4.052471
177.283403	7286.979381	13.557683	-0.047925	4.052198
177.131671	7286.747006	13.562688	-0.047888	4.052135
177.127064	7286.762813	13.567693	-0.047887	4.052139
177.242943	7285.726604	13.572698	-0.047914	4.051854
177.047971	7285.575314	13.577703	-0.047866	4.051813
177.207485	7285.602469	13.582707	-0.047905	4.051820
177.126102	7284.485355	13.587712	-0.047884	4.051513
177.134341	7284.497935	13.592717	-0.047886	4.051516
177.093165	7284.517770	13.597722	-0.047876	4.051522
176.935238	7283.420099	13.602727	-0.047836	4.051220
177.088430	7283.355299	13.607731	-0.047873	4.051202
176.975441	7283.360535	13.612736	-0.047846	4.051203
177.070062	7282.942261	13.617741	-0.047868	4.051088
176.962117	7282.247933	13.622746	-0.047841	4.050897
176.886753	7282.208334	13.627751	-0.047823	4.050887
177.045594	7282.219584	13.632755	-0.047861	4.050889
176.980502	7281.598449	13.637760	-0.047845	4.050718
176.909127	7281.050953	13.642765	-0.047827	4.050568
176.934289	7281.066029	13.647770	-0.047833	4.050572
176.933024	7281.051264	13.652775	-0.047832	4.050568
177.024478	7280.568382	13.657779	-0.047854	4.050434
176.902702	7280.003229	13.662784	-0.047824	4.050279
176.995059	7279.945533	13.667789	-0.047846	4.050263
177.190771	7280.041172	13.672794	-0.047894	4.050289
177.270986	7279.193116	13.677799	-0.047913	4.050055
177.309552	7279.123347	13.682803	-0.047922	4.050035
177.354418	7278.622877	13.687808	-0.047933	4.049898
177.382885	7277.911352	13.692813	-0.047939	4.049701
177.252736	7277.899365	13.697818	-0.047907	4.049699
177.260936	7276.706996	13.702823	-0.047908	4.049370
177.250056	7276.730642	13.707827	-0.047905	4.049377
177.224671	7276.427651	13.712832	-0.047899	4.049293
177.220512	7275.593383	13.717837	-0.047897	4.049064
177.259615	7275.655109	13.722842	-0.047906	4.049080
177.104086	7274.969566	13.727847	-0.047868	4.048892
177.072165	7274.482928	13.732851	-0.047859	4.048758
177.046221	7274.468969	13.737856	-0.047853	4.048755
177.063798	7274.132611	13.742861	-0.047857	4.048662
177.072321	7273.351910	13.747866	-0.047858	4.048447
177.157811	7273.294130	13.752871	-0.047879	4.048430
177.234538	7272.946131	13.757875	-0.047897	4.048334
177.309181	7272.167514	13.762880	-0.047915	4.048120
177.140860	7272.168635	13.767885	-0.047873	4.048120
177.239726	7271.573945	13.772890	-0.047897	4.047956
177.176253	7271.055272	13.777895	-0.047881	4.047814
177.292756	7271.063629	13.782899	-0.047909	4.047815
177.143695	7270.089497	13.787904	-0.047872	4.047548
177.189575	7269.928090	13.792909	-0.047883	4.047503
177.217822	7269.953386	13.797914	-0.047890	4.047510
177.150206	7268.722131	13.802919	-0.047872	4.047171
177.230538	7268.735659	13.807923	-0.047892	4.047174
177.297836	7268.506581	13.812928	-0.047908	4.047111
177.309623	7267.633328	13.817933	-0.047910	4.046870
177.348428	7267.653096	13.822938	-0.047919	4.046875
177.242298	7266.635600	13.827943	-0.047892	4.046595
177.264685	7266.437668	13.832947	-0.047898	4.046541
177.316453	7266.269579	13.837952	-0.047910	4.046494
177.405550	7265.353314	13.842957	-0.047931	4.046241
177.262310	7265.394442	13.847962	-0.047896	4.046253
177.203123	7264.389060	13.852967	-0.047880	4.045976
177.070078	7264.184567	13.857971	-0.047848	4.045920
177.129352	7264.154767	13.862976	-0.047862	4.045912
176.998168	7263.370481	13.867981	-0.047829	4.045696
177.186989	7263.095523	13.872986	-0.047875	4.045620
177.111736	7262.997132	13.877991	-0.047856	4.045593
177.083155	7262.522271	13.882995	-0.047849	4.045462
177.213913	7261.924970	13.888000	-0.047880	4.045297
177.249777	7261.933361	13.893005	-0.047889	4.045299
177.194913	7261.385720	13.898010	-0.047875	4.045148
177.092111	7261.086568	13.903015	-0.047849	4.045066
177.052978	7261.124542	13.908019	-0.047840	4.045077
177.112039	7260.576169	13.913024	-0.047854	4.044925
177.097511	7259.881929	13.918029	-0.047849	4.044734
177.237632	7259.952824	13.923034	-0.047884	4.044753
177.164942	7259.204639	13.928039	-0.047865	4.044547
177.155607	7258.826383	13.933043	-0.047862	4.044443
177.154701	7258.811646	13.938048	-0.047862	4.044439
177.082635	7258.020515	13.943053	-0.047844	4.044221
177.230886	7257.628502	13.948058	-0.047880	4.044112
177.095641	7257.576919	13.953063	-0.047846	4.044098
177.270434	7256.900007	13.958067	-0.047888	4.043911
177.309615	7256.563192	13.963072	-0.047898	4.043818
177.174200	7256.521802	13.968077	-0.047864	4.043807
177.175262	7255.367297	13.973082	-0.047864	4.043489
177.086252	7255.317463	13.978087	-0.047842	4.043475
177.043226	7255.348587	13.983091	-0.047831	4.043484
177.160367	7254.414110	13.988096	-0.047859	4.043226
177.202101	7254.174713	13.993101	-0.047869	4.043160
177.179098	7254.254760	13.998106	-0.047863	4.043182
177.063915	7253.068376	14.003111	-0.047834	4.042855
177.253999	7253.114960	14.008115	-0.047880	4.042867
177.200768	7252.961491	14.013120	-0.047867	4.042825
177.080313	7251.926775	14.018125	-0.047837	4.042540
177.123050	7252.008791	14.023130	-0.047847	4.042562
177.081355	7251.946009	14.028135	-0.047837	4.042545
177.145759	7250.904699	14.033139	-0.047851	4.042258
176.991532	7250.803137	14.038144	-0.047813	4.042230
176.992445	7250.766934	14.043149	-0.047814	4.042220
177.024272	7250.349829	14.048154	-0.047821	4.042105
176.927137	7249.597321	14.053159	-0.047796	4.041898
177.099862	7249.647047	14.058163	-0.047839	4.041911
177.115118	7249.622345	14.063168	-0.047842	4.041904
177.127485	7248.562428	14.068173	-0.047844	4.041611
177.187528	7248.549613	14.073178	-0.047859	4.041608
177.099516	7248.493045	14.078183	-0.047837	4.041592
177.166503	7247.517619	14.083187	-0.047853	4.041323
177.101672	7247.377643	14.088192	-0.047836	4.041285
177.039619	7247.374581	14.093197	-0.047821	4.041284
177.212721	7246.537448	14.098202	-0.047863	4.041052
177.100446	7246.206851	14.103207	-0.047835	4.040961
177.114857	7246.197977	14.108211	-0.047838	4.040959
177.248934	7245.433928	14.113216	-0.047870	4.040748
177.164617	7245.115024	14.118221	-0.047849	4.040660
177.259096	7245.110561	14.123226	-0.047872	4.040658
177.255806	7243.948983	14.128231	-0.047870	4.040338
177.207233	7243.965324	14.133235	-0.047858	4.040342
177.268758	7243.682230	14.138240	-0.047873	4.040264
177.155382	7243.029389	14.143245	-0.047845	4.040084
177.102882	7243.112402	14.148250	-0.047832	4.040107
177.135125	7242.634449	14.153255	-0.047839	4.039975
177.139925	7241.836149	14.158259	-0.047840	4.039755
177.117335	7241.891265	14.163264	-0.047834	4.039770
177.029704	7241.516999	14.168269	-0.047812	4.039667
177.075314	7240.753197	14.173274	-0.047823	4.039456
177.139362	7240.722335	14.178279	-0.047838	4.039447
177.072451	7240.707918	14.183283	-0.047822	4.039443
177.056475	7239.610982	14.188288	-0.047817	4.039141
177.086003	7239.538986	14.193293	-0.047824	4.039121
177.115673	7239.590227	14.198298	-0.047831	4.039135
177.193511	7238.735351	14.203303	-0.047849	4.038898
177.175403	7238.497705	14.208307	-0.047844	4.038833
177.092559	7238.476311	14.213312	-0.047824	4.038827
177.198358	7237.549499	14.218317	-0.047849	4.038571
177.190477	7237.275827	14.223322	-0.047847	4.038495
177.026819	7237.245517	14.228327	-0.047807	4.038488
177.168246	7236.425478	14.233331	-0.047840	4.038261
177.092204	7236.206366	14.238336	-0.047822	4.038200
177.036893	7236.136719	14.243341	-0.047808	4.038181
177.071336	7235.547117	14.248346	-0.047816	4.038018
177.170579	7234.980946	14.253351	-0.047839	4.037862
177.019828	7235.029929	14.258355	-0.047802	4.037876
177.017273	7234.799320	14.263360	-0.047802	4.037812
177.071803	7233.906003	14.268365	-0.047814	4.037565
177.029913	7233.965376	14.273370	-0.047804	4.037582
176.999000	7233.929950	14.278375	-0.047796	4.037572
177.026415	7233.113197	14.283379	-0.047802	4.037346
177.130012	7232.739280	14.288384	-0.047827	4.037242
177.019570	7232.713047	14.293389	-0.047800	4.037236
177.053413	7232.323589	14.298394	-0.047808	4.037128
177.076186	7231.579185	14.303399	-0.047812	4.036922
177.216937	7231.591080	14.308403	-0.047847	4.036925
177.234358	7231.266984	14.313408	-0.047851	4.036835
177.066766	7230.459277	14.318413	-0.047809	4.036613
177.130123	7230.515412	14.323418	-0.047824	4.036628
177.064661	7230.200492	14.328423	-0.047808	4.036541
177.141959	7229.339363	14.333427	-0.047826	4.036303
177.103715	7229.367132	14.338432	-0.047816	4.036311
177.034608	7229.317696	14.343437	-0.047799	4.036297
177.197536	7228.291593	14.348442	-0.047838	4.036013
176.972065	7228.199582	14.353447	-0.047783	4.035989
176.999061	7228.208942	14.358451	-0.047789	4.035991
177.061192	7227.503635	14.363456	-0.047804	4.035796
177.074967	7227.053066	14.368461	-0.047807	4.035671
176.977455	7227.084630	14.373466	-0.047783	4.035681
177.085166	7226.965064	14.378471	-0.047809	4.035647
177.141020	7225.945720	14.383475	-0.047822	4.035365
177.145348	7225.992077	14.388480	-0.047823	4.035378
177.126881	7225.919554	14.393485	-0.047818	4.035358
177.177141	7225.176935	14.398490	-0.047830	4.035153
177.182682	7225.121649	14.403495	-0.047831	4.035137
177.239661	7224.898696	14.408499	-0.047844	4.035075
177.200265	7223.912220	14.413504	-0.047834	4.034803
177.181115	7223.902945	14.418509	-0.047829	4.034800
177.131040	7223.521734	14.423514	-0.047816	4.034695
177.069018	7222.764328	14.428519	-0.047801	4.034486
177.026319	7222.744607	14.433523	-0.047790	4.034481
177.083368	7222.814175	14.438528	-0.047804	4.034500
176.968976	7221.699342	14.443533	-0.047775	4.034192
176.954497	7221.669801	14.448538	-0.047771	4.034184
177.034829	7221.621074	14.453543	-0.047791	4.034170
176.985314	7221.556107	14.458547	-0.047778	4.034152
177.104810	7220.518705	14.463552	-0.047807	4.033865
177.180946	7220.464283	14.468557	-0.047825	4.033850
177.343748	7220.266374	14.473562	-0.047865	4.033795
177.274614	7219.352117	14.478567	-0.047847	4.033542
177.315062	7219.335657	14.483571	-0.047857	4.033537
177.293228	7218.441218	14.488576	-0.047850	4.033290
177.181082	7218.190372	14.493581	-0.047823	4.033221
177.382193	7217.994070	14.498586	-0.047872	4.033166
177.223075	7217.080017	14.503591	-0.047832	4.032914
177.245641	7217.061087	14.508595	-0.047837	4.032909
177.179572	7216.452981	14.513600	-0.047820	4.032741
177.036522	7215.967024	14.518605	-0.047785	4.032607
177.159982	7215.993314	14.523610	-0.047815	4.032613
177.132870	7215.445540	14.528615	-0.047808	4.032462
177.138058	7214.754827	14.533619	-0.047809	4.032271
177.126816	7214.779518	14.538624	-0.047806	4.032278
177.046015	7214.432055	14.543629	-0.047786	4.032182
177.176675	7213.689828	14.548634	-0.047817	4.031976
177.102189	7213.657341	14.553639	-0.047798	4.031968
177.021250	7213.612363	14.558643	-0.047778	4.031955
177.298738	7212.510778	14.563648	-0.047845	4.031650
177.269944	7212.460777	14.568653	-0.047838	4.031636
177.322405	7211.998707	14.573658	-0.047850	4.031508
177.237383	7211.406396	14.578663	-0.047829	4.031344
177.320610	7211.413008	14.583667	-0.047849	4.031346
177.093151	7210.285343	14.588672	-0.047793	4.031035
177.226668	7210.216942	14.593677	-0.047825	4.031015
177.146348	7210.247588	14.598682	-0.047805	4.031024
177.195592	7209.118743	14.603687	-0.047816	4.030712
177.078379	7209.100444	14.608691	-0.047788	4.030707
177.093508	7209.153641	14.613696	-0.047791	4.030722
177.028982	7208.130732	14.618701	-0.047775	4.030439
177.035026	7208.025876	14.623706	-0.047776	4.030410
177.232738	7207.996581	14.628711	-0.047824	4.030401
177.261525	7207.422688	14.633715	-0.047830	4.030242
177.199891	7207.151221	14.638720	-0.047815	4.030167
177.362757	7206.972611	14.643725	-0.047855	4.030117
177.253822	7205.938058	14.648730	-0.047827	4.029831
177.410825	7205.894748	14.653735	-0.047865	4.029819
177.415506	7205.082659	14.658739	-0.047866	4.029594
177.427177	7204.848178	14.663744	-0.047868	4.029529
177.277381	7204.161814	14.668749	-0.047831	4.029339
177.348095	7203.684417	14.673754	-0.047848	4.029207
177.255204	7203.623566	14.678759	-0.047825	4.029191
177.183869	7202.552481	14.683763	-0.047806	4.028894
177.107114	7202.600085	14.688768	-0.047788	4.028908
176.987725	7202.526533	14.693773	-0.047758	4.028888
176.899225	7201.612086	14.698778	-0.047736	4.028635
177.007638	7201.367494	14.703783	-0.047762	4.028567
177.046237	7201.389353	14.708787	-0.047771	4.028573
177.106086	7201.278395	14.713792	-0.047786	4.028542
177.180836	7200.208032	14.718797	-0.047803	4.028245
177.150449	7200.266311	14.723802	-0.047795	4.028261
177.190568	7200.060421	14.728807	-0.047805	4.028204
177.341772	7199.118416	14.733811	-0.047841	4.027943
177.252509	7199.169257	14.738816	-0.047819	4.027957
177.309164	7198.293875	14.743821	-0.047832	4.027715
177.288141	7198.028692	14.748826	-0.047827	4.027641
177.340082	7197.828601	14.753831	-0.047839	4.027586
177.348049	7196.819724	14.758835	-0.047840	4.027306
177.331668	7196.874769	14.763840	-0.047836	4.027322
177.220870	7195.972831	14.768845	-0.047808	4.027072
177.188012	7195.713194	14.773850	-0.047800	4.027000
177.130169	7195.676464	14.778855	-0.047786	4.026990
177.201550	7194.672965	14.783859	-0.047802	4.026712
177.152849	7194.589003	14.788864	-0.047790	4.026689
177.086097	7194.526254	14.793869	-0.047774	4.026672
177.108417	7193.628224	14.798874	-0.047778	4.026423
177.107850	7193.462537	14.803879	-0.047778	4.026377
177.172241	7193.485793	14.808883	-0.047793	4.026384
177.110507	7192.484331	14.813888	-0.047777	4.026106
176.996123	7192.240753	14.818893	-0.047749	4.026039
177.053332	7192.303367	14.823898	-0.047763	4.026056
177.082083	7191.831505	14.828903	-0.047770	4.025926
176.906258	7191.198490	14.833907	-0.047726	4.025751
177.151199	7191.227132	14.838912	-0.047786	4.025758
177.010539	7191.183863	14.843917	-0.047751	4.025746
177.102764	7190.145971	14.848922	-0.047773	4.025458
177.115271	7190.070610	14.853927	-0.047776	4.025438
177.066141	7190.045268	14.858931	-0.047763	4.025431
177.088527	7189.585801	14.863936	-0.047768	4.025303
177.110943	7189.267185	14.868941	-0.047774	4.025215
177.106059	7189.336979	14.873946	-0.047772	4.025234
177.038928	7188.723316	14.878951	-0.047755	4.025064
177.112858	7188.107862	14.883955	-0.047773	4.024894
176.935823	7188.146454	14.888960	-0.047729	4.024905
177.034339	7188.078814	14.893965	-0.047753	4.024886
177.070808	7187.024749	14.898970	-0.047761	4.024594
176.942176	7186.909546	14.903975	-0.047730	4.024562
177.083840	7186.923493	14.908979	-0.047764	4.024566
177.223096	7186.535252	14.913984	-0.047798	4.024458
177.223180	7185.821071	14.918989	-0.047797	4.024260
177.223049	7185.842465	14.923994	-0.047797	4.024266
177.034442	7185.045148	14.928999	-0.047750	4.024045
177.176540	7184.709921	14.934003	-0.047784	4.023952
177.199276	7184.707910	14.939008	-0.047790	4.023951
177.218108	7183.876892	14.944013	-0.047794	4.023721
177.133654	7183.515557	14.949018	-0.047773	4.023621
176.910678	7183.513113	14.954023	-0.047718	4.023621
176.986629	7183.240261	14.959027	-0.047736	4.023545
177.070278	7182.440444	14.964032	-0.047756	4.023323
176.962776	7182.405480	14.969037	-0.047729	4.023314
176.990605	7182.437309	14.974042	-0.047736	4.023322
176.912524	7181.785547	14.979047	-0.047716	4.023142
176.946791	7181.243139	14.984051	-0.047724	4.022991
176.984173	7181.278446	14.989056	-0.047733	4.023001
176.830036	7181.228344	14.994061	-0.047695	4.022988
176.979290	7180.938310	14.999066	-0.047731	4.022907
177.012679	7180.175228	15.004071	-0.047739	4.022695
177.056725	7180.184706	15.009075	-0.047750	4.022698
177.124822	7180.203453	15.014080	-0.047766	4.022703
177.146567	7179.049587	15.019085	-0.047770	4.022383
177.177353	7178.998121	15.024090	-0.047778	4.022368
177.320095	7178.833024	15.029095	-0.047812	4.022322
177.245995	7177.861734	15.034099	-0.047793	4.022053
177.331859	7177.908811	15.039104	-0.047814	4.022066
177.214716	7177.129625	15.044109	-0.047785	4.021850
177.215652	7176.776146	15.049114	-0.047785	4.021752
177.198113	7176.727545	15.054119	-0.047780	4.021739
177.104619	7175.779835	15.059123	-0.047757	4.021476
177.114308	7175.657237	15.064128	-0.047759	4.021442
177.042326	7175.594550	15.069133	-0.047741	4.021425
177.012705	7175.003284	15.074138	-0.047733	4.021261
176.969105	7174.461417	15.079143	-0.047722	4.021111
176.933870	7174.463285	15.084147	-0.047713	4.021111
176.913955	7174.504711	15.089152	-0.047708	4.021123
176.874644	7173.853738	15.094157	-0.047698	4.020942
176.925124	7173.359062	15.099162	-0.047710	4.020805
176.927340	7173.355702	15.104167	-0.047710	4.020804
176.942152	7173.325466	15.109171	-0.047714	4.020796
176.979635	7173.009610	15.114176	-0.047722	4.020708
177.074573	7172.234087	15.119181	-0.047745	4.020493
177.102476	7172.281642	15.124186	-0.047752	4.020506
177.072361	7172.253182	15.129191	-0.047744	4.020498
177.075989	7171.391206	15.134195	-0.047744	4.020259
177.063921	7171.404575	15.139200	-0.047741	4.020263
177.140806	7171.360370	15.144205	-0.047760	4.020250
177.191849	7170.471941	15.149210	-0.047771	4.020003
177.175329	7170.147696	15.154215	-0.047767	4.019913
177.156081	7170.165489	15.159219	-0.047762	4.019918
177.405667	7169.177958	15.164224	-0.047822	4.019644
177.295933	7168.983274	15.169229	-0.047795	4.019590

177.230917	7168.328904	15.174234	-0.047779	4.019409
177.292349	7167.878396	15.179239	-0.047793	4.019283
177.190484	7166.932325	15.184243	-0.047767	4.019021
177.155893	7166.492105	15.189248	-0.047759	4.018899
176.983088	7165.567890	15.194253	-0.047716	4.018643
177.139726	7164.673036	15.199258	-0.047753	4.018394
176.932476	7163.771085	15.204263	-0.047702	4.018145
176.964805	7162.850309	15.209267	-0.047709	4.017889
176.922045	7161.791620	15.214272	-0.047697	4.017595
176.674131	7160.681428	15.219277	-0.047636	4.017288
176.822635	7159.555157	15.224282	-0.047671	4.016974
176.748707	7158.352491	15.229287	-0.047652	4.016641
176.873058	7157.031660	15.234291	-0.047681	4.016274
176.877648	7155.672634	15.239296	-0.047681	4.015896
176.853210	7153.989743	15.244301	-0.047674	4.015429
176.979467	7152.734495	15.249306	-0.047704	4.015080
176.990394	7150.766878	15.254311	-0.047705	4.014533
177.079848	7149.004794	15.259315	-0.047725	4.014043
177.168979	7147.037328	15.264320	-0.047746	4.013496
177.022999	7144.890339	15.269325	-0.047708	4.012900
176.993226	7142.720114	15.274330	-0.047699	4.012297
177.048475	7140.511743	15.279335	-0.047711	4.011683
177.072119	7138.234914	15.284339	-0.047715	4.011049
177.063261	7135.950273	15.289344	-0.047711	4.010414
177.064226	7133.473045	15.294349	-0.047710	4.009725
176.982946	7130.964048	15.299354	-0.047688	4.009027
176.864386	7128.394567	15.304359	-0.047657	4.008313
176.950709	7125.598628	15.309363	-0.047676	4.007534
176.987269	7122.929494	15.314368	-0.047683	4.006791
176.871831	7119.930926	15.319373	-0.047652	4.005957
176.817771	7117.357319	15.324378	-0.047637	4.005240
176.914503	7114.331582	15.329383	-0.047658	4.004397
176.827983	7111.164769	15.334387	-0.047635	4.003515
176.826398	7108.093524	15.339392	-0.047632	4.002660
176.798567	7104.785248	15.344397	-0.047623	4.001738
176.660450	7101.593259	15.349402	-0.047587	4.000848
176.597167	7098.420555	15.354407	-0.047569	3.999964
176.672206	7094.944148	15.359411	-0.047584	3.998994
176.699828	7091.460345	15.364416	-0.047589	3.998022
176.594391	7087.821906	15.369421	-0.047560	3.997007
176.639246	7084.220302	15.374426	-0.047568	3.996002
176.603099	7080.633488	15.379431	-0.047557	3.995001
176.717252	7076.791644	15.384435	-0.047582	3.993928
176.748397	7072.857407	15.389440	-0.047586	3.992829
176.727766	7068.746205	15.394445	-0.047578	3.991680
176.763689	7064.727092	15.399450	-0.047584	3.990557
176.743889	7060.570229	15.404455	-0.047576	3.989395
176.638572	7056.277775	15.409459	-0.047547	3.988195
176.739829	7051.960218	15.414464	-0.047569	3.986987
176.658955	7047.590235	15.419469	-0.047546	3.985764
176.837911	7043.240136	15.424474	-0.047586	3.984546
176.759460	7038.543959	15.429479	-0.047564	3.983232
176.787018	7033.767584	15.434483	-0.047567	3.981894
176.723173	7029.046810	15.439488	-0.047548	3.980572
176.626394	7024.212697	15.444493	-0.047521	3.979217
176.588925	7019.326072	15.449498	-0.047508	3.977847
176.536475	7014.297478	15.454503	-0.047491	3.976437
176.370035	7009.525909	15.459507	-0.047447	3.975098
176.446785	7004.468225	15.464512	-0.047462	3.973679
176.297805	6999.266524	15.469517	-0.047422	3.972219
176.241645	6994.264009	15.474522	-0.047404	3.970814
176.249481	6989.052535	15.479527	-0.047402	3.969350
176.137301	6983.739081	15.484531	-0.047371	3.967856
176.225836	6978.404251	15.489536	-0.047389	3.966356
176.139143	6973.162669	15.494541	-0.047364	3.964882
176.201760	6967.622040	15.499546	-0.047375	3.963323
176.320411	6961.933026	15.504551	-0.047400	3.961721
176.271261	6956.296528	15.509555	-0.047384	3.960134
176.212225	6950.502724	15.514560	-0.047365	3.958502
176.179007	6944.522058	15.519565	-0.047352	3.956816
176.261236	6938.800126	15.524570	-0.047368	3.955203
176.180952	6932.725803	15.529575	-0.047344	3.953489
176.044807	6926.561042	15.534579	-0.047306	3.951750
176.078213	6920.745661	15.539584	-0.047310	3.950108
175.970382	6914.421683	15.544589	-0.047279	3.948322
175.954437	6908.178207	15.549594	-0.047271	3.946558
175.918357	6902.124070	15.554599	-0.047258	3.944846
175.969070	6895.649022	15.559603	-0.047265	3.943015
175.900883	6889.251686	15.564608	-0.047244	3.941205
175.854412	6882.739394	15.569613	-0.047228	3.939361
175.767365	6876.167273	15.574618	-0.047202	3.937500
175.824448	6869.650342	15.579623	-0.047211	3.935653
175.668020	6862.913690	15.584627	-0.047168	3.933743
175.773350	6856.152158	15.589632	-0.047189	3.931826
175.658552	6849.435398	15.594637	-0.047156	3.929920
175.536480	6842.535047	15.599642	-0.047121	3.927961
175.537208	6835.671270	15.604647	-0.047116	3.926011
175.380919	6828.707560	15.609651	-0.047073	3.924032
175.355893	6821.726644	15.614656	-0.047061	3.922047
175.466264	6814.651675	15.619661	-0.047083	3.920034
175.425812	6807.441023	15.624666	-0.047068	3.917982
175.302089	6800.235277	15.629671	-0.047033	3.915930
175.407703	6792.921564	15.634675	-0.047053	3.913846
175.382298	6785.561417	15.639680	-0.047041	3.911747
175.289201	6778.142917	15.644685	-0.047013	3.909631
175.329951	6770.545721	15.649690	-0.047018	3.907463
175.217171	6763.187906	15.654695	-0.046985	3.905362
175.211253	6755.407922	15.659699	-0.046978	3.903139
175.184722	6747.802729	15.664704	-0.046966	3.900965
175.224577	6739.970348	15.669709	-0.046970	3.898725
175.263244	6732.147915	15.674714	-0.046973	3.896486
175.199517	6724.253910	15.679719	-0.046952	3.894225
175.192521	6716.122573	15.684723	-0.046945	3.891895
175.253870	6708.210379	15.689728	-0.046954	3.889627
175.183820	6699.866909	15.694733	-0.046931	3.887233
175.217057	6691.824023	15.699738	-0.046933	3.884924
175.076750	6683.438795	15.704743	-0.046892	3.882516
175.036473	6675.127976	15.709747	-0.046877	3.880127
175.025558	6666.682190	15.714752	-0.046868	3.877698
174.834879	6658.337905	15.719757	-0.046815	3.875297
174.801841	6649.803096	15.724762	-0.046801	3.872839
174.715325	6641.409379	15.729767	-0.046774	3.870420
174.733319	6632.688118	15.734771	-0.046772	3.867906
174.596776	6624.292457	15.739776	-0.046732	3.865484
174.509559	6615.527805	15.744781	-0.046705	3.862953
174.413175	6606.991561	15.749786	-0.046675	3.860487
174.457487	6598.138248	15.754791	-0.046679	3.857928
174.480142	6589.427960	15.759795	-0.046678	3.855409
174.368803	6580.506416	15.764800	-0.046645	3.852826
174.348777	6571.649575	15.769805	-0.046633	3.850261
174.440797	6562.599749	15.774810	-0.046649	3.847638
174.378536	6553.753009	15.779815	-0.046628	3.845072
174.301184	6544.491875	15.784819	-0.046602	3.842384
174.363058	6535.303895	15.789824	-0.046611	3.839716
174.277685	6525.986008	15.794829	-0.046583	3.837007
174.379551	6516.632434	15.799834	-0.046601	3.834287
174.271252	6507.178946	15.804839	-0.046568	3.831535
174.023213	6497.677834	15.809843	-0.046500	3.828767
174.149382	6488.357010	15.814848	-0.046524	3.826051
174.053140	6478.690674	15.819853	-0.046494	3.823231
174.121814	6469.147552	15.824858	-0.046504	3.820446
173.922148	6459.420648	15.829863	-0.046448	3.817604
173.953249	6449.725449	15.834867	-0.046448	3.814769
173.909100	6439.975297	15.839872	-0.046431	3.811917
173.751995	6430.091924	15.844877	-0.046385	3.809023
173.718019	6420.400139	15.849882	-0.046370	3.806183
173.660604	6410.446606	15.854887	-0.046348	3.803264
173.622535	6400.506916	15.859891	-0.046332	3.800347
173.512696	6390.517297	15.864896	-0.046298	3.797413
173.264553	6380.522294	15.869901	-0.046230	3.794475
173.372157	6370.566827	15.874906	-0.046249	3.791547
173.411888	6360.367539	15.879911	-0.046251	3.788545
173.325650	6350.335812	15.884915	-0.046223	3.785589
173.341648	6340.086211	15.889920	-0.046220	3.782568
173.254848	6329.731980	15.894925	-0.046191	3.779512
173.244928	6319.497135	15.899930	-0.046181	3.776490
173.240482	6309.033893	15.904935	-0.046172	3.773397
173.174440	6298.612846	15.909939	-0.046149	3.770315
173.281612	6288.090276	15.914944	-0.046167	3.767200
173.244369	6277.377358	15.919949	-0.046150	3.764026
173.214540	6266.702867	15.924954	-0.046135	3.760861
173.144352	6255.928673	15.929959	-0.046110	3.757663
173.117172	6245.118890	15.934963	-0.046096	3.754452
173.085544	6234.362547	15.939968	-0.046081	3.751254
172.865521	6223.407745	15.944973	-0.046019	3.747993
172.807499	6212.630679	15.949978	-0.045997	3.744784
172.826546	6201.701379	15.954983	-0.045994	3.741526
172.688059	6190.657804	15.959987	-0.045952	3.738231
172.805825	6179.752200	15.964992	-0.045973	3.734975
172.450547	6168.663155	15.969997	-0.045878	3.731659
172.482177	6157.621875	15.975002	-0.045878	3.728357
172.495091	6146.590726	15.980007	-0.045873	3.725054
172.310949	6135.365913	15.985011	-0.045820	3.721690
172.404809	6124.174041	15.990016	-0.045835	3.718334
172.232680	6112.889404	15.995021	-0.045784	3.714945
172.215440	6101.640104	16.000026	-0.045772	3.711565
172.258474	6090.308528	16.005031	-0.045774	3.708157
172.229509	6078.895558	16.010035	-0.045759	3.704721
172.310423	6067.458774	16.015040	-0.045771	3.701276
172.142205	6055.844472	16.020045	-0.045721	3.697772
172.118281	6044.249524	16.025050	-0.045707	3.694272
172.045166	6032.728653	16.030055	-0.045681	3.690790
171.977062	6021.015350	16.035059	-0.045656	3.687247
171.914844	6009.330756	16.040064	-0.045632	3.683709
171.744555	5997.542562	16.045069	-0.045582	3.680136
171.736908	5985.821788	16.050074	-0.045572	3.676580
171.652940	5974.022727	16.055079	-0.045542	3.672997
171.548771	5962.112535	16.060083	-0.045508	3.669377
171.499125	5950.450812	16.065088	-0.045488	3.665828
171.338720	5938.503972	16.070093	-0.045440	3.662189
171.405666	5926.568514	16.075098	-0.045448	3.658551
171.466942	5914.599021	16.080103	-0.045454	3.654900
171.222968	5902.588081	16.085107	-0.045386	3.651229
171.292515	5890.609745	16.090112	-0.045394	3.647567
171.083399	5878.468324	16.095117	-0.045334	3.643849
171.245766	5866.296844	16.100122	-0.045365	3.640122
171.167449	5854.118871	16.105127	-0.045337	3.636386
171.097720	5841.795705	16.110131	-0.045311	3.632602
171.003938	5829.553132	16.115136	-0.045280	3.628839
171.134030	5817.199329	16.120141	-0.045303	3.625040
171.138663	5804.803239	16.125146	-0.045295	3.621222
170.947216	5792.331814	16.130151	-0.045239	3.617376
170.854343	5779.837543	16.135155	-0.045207	3.613519
170.694733	5767.368788	16.140160	-0.045159	3.609665
170.538420	5754.926499	16.145165	-0.045112	3.605815
170.477119	5742.374802	16.150170	-0.045088	3.601928
170.267983	5729.875513	16.155175	-0.045028	3.598052
170.314464	5717.293380	16.160179	-0.045030	3.594148
170.408238	5704.699294	16.165184	-0.045044	3.590237
170.202444	5692.135485	16.170189	-0.044985	3.586328
170.331892	5679.377246	16.175194	-0.045007	3.582357
170.224244	5666.628815	16.180199	-0.044972	3.578383
170.203377	5653.772767	16.185203	-0.044957	3.574372
170.174369	5640.984399	16.190208	-0.044941	3.570377
170.214628	5628.124223	16.195213	-0.044942	3.566355
170.182835	5615.125521	16.200218	-0.044925	3.562286
170.127467	5602.104701	16.205223	-0.044902	3.558204
170.031520	5588.997882	16.210227	-0.044869	3.554090
169.905569	5575.992806	16.215232	-0.044829	3.550003
169.776593	5562.901740	16.220237	-0.044788	3.545884
169.757047	5549.858717	16.225242	-0.044774	3.541777
169.601409	5536.777423	16.230247	-0.044726	3.537651
169.555195	5523.622481	16.235251	-0.044705	3.533499
169.528242	5510.469502	16.240256	-0.044689	3.529342
169.444337	5497.203029	16.245261	-0.044659	3.525144
169.405779	5483.859113	16.250266	-0.044640	3.520917
169.277899	5470.638000	16.255271	-0.044599	3.516722
169.269741	5457.262069	16.260275	-0.044588	3.512475
169.303240	5443.979227	16.265280	-0.044586	3.508253
169.273119	5430.527642	16.270285	-0.044569	3.503971
169.199795	5417.055102	16.275290	-0.044542	3.499677
169.192182	5403.601416	16.280295	-0.044530	3.495384
169.200821	5389.961449	16.285299	-0.044522	3.491027
169.077366	5376.501967	16.290304	-0.044483	3.486720
168.936487	5362.854395	16.295309	-0.044438	3.482347
168.836159	5349.227266	16.300314	-0.044404	3.477976
168.713734	5335.626076	16.305319	-0.044364	3.473607
168.549275	5322.030319	16.310323	-0.044314	3.469234
168.481354	5308.484536	16.315328	-0.044288	3.464873
168.372225	5294.811491	16.320333	-0.044252	3.460465
168.352569	5281.193629	16.325338	-0.044237	3.456070
168.325703	5267.521985	16.330343	-0.044221	3.451652
168.178430	5253.766212	16.335347	-0.044175	3.447200
168.110433	5240.022859	16.340352	-0.044148	3.442746
168.060000	5226.226349	16.345357	-0.044126	3.438270
168.113574	5212.413321	16.350362	-0.044129	3.433785
168.184931	5198.547461	16.355367	-0.044136	3.429276
168.235622	5184.544592	16.360371	-0.044139	3.424717
168.124687	5170.550716	16.365376	-0.044102	3.420152
168.110738	5156.448737	16.370381	-0.044088	3.415547
167.943362	5142.417032	16.375386	-0.044037	3.410956
168.054209	5128.351894	16.380391	-0.044054	3.406353
167.822826	5114.119640	16.385395	-0.043987	3.401683
167.654442	5100.091264	16.390400	-0.043936	3.397075
167.463347	5085.983566	16.395405	-0.043879	3.392433
167.355378	5071.985981	16.400410	-0.043843	3.387823
167.205265	5057.925447	16.405415	-0.043796	3.383186
167.028270	5043.840338	16.410419	-0.043743	3.378533
167.123283	5029.793002	16.415424	-0.043756	3.373891
166.971446	5015.645690	16.420429	-0.043708	3.369205
166.938067	5001.482888	16.425434	-0.043690	3.364510
166.865126	4987.299677	16.430439	-0.043662	3.359800
166.792271	4973.049149	16.435443	-0.043634	3.355061
166.869938	4958.849265	16.440448	-0.043643	3.350336
166.685447	4944.571087	16.445453	-0.043587	3.345572
166.716734	4930.274690	16.450458	-0.043585	3.340800
166.809694	4915.888977	16.455463	-0.043597	3.335992
166.586903	4901.478789	16.460467	-0.043532	3.331163
166.611932	4887.113260	16.465472	-0.043528	3.326347
166.606462	4872.589983	16.470477	-0.043516	3.321470
166.427425	4858.124676	16.475482	-0.043462	3.316602
166.414927	4843.684359	16.480487	-0.043449	3.311739
166.153856	4829.197082	16.485491	-0.043375	3.306848
166.241438	4814.734625	16.490496	-0.043386	3.301964
166.067122	4800.214530	16.495501	-0.043332	3.297049
166.028242	4785.690901	16.500506	-0.043313	3.292128
166.037498	4771.129216	16.505511	-0.043304	3.287187
165.907946	4756.453472	16.510515	-0.043262	3.282198
165.763906	4741.923868	16.515520	-0.043216	3.277250
165.732880	4727.304344	16.520525	-0.043198	3.272266
165.733834	4712.679622	16.525530	-0.043188	3.267274
165.679233	4698.024058	16.530535	-0.043164	3.262262
165.594197	4683.285433	16.535539	-0.043133	3.257213
165.568113	4668.645267	16.540544	-0.043116	3.252192
165.460212	4653.904752	16.545549	-0.043079	3.247127
165.331225	4639.120658	16.550554	-0.043037	3.242038
165.238380	4624.427355	16.555559	-0.043004	3.236973
165.195964	4609.642782	16.560563	-0.042983	3.231870
165.156773	4594.964437	16.565568	-0.042962	3.226795
165.161081	4580.091993	16.570573	-0.042953	3.221646
164.979601	4565.284987	16.575578	-0.042898	3.216508
164.916179	4550.432198	16.580583	-0.042872	3.211348
164.651701	4535.577917	16.585587	-0.042796	3.206174
164.653425	4520.776942	16.590592	-0.042786	3.201017
164.531338	4505.926679	16.595597	-0.042746	3.195831
164.493567	4491.095928	16.600602	-0.042726	3.190646
164.409811	4476.260340	16.605607	-0.042695	3.185450
164.371897	4461.324110	16.610611	-0.042675	3.180210
164.452397	4446.425819	16.615616	-0.042684	3.174978
164.300440	4431.496966	16.620621	-0.042636	3.169722
164.408479	4416.468974	16.625626	-0.042651	3.164427
164.330902	4401.461196	16.630631	-0.042622	3.159127
164.176294	4386.386145	16.635635	-0.042573	3.153792
164.101287	4371.445663	16.640640	-0.042544	3.148497
164.054261	4356.340308	16.645645	-0.042522	3.143135
163.971454	4341.304561	16.650650	-0.042491	3.137789
163.795204	4326.281046	16.655655	-0.042437	3.132435
163.601207	4311.198093	16.660659	-0.042378	3.127050
163.538719	4296.185086	16.665664	-0.042352	3.121684
163.401874	4281.146711	16.670669	-0.042308	3.116298
163.184058	4266.170842	16.675674	-0.042244	3.110923
163.159853	4251.199041	16.680679	-0.042227	3.105545
163.077469	4236.165605	16.685683	-0.042197	3.100134
163.088237	4221.179278	16.690688	-0.042188	3.094733
162.974687	4206.152376	16.695693	-0.042150	3.089304
162.946582	4191.042094	16.700698	-0.042132	3.083838
162.841478	4175.994590	16.705703	-0.042096	3.078383
162.832785	4160.872011	16.710707	-0.042083	3.072894
162.884028	4145.787327	16.715712	-0.042084	3.067410
162.796233	4130.602409	16.720717	-0.042052	3.061876
162.668896	4115.445535	16.725722	-0.042010	3.056341
162.694639	4100.300078	16.730727	-0.042005	3.050804
162.563851	4085.014655	16.735731	-0.041962	3.045202
162.460145	4069.839521	16.740736	-0.041926	3.039630
162.439424	4054.630607	16.745741	-0.041910	3.034039
162.385196	4039.402458	16.750746	-0.041886	3.028428
162.297235	4024.161329	16.755751	-0.041854	3.022802
162.168931	4008.883576	16.760755	-0.041811	3.017150
162.066191	3993.709153	16.765760	-0.041775	3.011527
161.902951	3978.468075	16.770765	-0.041724	3.005866
161.826058	3963.234558	16.775770	-0.041695	3.000201
161.781765	3948.047319	16.780775	-0.041673	2.994542
161.634486	3932.830479	16.785779	-0.041626	2.988859
161.585899	3917.647054	16.790784	-0.041603	2.983180
161.394238	3902.443757	16.795789	-0.041545	2.977479
161.421536	3887.216506	16.800794	-0.041541	2.971764
161.338549	3871.984693	16.805799	-0.041510	2.966034
161.150341	3856.723453	16.810803	-0.041453	2.960277
161.188975	3841.535548	16.815808	-0.041451	2.954545
161.008551	3826.323288	16.820813	-0.041396	2.948785
161.005205	3811.057391	16.825818	-0.041385	2.942999
160.959603	3795.835854	16.830823	-0.041363	2.937217
160.944867	3780.562965	16.835827	-0.041348	2.931405
160.962149	3765.240686	16.840832	-0.041341	2.925563
160.862450	3749.940491	16.845837	-0.041306	2.919715
160.661806	3734.640050	16.850842	-0.041246	2.913851
160.648987	3719.405177	16.855847	-0.041232	2.908007
160.592375	3704.045799	16.860851	-0.041207	2.902102
160.622125	3688.744015	16.865856	-0.041203	2.896210
160.498060	3673.353846	16.870861	-0.041162	2.890266
160.322044	3657.963877	16.875866	-0.041108	2.884308
160.203262	3642.665876	16.880871	-0.041068	2.878376
160.005247	3627.388308	16.885875	-0.041008	2.872436
159.962909	3612.139473	16.890880	-0.040987	2.866501
159.786194	3596.877075	16.895885	-0.040933	2.860543
159.840675	3581.594897	16.900890	-0.040935	2.854574
159.606264	3566.372331	16.905895	-0.040867	2.848604
159.487997	3551.096342	16.910899	-0.040827	2.842606
159.363004	3535.919181	16.915904	-0.040786	2.836633
159.354159	3520.735444	16.920909	-0.040773	2.830650
159.390645	3505.448418	16.925914	-0.040771	2.824614
159.265743	3490.240142	16.930919	-0.040729	2.818591
159.110937	3474.961210	16.935923	-0.040680	2.812525
159.189501	3459.694516	16.940928	-0.040689	2.806461
159.026342	3444.425374	16.945933	-0.040638	2.800372
159.166758	3429.114040	16.950938	-0.040661	2.794266
159.232752	3413.796505	16.955943	-0.040666	2.788140
159.028333	3398.403707	16.960947	-0.040605	2.781961
158.938032	3383.136539	16.965952	-0.040572	2.775822
158.802065	3367.826442	16.970957	-0.040528	2.769651
158.682432	3352.497995	16.975962	-0.040488	2.763459
158.693742	3337.211009	16.980967	-0.040479	2.757275
158.476455	3321.973504	16.985971	-0.040415	2.751088
158.376203	3306.736477	16.990976	-0.040380	2.744892
158.068775	3291.535747	16.995981	-0.040294	2.738689
158.045935	3276.334797	17.000986	-0.040277	2.732483
157.952340	3261.135975	17.005991	-0.040244	2.726260
157.838296	3245.918528	17.010995	-0.040205	2.720015
157.778199	3230.776121	17.016000	-0.040179	2.713788
157.690358	3215.600234	17.021005	-0.040147	2.707532
157.566276	3200.460244	17.026010	-0.040106	2.701275
157.639636	3185.328877	17.031015	-0.040113	2.695016
157.525563	3170.104088	17.036019	-0.040074	2.688695
157.538318	3154.934898	17.041024	-0.040066	2.682387
157.523408	3139.739189	17.046029	-0.040052	2.676053
157.390941	3124.550858	17.051034	-0.040008	2.669701
157.307780	3109.365273	17.056039	-0.039977	2.663337
157.226422	3094.201757	17.061043	-0.039946	2.656968
157.238069	3079.004692	17.066048	-0.039938	2.650573
157.148224	3063.755773	17.071053	-0.039905	2.644136
156.996300	3048.571056	17.076058	-0.039857	2.637708
156.987511	3033.467936	17.081063	-0.039844	2.631305
156.589238	3018.309704	17.086067	-0.039736	2.624845
156.625943	3003.256948	17.091072	-0.039734	2.618435
156.534955	2988.191854	17.096077	-0.039701	2.611997
156.396757	2973.086520	17.101082	-0.039657	2.605524
156.437144	2958.031073	17.106087	-0.039656	2.599064
156.304466	2942.973870	17.111091	-0.039612	2.592580
156.193607	2927.941917	17.116096	-0.039574	2.586091
156.045260	2912.931445	17.121101	-0.039527	2.579593
156.039768	2897.889304	17.126106	-0.039515	2.573072
155.919388	2882.873849	17.131111	-0.039475	2.566540
155.780157	2867.828382	17.136115	-0.039430	2.559978
155.771646	2852.859951	17.141120	-0.039417	2.553439
155.620874	2837.880228	17.146125	-0.039370	2.546871
155.560281	2822.902343	17.151130	-0.039344	2.540291
155.419521	2807.991649	17.156135	-0.039299	2.533719
155.445754	2792.997727	17.161139	-0.039295	2.527103
155.377312	2778.055041	17.166144	-0.039267	2.520486
155.395248	2763.095931	17.171149	-0.039261	2.513850
155.185081	2748.177661	17.176154	-0.039199	2.507202
155.176089	2733.268280	17.181159	-0.039186	2.500551
154.985230	2718.346034	17.186163	-0.039129	2.493867
154.896573	2703.465145	17.191168	-0.039096	2.487188
154.782569	2688.574607	17.196173	-0.039058	2.480486
154.753659	2673.731595	17.201178	-0.039040	2.473792
154.589742	2658.961068	17.206183	-0.038989	2.467105
154.433660	2644.122530	17.211187	-0.038940	2.460370
154.369939	2629.421020	17.216192	-0.038914	2.453683
154.247591	2614.636403	17.221197	-0.038874	2.446937
153.862921	2599.964638	17.226202	-0.038769	2.440209
153.955802	2585.372048	17.231207	-0.038781	2.433525
153.994993	2570.639413	17.236211	-0.038780	2.426756
153.864390	2555.995950	17.241216	-0.038738	2.419999
153.859841	2541.306552	17.246221	-0.038726	2.413209
153.765549	2526.599561	17.251226	-0.038693	2.406387
153.829503	2511.923537	17.256231	-0.038698	2.399569
153.631790	2497.278731	17.261235	-0.038639	2.392730
153.682181	2482.604806	17.266240	-0.038641	2.385873
153.507989	2467.986686	17.271245	-0.038588	2.379009
153.496267	2453.371698	17.276250	-0.038574	2.372137
153.482333	2438.717016	17.281255	-0.038560	2.365225
153.303360	2424.133523	17.286259	-0.038506	2.358317
153.290240	2409.587416	17.291264	-0.038492	2.351416
153.171831	2394.997085	17.296269	-0.038453	2.344468
153.102451	2380.453346	17.301274	-0.038426	2.337524
152.981086	2365.936054	17.306279	-0.038385	2.330569
152.761466	2351.420239	17.311283	-0.038321	2.323587
152.623113	2337.018765	17.316288	-0.038277	2.316645
152.450115	2322.639879	17.321293	-0.038225	2.309690
152.399865	2308.263816	17.326298	-0.038202	2.302724
152.339121	2293.930071	17.331303	-0.038177	2.295756
152.097175	2279.591494	17.336307	-0.038107	2.288753
152.131151	2265.287174	17.341312	-0.038105	2.281763
152.067666	2251.020612	17.346317	-0.038080	2.274763
151.906180	2236.757946	17.351322	-0.038030	2.267738
151.790277	2222.542784	17.356327	-0.037991	2.260717
151.849134	2208.257448	17.361331	-0.037995	2.253651
151.687859	2194.004547	17.366336	-0.037946	2.246564
151.621514	2179.801981	17.371341	-0.037919	2.239486
151.520421	2165.646798	17.376346	-0.037884	2.232407
151.554747	2151.469337	17.381351	-0.037883	2.225303
151.297110	2137.353928	17.386355	-0.037810	2.218188
151.010717	2123.309573	17.391360	-0.037730	2.211084
151.014828	2109.276047	17.396365	-0.037720	2.203983
150.984932	2095.230907	17.401370	-0.037703	2.196850
151.000401	2081.249681	17.406375	-0.037697	2.189730
150.964333	2067.184559	17.411379	-0.037678	2.182540
150.978304	2053.165624	17.416384	-0.037671	2.175353
150.797921	2039.157778	17.421389	-0.037617	2.168134
150.765810	2025.153424	17.426394	-0.037599	2.160904
150.758065	2011.249441	17.431399	-0.037587	2.153703
150.580160	1997.278674	17.436403	-0.037534	2.146431
150.516696	1983.435198	17.441408	-0.037508	2.139209
150.350882	1969.556506	17.446413	-0.037458	2.131936
150.055070	1955.765121	17.451418	-0.037375	2.124675
150.085634	1942.034723	17.456423	-0.037373	2.117445
149.821398	1928.311972	17.461427	-0.037299	2.110173
149.702310	1914.641069	17.466432	-0.037260	2.102913
149.577131	1900.994603	17.471437	-0.037219	2.095641
149.396607	1887.348281	17.476442	-0.037165	2.088340
149.365407	1873.790605	17.481447	-0.037148	2.081071
149.141340	1860.257570	17.486451	-0.037083	2.073776
149.182783	1846.727877	17.491456	-0.037084	2.066477
149.119267	1833.253391	17.496461	-0.037059	2.059174
149.124532	1819.720251	17.501466	-0.037050	2.051818
149.179204	1806.234460	17.506471	-0.037054	2.044466
149.107509	1792.730155	17.511475	-0.037027	2.037067
149.079459	1779.280821	17.516480	-0.037010	2.029675
149.018800	1765.826124	17.521485	-0.036986	2.022250
148.907459	1752.399216	17.526490	-0.036949	2.014809
148.885172	1738.976474	17.531495	-0.036934	2.007350
148.739121	1725.611596	17.536499	-0.036888	1.999885
148.679064	1712.273282	17.541504	-0.036864	1.992414
148.627403	1698.985983	17.546509	-0.036842	1.984945
148.323734	1685.732192	17.551514	-0.036758	1.977445
148.202731	1672.555986	17.556519	-0.036719	1.969976
147.949869	1659.403282	17.561523	-0.036648	1.962480
147.835360	1646.370142	17.566528	-0.036610	1.955036
147.695704	1633.302842	17.571533	-0.036567	1.947541
147.704762	1620.268921	17.576538	-0.036560	1.940050
147.469562	1607.270193	17.581543	-0.036493	1.932528
147.212249	1594.323730	17.586547	-0.036421	1.925006
147.101894	1581.455344	17.591552	-0.036384	1.917512
147.126172	1568.587966	17.596557	-0.036381	1.910001
146.980797	1555.736894	17.601562	-0.036336	1.902456
147.088829	1542.949131	17.606567	-0.036353	1.894940
146.990163	1530.091090	17.611571	-0.036320	1.887333
146.897858	1517.360112	17.616576	-0.036288	1.879773
146.857311	1504.608683	17.621581	-0.036269	1.872174
146.789130	1491.858512	17.626586	-0.036243	1.864542
146.803677	1479.169142	17.631591	-0.036238	1.856923
146.607203	1466.476040	17.636595	-0.036181	1.849251
146.554622	1453.857377	17.641600	-0.036159	1.841605
146.475192	1441.264490	17.646605	-0.036130	1.833941
146.340869	1428.705956	17.651610	-0.036088	1.826260
146.233206	1416.220596	17.656615	-0.036053	1.818594
146.122729	1403.721328	17.661619	-0.036017	1.810887
146.190308	1391.247854	17.666624	-0.036025	1.803180
145.911411	1378.876560	17.671629	-0.035948	1.795470
145.776563	1366.512684	17.676634	-0.035906	1.787745
145.761053	1354.208737	17.681639	-0.035893	1.780036
145.570336	1341.898388	17.686643	-0.035838	1.772272
145.399376	1329.666884	17.691648	-0.035787	1.764526
145.315658	1317.499750	17.696653	-0.035758	1.756795
145.118143	1305.337235	17.701658	-0.035701	1.749022
145.122015	1293.276091	17.706663	-0.035693	1.741299
144.907833	1281.194977	17.711667	-0.035632	1.733506
144.934853	1269.168788	17.716672	-0.035630	1.725739
144.720858	1257.209126	17.721677	-0.035569	1.717954
144.535877	1245.275331	17.726682	-0.035515	1.710155
144.556476	1233.404564	17.731687	-0.035512	1.702382
144.537708	1221.477258	17.736691	-0.035498	1.694532
144.561486	1209.611947	17.741696	-0.035496	1.686691
144.413926	1197.814039	17.746701	-0.035451	1.678840
144.413305	1186.004019	17.751706	-0.035442	1.670960
144.377392	1174.260878	17.756711	-0.035425	1.663084
144.155021	1162.549219	17.761715	-0.035362	1.655171
144.128740	1150.882357	17.766720	-0.035347	1.647272
144.096406	1139.240297	17.771725	-0.035331	1.639351
143.896698	1127.669216	17.776730	-0.035274	1.631421
143.789102	1116.148555	17.781735	-0.035239	1.623498
143.590389	1104.637044	17.786739	-0.035183	1.615532
143.651880	1093.143998	17.791744	-0.035189	1.607568
143.412722	1081.764754	17.796749	-0.035123	1.599610
143.308781	1070.395379	17.801754	-0.035089	1.591635
143.199793	1059.103748	17.806759	-0.035054	1.583674
143.042853	1047.834825	17.811763	-0.035008	1.575683
143.048994	1036.605307	17.816768	-0.035001	1.567698
142.912338	1025.429352	17.821773	-0.034960	1.559694
142.829850	1014.280352	17.826778	-0.034931	1.551675
142.724082	1003.203418	17.831783	-0.034898	1.543663
142.611669	992.122060	17.836787	-0.034862	1.535605
142.568382	981.104165	17.841792	-0.034844	1.527560
142.546978	970.123583	17.846797	-0.034830	1.519502
142.319835	959.183152	17.851802	-0.034767	1.511405
142.338757	948.331489	17.856807	-0.034764	1.503361
142.218298	937.449719	17.861811	-0.034727	1.495234
142.115544	926.658834	17.866816	-0.034694	1.487133
141.956854	915.948616	17.871821	-0.034647	1.479042
141.906945	905.217420	17.876826	-0.034627	1.470904
141.888366	894.581271	17.881831	-0.034615	1.462797
141.575707	883.962193	17.886835	-0.034531	1.454620
141.533946	873.385228	17.891840	-0.034513	1.446464
141.404883	862.930141	17.896845	-0.034474	1.438346
141.173940	852.477454	17.901850	-0.034410	1.430169
141.231929	842.081669	17.906855	-0.034417	1.422029
141.152233	831.701268	17.911859	-0.034390	1.413836
141.087584	821.364466	17.916864	-0.034366	1.405631
140.923057	811.128189	17.921869	-0.034319	1.397445
140.878033	800.891574	17.926874	-0.034300	1.389227
140.749169	790.718740	17.931879	-0.034261	1.381000
140.592122	780.577502	17.936883	-0.034216	1.372745
140.622108	770.485462	17.941888	-0.034216	1.364507
140.626447	760.424878	17.946893	-0.034210	1.356242
140.562408	750.404583	17.951898	-0.034187	1.347949
140.441305	740.474715	17.956903	-0.034150	1.339672
140.492472	730.493302	17.961907	-0.034155	1.331325
140.342272	720.641768	17.966912	-0.034111	1.323006
140.102323	710.874683	17.971917	-0.034046	1.314692
139.834717	701.160755	17.976922	-0.033973	1.306367
139.704261	691.540449	17.981927	-0.033934	1.298090
139.493242	681.903763	17.986931	-0.033876	1.289732
139.276551	672.388582	17.991936	-0.033816	1.281426
139.185370	662.897626	17.996941	-0.033787	1.273106
139.115605	653.454369	18.001946	-0.033763	1.264776
139.191407	644.024459	18.006951	-0.033775	1.256426
139.111250	634.639776	18.011955	-0.033748	1.248036
139.067529	625.334070	18.016960	-0.033731	1.239666
138.967196	616.052831	18.021965	-0.033700	1.231253
138.898344	606.814265	18.026970	-0.033676	1.222825
138.996392	597.599745	18.031975	-0.033693	1.214389
138.833995	588.449696	18.036979	-0.033647	1.205910
138.754976	579.367779	18.041984	-0.033621	1.197448
138.680507	570.337859	18.046989	-0.033596	1.188976
138.565059	561.359861	18.051994	-0.033562	1.180485
138.538703	552.417562	18.056999	-0.033549	1.171982
138.247544	543.582855	18.062003	-0.033471	1.163475
138.106542	534.807433	18.067008	-0.033430	1.154988
137.819403	526.118272	18.072013	-0.033354	1.146496
137.686629	517.445278	18.077018	-0.033315	1.137985
137.735309	508.813624	18.082023	-0.033321	1.129482
137.563176	500.267250	18.087027	-0.033272	1.120961
137.343626	491.785921	18.092032	-0.033213	1.112430
137.091335	483.407202	18.097037	-0.033145	1.103932
136.794631	475.083260	18.102042	-0.033066	1.095415
136.731840	466.818226	18.107047	-0.033045	1.086935
136.665170	458.586485	18.112051	-0.033023	1.078423
136.314501	450.489502	18.117056	-0.032931	1.069929
136.272341	442.394330	18.122061	-0.032915	1.061429
136.005362	434.364211	18.127066	-0.032844	1.052885
135.775775	426.452522	18.132071	-0.032782	1.044406
135.625377	418.579728	18.137075	-0.032740	1.035914
135.259983	410.820152	18.142080	-0.032645	1.027433
135.152074	403.097966	18.147085	-0.032613	1.018973
134.963790	395.435824	18.152090	-0.032561	1.010493
134.711163	387.881872	18.157095	-0.032494	1.002049
134.465144	380.365908	18.162099	-0.032428	0.993576
134.180404	372.949555	18.167104	-0.032353	0.985136
133.798634	365.608134	18.172109	-0.032255	0.976688
133.491590	358.330118	18.177114	-0.032174	0.968255
133.365353	351.137970	18.182119	-0.032138	0.959887
133.224576	343.975150	18.187123	-0.032099	0.951476
133.003312	336.900642	18.192128	-0.032039	0.943077
132.670474	329.914796	18.197133	-0.031953	0.934684
132.413562	322.994948	18.202138	-0.031885	0.926312
132.290297	316.134241	18.207143	-0.031850	0.917965
132.059089	309.332061	18.212147	-0.031789	0.909589
131.832684	302.601895	18.217152	-0.031728	0.901226
131.591889	295.938576	18.222157	-0.031665	0.892864
131.200646	289.381948	18.227162	-0.031564	0.884522
131.044982	282.877403	18.232167	-0.031521	0.876224
130.726005	276.450938	18.237171	-0.031439	0.867907
130.632309	270.054679	18.242176	-0.031411	0.859604
130.147171	263.810633	18.247181	-0.031288	0.851323
129.913382	257.592181	18.252186	-0.031226	0.843057
129.858448	251.409660	18.257191	-0.031208	0.834803
129.601633	245.320415	18.262195	-0.031141	0.826541
129.312423	239.287124	18.267200	-0.031066	0.818263
129.262136	233.278371	18.272205	-0.031049	0.809997
129.086181	227.364706	18.277210	-0.031002	0.801745
128.772682	221.537825	18.282215	-0.030921	0.793492
128.406732	215.787870	18.287219	-0.030828	0.785249
128.120852	210.106950	18.292224	-0.030754	0.777038
128.004048	204.460323	18.297229	-0.030721	0.768837
127.812841	198.880170	18.302234	-0.030670	0.760624
127.575816	193.384925	18.307239	-0.030608	0.752434
127.141805	187.985562	18.312243	-0.030498	0.744242
126.987960	182.599102	18.317248	-0.030456	0.736059
126.781859	177.301125	18.322253	-0.030402	0.727905
126.476469	172.075838	18.327258	-0.030324	0.719742
126.303534	166.907544	18.332263	-0.030278	0.711614
125.883338	161.845719	18.337267	-0.030171	0.703487
125.741953	156.792687	18.342272	-0.030133	0.695364
125.423651	151.858120	18.347277	-0.030052	0.687283
125.045706	146.987611	18.352282	-0.029956	0.679192
124.904962	142.147173	18.357287	-0.029918	0.671129
124.465516	137.417264	18.362291	-0.029807	0.663058
124.074985	132.749251	18.367296	-0.029708	0.655009
123.928092	128.122240	18.372301	-0.029669	0.647012
123.559831	123.582161	18.377306	-0.029575	0.638992
123.221333	119.122681	18.382311	-0.029489	0.631022
122.975026	114.714878	18.387315	-0.029426	0.623076
122.873338	110.317360	18.392320	-0.029398	0.615096
122.627092	106.025934	18.397325	-0.029334	0.607155
122.206342	101.819665	18.402330	-0.029228	0.599205
122.118248	97.625883	18.407335	-0.029204	0.591293
121.839166	93.518088	18.412339	-0.029132	0.583367
121.566988	89.459928	18.417344	-0.029063	0.575432
121.304937	85.482891	18.422349	-0.028996	0.567549
121.010855	81.559332	18.427354	-0.028921	0.559649
120.744808	77.703902	18.432359	-0.028853	0.551785
120.435807	73.923314	18.437363	-0.028775	0.543945
120.187965	70.175326	18.442368	-0.028712	0.536082
119.956509	66.508831	18.447373	-0.028652	0.528281
119.717421	62.884959	18.452378	-0.028591	0.520452
119.410940	59.344008	18.457383	-0.028514	0.512655
119.356005	55.802269	18.462387	-0.028497	0.504844
119.128668	52.339956	18.467392	-0.028439	0.497014
118.920867	48.942820	18.472397	-0.028386	0.489216
118.647467	45.605554	18.477402	-0.028317	0.481402
118.544241	42.306372	18.482407	-0.028289	0.473626
118.019809	39.140401	18.487411	-0.028158	0.465843
117.651918	36.011169	18.492416	-0.028066	0.458093
117.408245	32.928967	18.497421	-0.028004	0.450385
117.098442	29.910519	18.502426	-0.027926	0.442672
116.629601	26.996703	18.507431	-0.027810	0.435011
116.208485	24.128389	18.512435	-0.027704	0.427356
116.043643	21.270567	18.517440	-0.027662	0.419723
115.698172	18.506914	18.522445	-0.027575	0.412108
115.368317	15.803957	18.527450	-0.027493	0.404525
115.133934	13.132640	18.532455	-0.027434	0.396940
114.719658	10.563023	18.537459	-0.027330	0.389398
114.359648	8.035013	18.542464	-0.027240	0.381859
114.104435	5.551572	18.547469	-0.027176	0.374363
113.707351	3.146772	18.552474	-0.027077	0.366869
113.258357	0.820882	18.557479	-0.026966	0.359433
112.673468	-1.425078	18.562483	-0.026821	0.352009
111.720869	-3.523968	18.567488	-0.026587	0.344668
109.288777	-5.239716	18.572493	-0.025991	0.337476
95.992501	-4.553248	18.577498	-0.022743	0.331049
86.610919	-4.029417	18.582503	-0.020451	0.326571
78.590338	-3.498114	18.587507	-0.018491	0.322980
74.743323	-3.539193	18.592512	-0.017551	0.320210
70.780958	-3.363730	18.597517	-0.016583	0.318098
67.641479	-3.268836	18.602522	-0.015816	0.316258
65.843851	-3.320696	18.607527	-0.015376	0.314822
63.593240	-3.207171	18.612531	-0.014827	0.313652
61.986585	-3.160894	18.617536	-0.014434	0.312689
60.512037	-3.092472	18.622541	-0.014073	0.311897
59.324322	-3.032969	18.627546	-0.013783	0.311272
58.614169	-3.036910	18.632551	-0.013610	0.310756
57.952525	-3.030792	18.637555	-0.013448	0.310309
57.632144	-3.087569	18.642560	-0.013369	0.309876
56.972198	-3.051796	18.647565	-0.013208	0.309537
56.435935	-3.035472	18.652570	-0.013077	0.309214
55.949087	-2.992348	18.657575	-0.012958	0.309024
55.508126	-2.962156	18.662579	-0.012850	0.308819
55.738847	-3.063463	18.667584	-0.012906	0.308615
55.286696	-3.025082	18.672589	-0.012795	0.308432
55.316505	-3.106288	18.677594	-0.012802	0.308158
55.397752	-3.201320	18.682599	-0.012822	0.307870
54.735981	-3.139865	18.687603	-0.012660	0.307620
54.499940	-3.143087	18.692608	-0.012602	0.307439
54.033092	-3.111878	18.697613	-0.012488	0.307218
54.107750	-3.174596	18.702618	-0.012506	0.307043
53.226290	-3.037398	18.707623	-0.012291	0.306912
52.836733	-2.963270	18.712627	-0.012195	0.306903
52.668293	-2.993317	18.717632	-0.012154	0.306672
51.934785	-2.870541	18.722637	-0.011975	0.306594
51.677222	-2.823088	18.727642	-0.011912	0.306582
51.800213	-2.843473	18.732647	-0.011942	0.306596
51.463684	-2.779286	18.737651	-0.011859	0.306588
51.686570	-2.823479	18.742656	-0.011914	0.306586
51.585239	-2.801391	18.747661	-0.011889	0.306594
51.585606	-2.806506	18.752666	-0.011889	0.306575
51.598159	-2.886210	18.757671	-0.011892	0.306292
51.830958	-2.934092	18.762675	-0.011948	0.306283
52.130595	-3.072361	18.767680	-0.012021	0.305992
51.988738	-3.098581	18.772685	-0.011986	0.305794
51.488572	-3.055829	18.777690	-0.011864	0.305590
51.689330	-3.166660	18.782695	-0.011913	0.305327
51.132390	-3.127867	18.787699	-0.011777	0.305068
50.583827	-3.036515	18.792704	-0.011643	0.305008
50.459531	-3.096860	18.797709	-0.011612	0.304696
50.401738	-3.098476	18.802714	-0.011598	0.304648
49.791562	-3.047240	18.807719	-0.011448	0.304395
49.319395	-2.957110	18.812723	-0.011333	0.304385
49.509668	-3.008282	18.817728	-0.011379	0.304334
48.805794	-2.938865	18.822733	-0.011207	0.304080
48.596245	-2.901818	18.827738	-0.011156	0.304065
48.369890	-2.853231	18.832743	-0.011100	0.304080
48.184532	-2.817903	18.837747	-0.011055	0.304076
48.504210	-2.880999	18.842752	-0.011133	0.304074
48.135338	-2.866433	18.847757	-0.011043	0.303860
47.786831	-2.807091	18.852762	-0.010957	0.303826
47.821757	-2.811044	18.857767	-0.010966	0.303836
47.605751	-2.771901	18.862771	-0.010913	0.303824
47.656685	-2.847754	18.867776	-0.010925	0.303581
47.214826	-2.782791	18.872781	-0.010817	0.303500
47.314195	-2.806299	18.877786	-0.010841	0.303484
47.403349	-2.867937	18.882791	-0.010863	0.303321
46.799146	-2.788091	18.887795	-0.010715	0.303177
47.316177	-2.915885	18.892800	-0.010841	0.303080
46.733844	-2.860156	18.897805	-0.010699	0.302862
46.619745	-2.841178	18.902810	-0.010671	0.302849
46.697643	-2.931623	18.907815	-0.010690	0.302571
46.790385	-2.973398	18.912819	-0.010712	0.302483
46.159656	-2.920264	18.917824	-0.010558	0.302220
46.210601	-2.951395	18.922829	-0.010570	0.302142
46.170549	-3.006055	18.927834	-0.010560	0.301909
46.502060	-3.127107	18.932839	-0.010641	0.301701
45.820828	-3.041716	18.937843	-0.010474	0.301521
45.320595	-3.003157	18.942848	-0.010352	0.301299
45.429942	-3.064266	18.947853	-0.010378	0.301151
44.583178	-2.949826	18.952858	-0.010172	0.300957
44.215561	-2.874170	18.957863	-0.010082	0.300970
43.714397	-2.776997	18.962867	-0.009959	0.300965
43.394737	-2.714864	18.967872	-0.009881	0.300962
43.243504	-2.683750	18.972877	-0.009844	0.300967
42.701364	-2.648062	18.977882	-0.009711	0.300703
42.581578	-2.554442	18.982887	-0.009682	0.300964
42.277444	-2.495094	18.987891	-0.009607	0.300962
42.916017	-2.621472	18.992896	-0.009763	0.300958
43.278630	-2.715226	18.997901	-0.009852	0.300873
43.094168	-2.741065	19.002906	-0.009806	0.300642
43.449577	-2.843092	19.007911	-0.009893	0.300521
42.972822	-2.800661	19.012915	-0.009776	0.300330
43.339638	-2.924884	19.017920	-0.009866	0.300134
43.379938	-2.987390	19.022925	-0.009875	0.299930
43.138728	-3.022284	19.027930	-0.009816	0.299622
42.785352	-3.009665	19.032935	-0.009730	0.299409
42.402594	-3.007879	19.037939	-0.009636	0.299134
42.295734	-3.017765	19.042944	-0.009610	0.299018
42.008280	-3.002020	19.047949	-0.009539	0.298865
41.800985	-3.036340	19.052954	-0.009489	0.298583
41.276842	-2.946709	19.057959	-0.009360	0.298532
40.696703	-2.912734	19.062963	-0.009219	0.298232
40.096924	-2.801528	19.067968	-0.009072	0.298207
39.287108	-2.639836	19.072973	-0.008874	0.298217
38.864182	-2.557706	19.077978	-0.008771	0.298213
39.352058	-2.569370	19.082983	-0.008890	0.298528
39.219434	-2.544483	19.087987	-0.008857	0.298524
39.365546	-2.654074	19.092992	-0.008893	0.298219
39.640448	-2.708065	19.097997	-0.008960	0.298219
39.859395	-2.762028	19.103002	-0.009013	0.298177
39.767724	-2.817901	19.108007	-0.008990	0.297898
39.870970	-2.868601	19.113011	-0.009015	0.297783
39.702155	-2.887473	19.118016	-0.008974	0.297587
39.429347	-2.916077	19.123021	-0.008907	0.297277
38.904709	-2.842230	19.128026	-0.008779	0.297167
38.595213	-2.837827	19.133031	-0.008703	0.296953
38.842781	-2.915959	19.138035	-0.008763	0.296841
38.019370	-2.809851	19.143040	-0.008562	0.296631
37.619166	-2.728387	19.148045	-0.008464	0.296642
37.716073	-2.791475	19.153050	-0.008488	0.296475
37.543990	-2.794326	19.158055	-0.008445	0.296336
37.250346	-2.738469	19.163059	-0.008374	0.296328
37.478768	-2.844967	19.168064	-0.008429	0.296095
36.939960	-2.763559	19.173069	-0.008297	0.296002
36.806197	-2.765196	19.178074	-0.008265	0.295896
36.596925	-2.778686	19.183079	-0.008213	0.295688
36.357200	-2.732626	19.188083	-0.008155	0.295684
36.518488	-2.795726	19.193088	-0.008194	0.295564
36.053700	-2.754189	19.198093	-0.008080	0.295375
36.256542	-2.798844	19.203098	-0.008130	0.295356
36.219321	-2.860300	19.208103	-0.008120	0.295095
35.702755	-2.766428	19.213107	-0.007994	0.295066
35.630782	-2.824763	19.218112	-0.007976	0.294790
35.162122	-2.744210	19.223117	-0.007862	0.294746
35.237537	-2.788445	19.228122	-0.007880	0.294633
35.224316	-2.837981	19.233127	-0.007876	0.294434
34.568567	-2.711181	19.238131	-0.007716	0.294427
34.098864	-2.670267	19.243136	-0.007601	0.294231
33.707355	-2.619987	19.248141	-0.007505	0.294129
33.908858	-2.663219	19.253146	-0.007554	0.294114
33.920666	-2.663601	19.258151	-0.007557	0.294121
33.832982	-2.653614	19.263155	-0.007536	0.294093
34.022690	-2.745431	19.268160	-0.007582	0.293885
34.017333	-2.757889	19.273165	-0.007580	0.293833
33.356323	-2.703644	19.278170	-0.007419	0.293544
33.613399	-2.761294	19.283175	-0.007481	0.293516
33.303554	-2.773916	19.288179	-0.007405	0.293235
33.612390	-2.866890	19.293184	-0.007481	0.293111
33.369878	-2.869135	19.298189	-0.007421	0.292919
33.214089	-2.914936	19.303194	-0.007383	0.292626
32.949651	-2.899311	19.308199	-0.007318	0.292487
31.956277	-2.756921	19.313203	-0.007075	0.292284
32.390980	-2.879077	19.318208	-0.007181	0.292143
31.748905	-2.794690	19.323213	-0.007024	0.291982
31.158823	-2.683090	19.328218	-0.006880	0.291965
30.787308	-2.606614	19.333223	-0.006789	0.291978
30.225004	-2.497947	19.338227	-0.006652	0.291971
30.356152	-2.524019	19.343232	-0.006684	0.291970
30.366081	-2.522771	19.348237	-0.006686	0.291981
30.284757	-2.585452	19.353242	-0.006666	0.291679
30.488612	-2.629910	19.358247	-0.006716	0.291661
30.815372	-2.698603	19.363251	-0.006795	0.291643
30.954229	-2.802005	19.368256	-0.006829	0.291350
30.988937	-2.853882	19.373261	-0.006837	0.291176
30.411742	-2.795415	19.378266	-0.006696	0.290964
30.557040	-2.889398	19.383271	-0.006731	0.290711
30.104409	-2.863500	19.388275	-0.006621	0.290468
29.403887	-2.746958	19.393280	-0.006449	0.290386
29.257434	-2.784263	19.398285	-0.006413	0.290130
29.148993	-2.774729	19.403290	-0.006387	0.290084
28.611695	-2.689473	19.408295	-0.006255	0.290006
27.789241	-2.591262	19.413299	-0.006054	0.289760
28.153846	-2.663670	19.418304	-0.006143	0.289757
27.870108	-2.605032	19.423309	-0.006074	0.289768
27.362911	-2.509199	19.428314	-0.005950	0.289753
27.733776	-2.578521	19.433319	-0.006040	0.289766
27.896888	-2.675174	19.438323	-0.006080	0.289515
27.691490	-2.651024	19.443328	-0.006030	0.289452
27.378325	-2.620406	19.448333	-0.005953	0.289332
27.076111	-2.610449	19.453338	-0.005879	0.289140
27.352952	-2.662882	19.458343	-0.005946	0.289147
27.004456	-2.643454	19.463347	-0.005861	0.288956
26.979670	-2.643873	19.468352	-0.005855	0.288935
27.111879	-2.734528	19.473357	-0.005887	0.288683
26.851113	-2.713215	19.478362	-0.005823	0.288567
26.536857	-2.723037	19.483367	-0.005746	0.288288
26.515301	-2.749365	19.488371	-0.005741	0.288169
25.983840	-2.698008	19.493376	-0.005611	0.287962
25.881891	-2.698558	19.498381	-0.005586	0.287881
25.589496	-2.698393	19.503386	-0.005514	0.287658
25.954720	-2.793423	19.508391	-0.005603	0.287566
25.261865	-2.715633	19.513395	-0.005434	0.287339
25.183270	-2.732282	19.518400	-0.005414	0.287213
24.776243	-2.696439	19.523405	-0.005315	0.287040
24.792641	-2.703795	19.528410	-0.005319	0.287023
24.442151	-2.708735	19.533415	-0.005233	0.286735
23.626367	-2.553435	19.538419	-0.005033	0.286715
23.476164	-2.525447	19.543424	-0.004997	0.286709
23.472824	-2.521810	19.548429	-0.004996	0.286720
23.252545	-2.480749	19.553434	-0.004942	0.286711
23.233882	-2.541672	19.558439	-0.004937	0.286457
22.662778	-2.440721	19.563443	-0.004797	0.286413
22.935445	-2.495995	19.568448	-0.004864	0.286406
22.952526	-2.496296	19.573453	-0.004868	0.286417
22.722210	-2.508744	19.578458	-0.004811	0.286191
22.585582	-2.510287	19.583463	-0.004778	0.286079
23.003309	-2.604112	19.588467	-0.004880	0.286032
23.306699	-2.732897	19.593472	-0.004954	0.285760
23.467141	-2.829328	19.598477	-0.004993	0.285505
23.156005	-2.845409	19.603482	-0.004916	0.285201
23.269996	-2.938639	19.608487	-0.004944	0.284922
22.797740	-2.922914	19.613491	-0.004828	0.284618
22.299221	-2.892642	19.618496	-0.004706	0.284351
21.654275	-2.802098	19.623501	-0.004549	0.284208
21.281550	-2.783256	19.628506	-0.004458	0.283993
20.532998	-2.644039	19.633511	-0.004275	0.283961
19.966796	-2.532912	19.638515	-0.004136	0.283961
19.902950	-2.521045	19.643520	-0.004121	0.283958
19.591186	-2.456301	19.648525	-0.004044	0.283971
19.338112	-2.410383	19.653530	-0.003982	0.283956
19.479208	-2.436532	19.658535	-0.004017	0.283961
19.156572	-2.373214	19.663539	-0.003938	0.283961
19.109795	-2.428988	19.668544	-0.003926	0.283703
19.104350	-2.446308	19.673549	-0.003925	0.283630
19.259653	-2.480582	19.678554	-0.003962	0.283615
19.383320	-2.510552	19.683559	-0.003992	0.283592
19.172949	-2.540318	19.688563	-0.003941	0.283310
19.308106	-2.584639	19.693568	-0.003974	0.283239
18.723832	-2.531791	19.698573	-0.003831	0.282993
18.808893	-2.556259	19.703578	-0.003851	0.282962
18.776322	-2.618143	19.708583	-0.003843	0.282691
18.526863	-2.586435	19.713587	-0.003782	0.282622
18.396036	-2.627981	19.718592	-0.003750	0.282354
19.034057	-2.798046	19.723597	-0.003906	0.282176
18.752564	-2.818627	19.728602	-0.003837	0.281873
18.672696	-2.871512	19.733607	-0.003817	0.281600
18.453754	-2.896716	19.738611	-0.003763	0.281328
18.247976	-2.935193	19.743616	-0.003713	0.281012
17.512789	-2.846803	19.748621	-0.003533	0.280788
16.921811	-2.791361	19.753626	-0.003389	0.280545
16.121195	-2.653012	19.758631	-0.003193	0.280469
15.343020	-2.499658	19.763635	-0.003003	0.280471
14.905098	-2.415944	19.768640	-0.002896	0.280461
14.301694	-2.286396	19.773645	-0.002748	0.280505
14.257399	-2.208011	19.778650	-0.002737	0.280783
14.345639	-2.223124	19.783655	-0.002759	0.280791
14.194560	-2.193097	19.788659	-0.002722	0.280792
14.582678	-2.271421	19.793664	-0.002816	0.280783
14.830391	-2.317124	19.798669	-0.002877	0.280795
15.267042	-2.408932	19.803674	-0.002983	0.280770
15.606193	-2.549945	19.808679	-0.003066	0.280472
15.632017	-2.602867	19.813683	-0.003072	0.280280
15.511463	-2.640576	19.818688	-0.003042	0.280034
15.502656	-2.711103	19.823693	-0.003040	0.279744
15.429706	-2.772344	19.828698	-0.003022	0.279440
15.048252	-2.757173	19.833703	-0.002928	0.279199
14.506462	-2.699407	19.838707	-0.002796	0.279003
14.433659	-2.752093	19.843712	-0.002778	0.278733
13.980731	-2.697983	19.848717	-0.002667	0.278592
13.495715	-2.664200	19.853722	-0.002548	0.278344
13.867323	-2.782081	19.858727	-0.002639	0.278163
13.022940	-2.648372	19.863731	-0.002433	0.278032
12.558282	-2.621726	19.868736	-0.002319	0.277771
12.363921	-2.592784	19.873741	-0.002271	0.277733
11.970153	-2.519045	19.878746	-0.002175	0.277718
12.212461	-2.605478	19.883751	-0.002234	0.277561
11.569589	-2.520083	19.888755	-0.002077	0.277395
11.485539	-2.505036	19.893760	-0.002056	0.277388
11.354437	-2.476521	19.898765	-0.002024	0.277399
10.844573	-2.379565	19.903770	-0.001899	0.277386
10.504765	-2.363175	19.908775	-0.001816	0.277181
9.966807	-2.217667	19.913779	-0.001685	0.277342
10.144102	-2.240944	19.918784	-0.001728	0.277388
10.328424	-2.306379	19.923789	-0.001773	0.277269
9.921020	-2.273196	19.928794	-0.001673	0.277079
10.540957	-2.393758	19.933799	-0.001824	0.277084
10.718269	-2.444437	19.938803	-0.001867	0.277019
10.803145	-2.523814	19.943808	-0.001888	0.276764
10.964451	-2.613017	19.948813	-0.001927	0.276531
10.839452	-2.654836	19.953818	-0.001896	0.276261
10.759350	-2.706878	19.958823	-0.001877	0.275985
10.584963	-2.741231	19.963827	-0.001834	0.275705
10.582636	-2.815863	19.968832	-0.001833	0.275399
10.310186	-2.828431	19.973837	-0.001766	0.275129
9.555265	-2.742484	19.978842	-0.001582	0.274874
9.199343	-2.744135	19.983847	-0.001495	0.274581
8.312082	-2.570548	19.988851	-0.001278	0.274578
7.953783	-2.564167	19.993856	-0.001190	0.274316
7.602951	-2.506910	19.998861	-0.001104	0.274267
7.129025	-2.416054	20.003866	-0.000988	0.274258
7.126485	-2.414607	20.008871	-0.000988	0.274261
6.813592	-2.353094	20.013875	-0.000911	0.274261
6.464912	-2.285589	20.018880	-0.000826	0.274256
6.437656	-2.277741	20.023885	-0.000819	0.274266
6.423970	-2.277680	20.028890	-0.000816	0.274255
6.553348	-2.301815	20.033895	-0.000847	0.274259
6.573164	-2.311288	20.038899	-0.000852	0.274236
6.289138	-2.308086	20.043904	-0.000782	0.274020
6.709254	-2.386525	20.048909	-0.000885	0.274036
6.804721	-2.458822	20.053914	-0.000908	0.273817
6.837525	-2.506695	20.058919	-0.000915	0.273646
6.798817	-2.562238	20.063923	-0.000906	0.273387
6.980591	-2.668813	20.068928	-0.000950	0.273095
6.493619	-2.636022	20.073933	-0.000831	0.272836
5.990654	-2.598809	20.078938	-0.000708	0.272582
5.830567	-2.604115	20.083943	-0.000669	0.272430
5.516920	-2.614428	20.088947	-0.000592	0.272133
5.394327	-2.617770	20.093952	-0.000562	0.272019
4.897164	-2.570071	20.098957	-0.000440	0.271813
4.818907	-2.598235	20.103962	-0.000421	0.271632
4.242404	-2.515957	20.108967	-0.000280	0.271504
3.985132	-2.465379	20.113971	-0.000217	0.271503
3.916585	-2.523434	20.118976	-0.000200	0.271207
3.756757	-2.499135	20.123981	-0.000161	0.271177
3.437621	-2.439688	20.128986	-0.000083	0.271163
3.389463	-2.503720	20.133991	-0.000071	0.270858
3.154433	-2.456956	20.138995	-0.000013	0.270860
2.821127	-2.395044	20.144000	0.000068	0.270845
2.786837	-2.460665	20.149005	0.000077	0.270544
2.570463	-2.420256	20.154010	0.000130	0.270535
2.830896	-2.486574	20.159015	0.000067	0.270472
2.291854	-2.436475	20.164019	0.000198	0.270240
2.351945	-2.450198	20.169024	0.000184	0.270231
